SpectraSuite Data File
++++++++++++++++++++++++++++++++++++
Date: Fri Jun 02 14:51:13 CEST 2017
User: INFO_000
Dark Spectrum Present: No
Reference Spectrum Present: No
Number of Sampled Component Spectra: 1
Spectrometers: USB4H00879
Integration Time (usec): 80000 (USB4H00879)
Spectra Averaged: 1 (USB4H00879)
Boxcar Smoothing: 0 (USB4H00879)
Correct for Electrical Dark: No (USB4H00879)
Strobe/Lamp Enabled: No (USB4H00879)
Correct for Detector Non-linearity: No (USB4H00879)
Correct for Stray Light: No (USB4H00879)
Number of Pixels in Processed Spectrum: 3648
>>>>>Begin Processed Spectral Data<<<<<
345.13	1228.78
345.34	1228.78
345.56	1228.78
345.78	1210.35
345.99	1298.41
346.21	1646.57
346.42	1761.25
346.64	1642.47
346.86	1798.12
347.07	1617.90
347.29	1687.53
347.50	1605.61
347.72	1716.20
347.94	1732.58
348.15	1652.71
348.37	1572.84
348.59	1757.16
348.80	1591.27
349.02	1820.64
349.23	1859.56
349.45	1810.40
349.67	1888.23
349.88	1859.56
350.10	1986.53
350.31	1861.60
350.53	1753.06
350.75	1935.33
350.96	1826.79
351.18	1920.99
351.39	1880.04
351.61	1802.21
351.82	1964.00
352.04	1941.47
352.26	1826.79
352.47	1918.95
352.69	1947.62
352.90	1763.30
353.12	1834.98
353.34	1843.17
353.55	1888.23
353.77	1892.32
353.98	1851.36
354.20	1810.40
354.41	1939.43
354.63	1941.47
354.85	2064.35
355.06	1920.99
355.28	1806.31
355.49	1939.43
355.71	1912.80
355.92	1847.27
356.14	1849.32
356.35	1906.66
356.57	1933.28
356.79	1945.57
357.00	1783.78
357.22	1945.57
357.43	1849.32
357.65	1970.15
357.86	1863.65
358.08	1896.42
358.29	1941.47
358.51	1912.80
358.72	2000.87
358.94	1884.13
359.16	2007.01
359.37	1918.95
359.59	1873.89
359.80	1888.23
360.02	1890.28
360.23	1822.69
360.45	2111.46
360.66	1937.38
360.88	1826.79
361.09	1902.56
361.31	1994.72
361.52	1980.39
361.74	2062.30
361.95	2050.02
362.17	1939.43
362.38	2076.64
362.60	2115.55
362.81	1949.67
363.03	1908.71
363.24	2015.20
363.46	2011.11
363.67	2072.54
363.89	1959.91
364.10	2013.15
364.32	1990.63
364.53	2000.87
364.75	1976.29
364.96	2002.91
365.18	2025.44
365.39	1998.82
365.61	2035.68
365.82	2117.60
366.04	2035.68
366.25	1994.72
366.47	2093.02
366.68	1992.67
366.90	1912.80
367.11	2060.26
367.33	2023.39
367.54	2054.11
367.76	2021.35
367.97	2150.37
368.19	2027.49
368.40	2035.68
368.62	1980.39
368.83	2009.06
369.05	2101.22
369.26	2023.39
369.48	1964.00
369.69	1964.00
369.91	2109.41
370.12	2015.20
370.33	2154.46
370.55	1996.77
370.76	1984.48
370.98	2086.88
371.19	2074.59
371.41	2035.68
371.62	2033.63
371.84	1943.52
372.05	2181.09
372.27	2037.73
372.48	2019.30
372.69	2109.41
372.91	2209.76
373.12	2209.76
373.34	2129.89
373.55	2146.27
373.77	2125.79
373.98	2086.88
374.20	2158.56
374.41	2179.04
374.62	2035.68
374.84	2181.09
375.05	2205.66
375.27	2166.75
375.48	2154.46
375.70	2176.99
375.91	2152.42
376.12	2273.25
376.34	2154.46
376.55	2179.04
376.77	2162.66
376.98	2041.82
377.19	2119.65
377.41	2174.94
377.62	2271.20
377.84	2136.03
378.05	2269.15
378.27	2168.80
378.48	2334.68
378.69	2377.69
378.91	2220.00
379.12	2260.96
379.34	2189.28
379.55	2224.09
379.76	2248.67
379.98	2250.72
380.19	2183.13
380.41	2271.20
380.62	2355.16
380.83	2273.25
381.05	2205.66
381.26	2389.98
381.47	2238.43
381.69	2271.20
381.90	2396.12
382.12	2240.48
382.33	2332.64
382.54	2240.48
382.76	2314.20
382.97	2250.72
383.19	2238.43
383.40	2338.78
383.61	2334.68
383.83	2326.49
384.04	2351.07
384.25	2361.31
384.47	2320.35
384.68	2447.32
384.89	2209.76
385.11	2322.40
385.32	2379.74
385.54	2316.25
385.75	2367.45
385.96	2383.84
386.18	2371.55
386.39	2480.09
386.60	2359.26
386.82	2422.75
387.03	2392.03
387.24	2471.90
387.46	2377.69
387.67	2404.32
387.88	2533.34
388.10	2396.12
388.31	2396.12
388.52	2582.49
388.74	2519.00
388.95	2471.90
389.16	2516.95
389.38	2521.05
389.59	2574.30
389.80	2609.11
390.02	2576.34
390.23	2574.30
390.44	2609.11
390.66	2508.76
390.87	2543.58
391.08	2568.15
391.30	2672.60
391.51	2654.17
391.72	2584.54
391.94	2617.30
392.15	2674.65
392.36	2572.25
392.58	2596.82
392.79	2643.93
393.00	2707.41
393.22	2682.84
393.43	2731.99
393.64	2748.37
393.85	2754.52
394.07	2615.26
394.28	2740.18
394.49	2723.80
394.71	2760.66
394.92	2777.05
395.13	2662.36
395.35	2734.04
395.56	2711.51
395.77	2777.05
395.98	2865.11
396.20	2920.40
396.41	2764.76
396.62	2861.01
396.84	2789.33
397.05	2789.33
397.26	2949.08
397.47	2965.46
397.69	2766.81
397.90	3020.75
398.11	2822.10
398.32	2754.52
398.54	2910.16
398.75	2854.87
398.96	2889.68
399.18	3065.81
399.39	2887.64
399.60	3043.28
399.81	2891.73
400.03	2985.94
400.24	3221.45
400.45	2928.60
400.66	2963.41
400.88	2891.73
401.09	3229.65
401.30	2959.31
401.51	3135.44
401.73	3131.34
401.94	2969.55
402.15	3010.51
402.36	3155.92
402.58	3074.00
402.79	3192.78
403.00	3139.54
403.21	3137.49
403.43	3127.25
403.64	3221.45
403.85	3182.54
404.06	3252.17
404.27	3104.72
404.49	3121.10
404.70	3035.09
404.91	3239.89
405.12	3213.26
405.34	3301.33
405.55	3250.13
405.76	3133.39
405.97	3229.65
406.19	3274.70
406.40	3219.41
406.61	3270.61
406.82	3319.76
407.03	3248.08
407.25	3284.94
407.46	3428.30
407.67	3518.41
407.88	3506.12
408.09	3280.85
408.31	3293.13
408.52	3368.91
408.73	3426.25
408.94	3344.33
409.15	3311.57
409.37	3383.24
409.58	3393.48
409.79	3510.22
410.00	3598.28
410.21	3350.48
410.43	3352.52
410.64	3295.18
410.85	3596.23
411.06	3477.45
411.27	3626.95
411.48	3489.74
411.70	3536.84
411.91	3516.36
412.12	3639.24
412.33	3461.07
412.54	3530.70
412.76	3725.26
412.97	3631.05
413.18	3436.49
413.39	3663.82
413.60	3723.21
413.81	3567.56
414.03	3622.86
414.24	3590.09
414.45	3813.32
414.66	3663.82
414.87	3715.02
415.08	3745.73
415.30	3747.78
415.51	3622.86
415.72	3809.22
415.93	3755.97
416.14	3708.87
416.35	3639.24
416.56	3794.89
416.78	3807.17
416.99	3735.50
417.20	3946.44
417.41	3776.45
417.62	3891.14
417.83	3852.23
418.04	3753.93
418.26	3876.80
418.47	3811.27
418.68	3885.00
418.89	3903.43
419.10	4132.80
419.31	4016.07
419.52	3915.72
419.73	3948.48
419.95	4095.94
420.16	3948.48
420.37	3973.06
420.58	4063.17
420.79	3825.61
421.00	4138.94
421.21	4198.34
421.42	4124.61
421.63	3997.64
421.85	4138.94
422.06	4132.80
422.27	4239.30
422.48	4134.85
422.69	4149.18
422.90	4140.99
423.11	4218.82
423.32	4143.04
423.53	4405.18
423.75	4237.25
423.96	4386.75
424.17	4304.83
424.38	4265.92
424.59	4333.50
424.80	4583.35
425.01	4429.76
425.22	4509.63
425.43	4470.72
425.64	4595.64
425.85	4618.17
426.06	4435.90
426.28	4566.97
426.49	4509.63
426.70	4523.96
426.91	4476.86
427.12	4646.84
427.33	4583.35
427.54	4548.54
427.75	4773.82
427.96	4757.43
428.17	4491.20
428.38	4679.61
428.59	4812.73
428.80	4704.18
429.01	4870.07
429.23	4710.33
429.44	4908.98
429.65	4859.83
429.86	4878.26
430.07	4847.54
430.28	4882.36
430.49	4933.56
430.70	5064.63
430.91	5081.01
431.12	5042.10
431.33	5103.54
431.54	5048.24
431.75	5097.39
431.96	4960.18
432.17	4999.09
432.38	5083.06
432.59	5248.94
432.80	5154.74
433.01	5246.90
433.22	5195.70
433.43	5269.42
433.64	5218.22
433.85	5226.42
434.06	5404.59
434.27	5277.62
434.49	5294.00
434.70	5408.69
434.91	5474.22
435.12	5533.61
435.33	5386.16
435.54	5588.91
435.75	5224.37
435.96	5439.40
436.17	5345.20
436.38	5472.17
436.59	5586.86
436.80	5431.21
437.01	5787.56
437.22	5642.15
437.43	5605.29
437.64	5337.01
437.85	5679.02
438.06	5568.43
438.27	5615.53
438.48	5654.44
438.69	5742.50
438.90	5754.79
439.11	5654.44
439.32	5750.70
439.53	5816.23
439.74	5834.66
439.95	5744.55
440.16	5834.66
440.37	5910.44
440.57	5734.31
440.78	5865.38
440.99	5932.97
441.20	5859.24
441.41	5744.55
441.62	5820.33
441.83	5834.66
442.04	6158.24
442.25	6018.98
442.46	5969.83
442.67	6000.55
442.88	6373.28
443.09	5906.34
443.30	6041.51
443.51	6080.42
443.72	6342.56
443.93	6043.56
444.14	6455.20
444.35	5992.36
444.56	6215.59
444.77	6111.14
444.98	6274.98
445.19	6295.46
445.40	6395.81
445.61	6352.80
445.81	6412.19
446.02	6451.10
446.23	6356.90
446.44	6160.29
446.65	6340.51
446.86	6379.42
447.07	6522.78
447.28	6678.43
447.49	6549.40
447.70	6545.31
447.91	6580.12
448.12	6559.64
448.33	6735.77
448.54	6682.52
448.74	6645.66
448.95	6565.79
449.16	6410.14
449.37	6877.08
449.58	6780.82
449.79	6703.00
450.00	6805.40
450.21	6936.47
450.42	6883.22
450.63	7026.58
450.84	6823.83
451.05	6928.28
451.25	6942.61
451.46	6868.89
451.67	7202.71
451.88	7114.64
452.09	6903.70
452.30	6895.51
452.51	7014.29
452.72	7258.00
452.93	7399.31
453.13	7116.69
453.34	7135.12
453.55	7372.69
453.76	7243.67
453.97	7655.31
454.18	7298.96
454.39	7391.12
454.60	7348.11
454.81	7444.37
455.01	7661.45
455.22	7088.02
455.43	7602.06
455.64	7749.51
455.85	7571.34
456.06	7937.93
456.27	7735.18
456.48	7720.84
456.68	7782.28
456.89	7821.19
457.10	7878.54
457.31	7954.31
457.52	7743.37
457.73	7901.06
457.94	7991.17
458.14	7782.28
458.35	8200.07
458.56	7907.21
458.77	8144.77
458.98	8126.34
459.19	8230.79
459.39	8271.75
459.60	8376.19
459.81	8224.64
460.02	8550.27
460.23	8327.04
460.44	8638.33
460.65	8570.75
460.85	8638.33
461.06	8793.98
461.27	8365.95
461.48	8806.27
461.69	8812.41
461.89	8630.14
462.10	9082.74
462.31	8841.08
462.52	8787.83
462.73	8886.14
462.94	8851.32
463.14	9109.36
463.35	9002.87
463.56	9324.40
463.77	9353.07
463.98	9039.73
464.18	9125.75
464.39	9473.90
464.60	9467.76
464.81	9537.39
465.02	9422.70
465.23	9590.64
465.43	9521.01
465.64	9602.93
465.85	9770.86
466.06	9527.15
466.27	9965.42
466.47	9875.31
466.68	9910.12
466.89	9693.04
467.10	10104.68
467.30	9752.43
467.51	10182.50
467.72	10325.86
467.93	9998.18
468.14	10268.52
468.34	10448.74
468.55	10379.11
468.76	10215.27
468.97	10338.15
469.17	10590.05
469.38	10635.10
469.59	10848.09
469.80	10569.57
470.01	10743.64
470.21	10651.49
470.42	11028.31
470.63	11059.03
470.84	10944.34
471.04	11243.35
471.25	11347.79
471.46	11186.01
471.67	11485.01
471.87	11444.05
472.08	11427.67
472.29	11747.15
472.50	11237.20
472.70	11431.76
472.91	11593.55
473.12	11747.15
473.33	11820.88
473.53	12140.36
473.74	12001.10
473.95	11984.71
474.16	12488.51
474.36	12318.53
474.57	12306.24
474.78	12539.71
474.99	12339.01
475.19	12232.52
475.40	12584.77
475.61	12799.80
475.81	12783.42
476.02	13127.48
476.23	13014.84
476.44	13086.52
476.64	13152.06
476.85	13246.26
477.06	13252.41
477.27	13586.22
477.47	13522.74
477.68	13602.61
477.89	13811.50
478.09	13649.71
478.30	13692.72
478.51	13719.34
478.71	14040.87
478.92	14255.91
479.13	14319.40
479.34	14147.37
479.54	14307.11
479.75	14325.54
479.96	14479.14
480.16	14563.11
480.37	14843.68
480.58	14864.16
480.78	15109.91
480.99	15093.53
481.20	15027.99
481.41	15109.91
481.61	15345.43
481.82	15453.97
482.03	15503.12
482.23	15347.48
482.44	15597.33
482.65	15877.90
482.85	16066.31
483.06	15808.27
483.27	16021.26
483.47	15904.53
483.68	15914.77
483.89	16230.15
484.09	16252.68
484.30	16398.09
484.51	16496.39
484.71	16559.88
484.92	16731.90
485.13	16895.74
485.33	16740.10
485.54	16772.86
485.75	17278.71
485.95	17348.34
486.16	17229.56
486.37	17393.40
486.57	17395.45
486.78	17577.72
486.98	17561.33
487.19	17731.31
487.40	17772.27
487.60	17815.28
487.81	18118.38
488.02	17958.64
488.22	17712.88
488.43	18241.26
488.64	18071.28
488.84	18218.73
489.05	18280.17
489.25	18640.61
489.46	18636.52
489.67	18585.32
489.87	18824.93
490.08	18939.62
490.29	18861.79
490.49	19246.81
490.70	19263.19
490.90	19341.02
491.11	19107.55
491.32	19795.67
491.52	19394.26
491.73	19709.65
491.94	19648.21
492.14	19381.98
492.35	19769.04
492.55	20201.16
492.76	19988.18
492.97	20127.44
493.17	20188.88
493.38	20158.16
493.58	20496.07
493.79	20502.22
494.00	20399.82
494.20	20745.92
494.41	20661.96
494.61	20541.13
494.82	20922.05
495.02	20795.07
495.23	21163.71
495.44	21161.66
495.64	21464.76
495.85	21270.20
496.05	21272.25
496.26	21470.90
496.47	21515.96
496.67	21614.26
496.88	21751.48
497.08	21487.29
497.29	22007.47
497.49	21694.13
497.70	21933.75
497.91	22177.45
498.11	22152.88
498.32	22288.04
498.52	22568.62
498.73	22513.32
498.93	22183.60
499.14	22658.73
499.34	22453.93
499.55	22910.63
499.76	22730.41
499.96	22890.15
500.17	22943.39
500.37	22789.80
500.58	22931.11
500.78	23010.98
500.99	23307.93
501.19	23527.06
501.40	23375.52
501.60	23127.71
501.81	23492.25
502.02	23367.32
502.22	23584.41
502.43	23584.41
502.63	24094.35
502.84	23725.72
503.04	23602.84
503.25	24014.48
503.45	23768.73
503.66	24247.95
503.86	24096.40
504.07	24510.09
504.27	24059.54
504.48	24370.83
504.68	24387.21
504.89	24825.48
505.09	24436.36
505.30	24829.57
505.50	24573.58
505.71	24800.90
505.91	24714.89
506.12	24985.22
506.32	24813.19
506.53	25040.51
506.73	25013.89
506.94	25273.98
507.14	25370.24
507.35	25077.38
507.55	25529.98
507.76	25355.90
507.96	25400.96
508.17	25652.86
508.37	25427.58
508.58	25452.16
508.78	25548.41
508.99	25765.49
509.19	25740.92
509.40	25845.37
509.60	25570.94
509.81	25960.05
510.01	25933.43
510.22	26304.11
510.42	26052.21
510.63	25998.96
510.83	26148.46
511.04	26136.18
511.24	26431.08
511.44	26508.91
511.65	26648.17
511.85	26482.28
512.06	26250.86
512.26	26635.88
512.47	26590.83
512.67	26617.45
512.88	26652.27
513.08	26842.73
513.29	26932.84
513.49	26867.30
513.69	26760.81
513.90	26857.06
514.10	27192.93
514.31	26783.34
514.51	27045.48
514.72	27346.53
514.92	27215.46
515.13	27207.26
515.33	27211.36
515.53	27389.53
515.74	27496.03
515.94	27573.85
516.15	27508.32
516.35	27643.48
516.56	27846.23
516.76	27973.21
516.96	27891.29
517.17	27952.73
517.37	28051.03
517.58	28118.61
517.78	27706.97
517.99	27924.05
518.19	28399.18
518.39	28405.33
518.60	28280.40
518.80	28061.27
519.01	28649.03
519.21	28438.09
519.41	28733.00
519.62	28601.93
519.82	28587.60
520.03	29046.34
520.23	28919.37
520.43	28640.84
520.64	29201.99
520.84	29101.64
521.05	28929.61
521.25	29064.77
521.45	29267.52
521.66	29279.81
521.86	28931.65
522.07	29335.10
522.27	29328.96
522.47	29759.03
522.68	29812.28
522.88	29419.07
523.08	30010.93
523.29	29376.06
523.49	29838.90
523.70	30217.78
523.90	30332.47
524.10	30129.72
524.31	30133.81
524.51	30010.93
524.71	30504.49
524.92	30752.30
525.12	30631.47
525.33	30494.25
525.53	30733.87
525.73	30885.42
525.94	30866.98
526.14	30846.51
526.34	30942.76
526.55	31192.61
526.75	31172.13
526.95	31403.55
527.16	30922.28
527.36	31112.74
527.56	31489.57
527.77	31657.50
527.97	31563.29
528.17	31864.35
528.38	32075.29
528.58	32116.25
528.78	32196.12
528.99	31798.81
529.19	32052.76
529.39	31710.75
529.60	32226.84
529.80	32187.92
530.00	32437.78
530.21	32724.49
530.41	33097.22
530.61	32517.65
530.82	32634.38
531.02	32896.52
531.22	33037.83
531.43	33248.77
531.63	33068.55
531.83	33605.12
532.04	33486.34
532.24	33250.82
532.44	33555.97
532.64	33807.87
532.85	34045.43
533.05	33789.44
533.25	34131.45
533.46	33803.77
533.66	34289.14
533.86	34012.66
534.07	34827.76
534.27	34385.40
534.47	34448.88
534.67	34616.82
534.88	34510.32
535.08	34508.27
535.28	34633.20
535.49	34817.52
535.69	35227.11
535.89	35046.89
536.09	35423.72
536.30	35476.96
536.50	35530.21
536.70	35220.97
536.91	35458.53
537.11	35560.93
537.31	35911.13
537.51	35866.08
537.72	35808.73
537.92	36050.39
538.12	36232.66
538.32	36373.97
538.53	36500.95
538.73	36060.63
538.93	36378.07
539.13	36605.39
539.34	36423.12
539.54	36627.92
539.74	36765.14
539.94	36832.72
540.15	36230.62
540.35	37029.32
540.55	36824.53
540.75	36636.11
540.96	36867.53
541.16	36851.15
541.36	37465.54
541.56	37178.82
541.77	37778.88
541.97	37514.69
542.17	37713.34
542.37	37916.09
542.58	38204.86
542.78	37545.41
542.98	37526.98
543.18	37893.57
543.38	38409.65
543.59	38104.51
543.79	37709.25
543.99	37969.34
544.19	38665.65
544.40	38335.93
544.60	38616.50
544.80	38530.48
545.00	38542.77
545.20	38806.96
545.41	38555.06
545.61	38608.31
545.81	38931.89
546.01	39077.29
546.21	39071.15
546.42	39200.17
546.62	39744.93
546.82	39056.81
547.02	39136.68
547.22	39343.53
547.43	38960.56
547.63	39007.66
547.83	39450.02
548.03	39452.07
548.23	39591.33
548.44	39730.59
548.64	39589.28
548.84	39771.55
549.04	39984.54
549.24	39863.71
549.45	40095.13
549.65	40041.88
549.85	39962.01
550.05	40242.59
550.25	39861.66
550.45	40365.46
550.66	40132.00
550.86	40111.52
551.06	40545.69
551.26	40758.67
551.46	40650.13
551.66	40789.39
551.87	40379.80
552.07	40525.21
552.27	40805.78
552.47	40641.94
552.67	40754.58
552.87	40695.19
553.07	41211.28
553.28	41129.36
553.48	40895.89
553.68	40973.71
553.88	41330.06
554.08	40920.46
554.28	41182.60
554.48	41117.07
554.69	41352.58
554.89	41311.63
555.09	41332.11
555.29	41139.60
555.49	41512.33
555.69	41317.77
555.89	41340.30
556.10	41776.51
556.30	41272.71
556.50	41844.10
556.70	41987.46
556.90	41813.38
557.10	42063.23
557.30	41670.02
557.50	41710.98
557.70	41872.77
557.91	42286.46
558.11	42116.48
558.31	42159.48
558.51	41930.11
558.71	42374.52
558.91	42530.17
559.11	42096.00
559.31	42382.71
559.51	42040.70
559.72	42495.35
559.92	42667.38
560.12	42442.10
560.32	42087.81
560.52	42425.72
560.72	42347.90
560.92	42474.87
561.12	42663.28
561.32	42990.96
561.52	42685.81
561.72	42601.85
561.93	42837.36
562.13	42935.66
562.33	42245.50
562.53	43380.07
562.73	42913.14
562.93	42804.59
563.13	43275.63
563.33	43224.43
563.53	43384.17
563.73	42937.71
563.93	43064.69
564.13	43824.48
564.33	43232.62
564.53	43507.05
564.74	43801.96
564.94	43302.25
565.14	43410.79
565.34	43208.04
565.54	43146.61
565.74	43363.69
565.94	43863.39
566.14	43341.16
566.34	43709.80
566.54	44111.20
566.74	43670.89
566.94	44217.69
567.14	44098.91
567.34	43701.61
567.54	43881.83
567.74	43687.27
567.94	43804.00
568.14	44119.39
568.34	44232.03
568.54	43994.46
568.74	44502.36
568.94	44219.74
569.14	44283.23
569.34	44469.59
569.54	44582.23
569.75	44090.72
569.95	44211.55
570.15	44746.07
570.35	44342.62
570.55	44354.91
570.75	44467.55
570.95	44123.49
571.15	44694.87
571.35	44510.55
571.55	45026.64
571.75	44606.81
571.95	44557.66
572.15	44619.10
572.35	44621.14
572.55	44967.25
572.75	44711.25
572.95	45159.76
573.15	44864.85
573.35	45303.12
573.55	45100.37
573.75	45018.45
573.95	45399.37
574.15	45065.55
574.35	45020.50
574.55	45139.28
574.75	45096.27
574.95	45505.87
575.15	45067.60
575.34	45675.85
575.54	45456.71
575.74	45880.64
575.94	46112.06
576.14	45888.84
576.34	45962.56
576.54	46120.26
576.74	46150.98
576.94	45430.09
577.14	45983.04
577.34	46400.83
577.54	45851.97
577.74	45987.14
577.94	46042.43
578.14	45999.43
578.34	46660.92
578.54	46193.98
578.74	46105.92
578.94	46523.71
579.14	46052.67
579.34	45931.84
579.54	46521.66
579.74	46859.57
579.94	46421.31
580.13	46736.69
580.33	46939.44
580.53	46984.50
580.73	47220.02
580.93	46767.41
581.13	47179.06
581.33	47158.58
581.53	47316.27
581.73	47318.32
581.93	47723.82
582.13	47363.37
582.33	46898.48
582.53	46941.49
582.73	47756.58
582.92	47428.91
583.12	47752.49
583.32	47666.47
583.52	47406.38
583.72	47875.37
583.92	47465.77
584.12	47527.21
584.32	48432.41
584.52	48164.13
584.72	47994.15
584.92	48215.33
585.11	48174.37
585.31	48057.63
585.51	48280.86
585.71	48065.83
585.91	48747.80
586.11	48092.45
586.31	48186.66
586.51	48196.90
586.71	48424.22
586.91	48551.20
587.10	48305.44
587.30	48629.02
587.50	48561.44
587.70	48852.25
587.90	49159.44
588.10	49145.11
588.30	48950.55
588.50	49003.80
