SpectraSuite Data File
++++++++++++++++++++++++++++++++++++
Date: Fri Jun 02 14:51:12 CEST 2017
User: INFO_000
Dark Spectrum Present: No
Reference Spectrum Present: No
Number of Sampled Component Spectra: 1
Spectrometers: USB4H00879
Integration Time (usec): 80000 (USB4H00879)
Spectra Averaged: 1 (USB4H00879)
Boxcar Smoothing: 0 (USB4H00879)
Correct for Electrical Dark: No (USB4H00879)
Strobe/Lamp Enabled: No (USB4H00879)
Correct for Detector Non-linearity: No (USB4H00879)
Correct for Stray Light: No (USB4H00879)
Number of Pixels in Processed Spectrum: 3648
>>>>>Begin Processed Spectral Data<<<<<
345.13	1302.51
345.34	1302.51
345.56	1302.51
345.78	1271.79
345.99	1341.42
346.21	1687.53
346.42	1673.19
346.64	1703.91
346.86	1773.54
347.07	1665.00
347.29	1734.63
347.50	1685.48
347.72	1730.53
347.94	1744.87
348.15	1654.76
348.37	1675.24
348.59	1712.10
348.80	1613.80
349.02	1775.59
349.23	1875.94
349.45	1847.27
349.67	1880.04
349.88	1781.73
350.10	1994.72
350.31	1865.70
350.53	1734.63
350.75	2045.92
350.96	1767.40
351.18	1857.51
351.39	1865.70
351.61	1816.55
351.82	1841.12
352.04	1880.04
352.26	1855.46
352.47	1880.04
352.69	1912.80
352.90	1804.26
353.12	1828.84
353.34	1834.98
353.55	1884.13
353.77	1937.38
353.98	1816.55
354.20	1806.31
354.41	1902.56
354.63	1920.99
354.85	2050.02
355.06	1906.66
355.28	1822.69
355.49	1943.52
355.71	1884.13
355.92	1832.93
356.14	1974.24
356.35	1890.28
356.57	1839.08
356.79	1939.43
357.00	1898.47
357.22	1990.63
357.43	1738.73
357.65	2041.82
357.86	1875.94
358.08	1902.56
358.29	1959.91
358.51	1978.34
358.72	1996.77
358.94	1884.13
359.16	1912.80
359.37	1935.33
359.59	1920.99
359.80	1998.82
360.02	1964.00
360.23	1976.29
360.45	1978.34
360.66	1923.04
360.88	1857.51
361.09	1834.98
361.31	2052.06
361.52	1943.52
361.74	2041.82
361.95	2027.49
362.17	1925.09
362.38	1992.67
362.60	1968.10
362.81	1998.82
363.03	1978.34
363.24	1959.91
363.46	2011.11
363.67	2000.87
363.89	1998.82
364.10	2052.06
364.32	1949.67
364.53	1996.77
364.75	1875.94
364.96	2027.49
365.18	1982.43
365.39	1998.82
365.61	1941.47
365.82	2154.46
366.04	2045.92
366.25	1976.29
366.47	2045.92
366.68	2045.92
366.90	2007.01
367.11	2107.36
367.33	2101.22
367.54	2007.01
367.76	1986.53
367.97	2148.32
368.19	2009.06
368.40	2009.06
368.62	2056.16
368.83	1898.47
369.05	2043.87
369.26	2019.30
369.48	1986.53
369.69	2056.16
369.91	2144.22
370.12	2017.25
370.33	2117.60
370.55	1945.57
370.76	2062.30
370.98	2103.26
371.19	2035.68
371.41	2015.20
371.62	2056.16
371.84	2037.73
372.05	2236.38
372.27	2113.50
372.48	2115.55
372.69	2035.68
372.91	2197.47
373.12	2168.80
373.34	2050.02
373.55	2093.02
373.77	2113.50
373.98	2172.89
374.20	2146.27
374.41	2193.37
374.62	2146.27
374.84	2154.46
375.05	2119.65
375.27	2148.32
375.48	2226.14
375.70	2138.08
375.91	2201.57
376.12	2279.39
376.34	2172.89
376.55	2205.66
376.77	2228.19
376.98	2107.36
377.19	2222.05
377.41	2078.69
377.62	2281.44
377.84	2213.85
378.05	2260.96
378.27	2244.57
378.48	2301.92
378.69	2330.59
378.91	2271.20
379.12	2220.00
379.34	2179.04
379.55	2222.05
379.76	2254.81
379.98	2162.66
380.19	2220.00
380.41	2209.76
380.62	2412.51
380.83	2187.23
381.05	2238.43
381.26	2371.55
381.47	2252.77
381.69	2295.77
381.90	2363.36
382.12	2287.58
382.33	2312.16
382.54	2275.29
382.76	2332.64
382.97	2248.67
383.19	2246.62
383.40	2383.84
383.61	2392.03
383.83	2365.40
384.04	2279.39
384.25	2351.07
384.47	2297.82
384.68	2330.59
384.89	2230.24
385.11	2281.44
385.32	2258.91
385.54	2312.16
385.75	2281.44
385.96	2324.44
386.18	2471.90
386.39	2404.32
386.60	2279.39
386.82	2334.68
387.03	2369.50
387.24	2428.89
387.46	2418.65
387.67	2473.95
387.88	2465.75
388.10	2510.81
388.31	2432.99
388.52	2506.71
388.74	2527.19
388.95	2422.75
389.16	2478.04
389.38	2457.56
389.59	2502.62
389.80	2609.11
390.02	2439.13
390.23	2551.77
390.44	2555.86
390.66	2572.25
390.87	2549.72
391.08	2600.92
391.30	2609.11
391.51	2578.39
391.72	2672.60
391.94	2617.30
392.15	2607.06
392.36	2629.59
392.58	2596.82
392.79	2672.60
393.00	2666.46
393.22	2803.67
393.43	2664.41
393.64	2748.37
393.85	2844.63
394.07	2678.74
394.28	2748.37
394.49	2633.69
394.71	2631.64
394.92	2801.62
395.13	2697.17
395.35	2731.99
395.56	2734.04
395.77	2775.00
395.98	2766.81
396.20	2824.15
396.41	2762.71
396.62	2965.46
396.84	2828.24
397.05	2793.43
397.26	2895.83
397.47	2826.20
397.69	2791.38
397.90	2983.89
398.11	2912.21
398.32	2811.86
398.54	2852.82
398.75	2910.16
398.96	2809.81
399.18	3065.81
399.39	2994.13
399.60	2987.99
399.81	2887.64
400.03	2963.41
400.24	3207.12
400.45	2990.03
400.66	3100.62
400.88	2928.60
401.09	3121.10
401.30	2975.70
401.51	3168.21
401.73	3059.67
401.94	3139.54
402.15	3063.76
402.36	3067.86
402.58	3051.47
402.79	3192.78
403.00	3125.20
403.21	3205.07
403.43	3123.15
403.64	3123.15
403.85	3026.90
404.06	3256.27
404.27	3119.06
404.49	3125.20
404.70	3098.58
404.91	3280.85
405.12	3246.03
405.34	3102.67
405.55	3452.88
405.76	3137.49
405.97	3215.31
406.19	3360.72
406.40	3239.89
406.61	3311.57
406.82	3284.94
407.03	3178.45
407.25	3256.27
407.46	3286.99
407.67	3313.61
407.88	3506.12
408.09	3342.28
408.31	3268.56
408.52	3356.62
408.73	3303.37
408.94	3278.80
409.15	3352.52
409.37	3465.16
409.58	3463.12
409.79	3379.15
410.00	3471.31
410.21	3327.95
410.43	3502.03
410.64	3383.24
410.85	3530.70
411.06	3512.27
411.27	3477.45
411.48	3649.48
411.70	3473.36
411.91	3620.81
412.12	3590.09
412.33	3491.79
412.54	3575.75
412.76	3661.77
412.97	3590.09
413.18	3477.45
413.39	3645.38
413.60	3676.10
413.81	3575.75
414.03	3555.27
414.24	3633.10
414.45	3745.73
414.66	3559.37
414.87	3678.15
415.08	3633.10
415.30	3680.20
415.51	3723.21
415.72	3712.97
415.93	3684.30
416.14	3774.41
416.35	3780.55
416.56	3796.93
416.78	3758.02
416.99	3743.69
417.20	3780.55
417.41	3880.90
417.62	3776.45
417.83	4011.97
418.04	3878.85
418.26	3889.09
418.47	3887.04
418.68	3934.15
418.89	3932.10
419.10	4054.98
419.31	3999.68
419.52	3991.49
419.73	4063.17
419.95	4075.46
420.16	3991.49
420.37	3948.48
420.58	4061.12
420.79	3854.28
421.00	4134.85
421.21	4014.02
421.42	3919.81
421.63	3987.40
421.85	4173.76
422.06	4184.00
422.27	4102.08
422.48	4173.76
422.69	4161.47
422.90	4177.86
423.11	4147.14
423.32	4315.07
423.53	4296.64
423.75	4374.46
423.96	4274.11
424.17	4229.06
424.38	4491.20
424.59	4417.47
424.80	4622.27
425.01	4501.44
425.22	4370.37
425.43	4415.42
425.64	4710.33
425.85	4693.94
426.06	4558.78
426.28	4384.70
426.49	4511.68
426.70	4603.83
426.91	4489.15
427.12	4548.54
427.33	4595.64
427.54	4655.03
427.75	4790.20
427.96	4796.34
428.17	4614.07
428.38	4736.95
428.59	4796.34
428.80	4650.94
429.01	4812.73
429.23	4784.06
429.44	4927.41
429.65	4943.80
429.86	4962.23
430.07	4839.35
430.28	4739.00
430.49	4841.40
430.70	5035.96
430.91	4988.85
431.12	4908.98
431.33	5115.83
431.54	5081.01
431.75	5175.22
431.96	5154.74
432.17	4911.03
432.38	5111.73
432.59	5164.98
432.80	5257.14
433.01	5189.55
433.22	5142.45
433.43	5328.81
433.64	5187.50
433.85	5277.62
434.06	5318.57
434.27	5318.57
434.49	5353.39
434.70	5457.84
434.91	5400.49
435.12	5445.55
435.33	5375.92
435.54	5351.34
435.75	5414.83
435.96	5468.08
436.17	5316.53
436.38	5611.43
436.59	5478.32
436.80	5375.92
437.01	5742.50
437.22	5562.28
437.43	5564.33
437.64	5388.21
437.85	5744.55
438.06	5664.68
438.27	5539.76
438.48	5486.51
438.69	5754.79
438.90	5877.67
439.11	5605.29
439.32	5805.99
439.53	5670.83
439.74	5756.84
439.95	5754.79
440.16	5728.17
440.37	5785.51
440.57	5666.73
440.78	5908.39
440.99	5900.20
441.20	5924.77
441.41	5849.00
441.62	5875.62
441.83	5801.90
442.04	6078.37
442.25	5967.78
442.46	6025.12
442.67	6027.17
442.88	6401.95
443.09	5906.34
443.30	5902.25
443.51	5980.07
443.72	6260.64
443.93	6131.62
444.14	6326.18
444.35	6236.06
444.56	6191.01
444.77	6164.39
444.98	6307.74
445.19	6410.14
445.40	6451.10
445.61	6477.73
445.81	6555.55
446.02	6490.01
446.23	6408.09
446.44	6248.35
446.65	6344.61
446.86	6451.10
447.07	6565.79
447.28	6803.35
447.49	6541.21
447.70	6582.17
447.91	6621.08
448.12	6547.36
448.33	6645.66
448.54	6629.27
448.74	6547.36
448.95	6680.47
449.16	6610.84
449.37	6840.22
449.58	6612.89
449.79	6913.94
450.00	6629.27
450.21	6891.41
450.42	7112.60
450.63	6948.76
450.84	6893.46
451.05	7122.84
451.25	6875.03
451.46	6893.46
451.67	7022.48
451.88	7165.84
452.09	7008.15
452.30	7014.29
452.51	7167.89
452.72	7323.54
452.93	7329.68
453.13	7085.97
453.34	7245.71
453.55	7258.00
453.76	7124.88
453.97	7624.59
454.18	7401.36
454.39	7509.90
454.60	7497.61
454.81	7335.82
455.01	7473.04
455.22	7296.91
455.43	7475.09
455.64	7823.24
455.85	7800.71
456.06	8007.56
456.27	7647.12
456.48	7634.83
456.68	8023.94
456.89	7952.26
457.10	7837.58
457.31	7976.84
457.52	7948.17
457.73	7925.64
457.94	8386.43
458.14	7759.75
458.35	8408.96
458.56	8181.64
458.77	8013.70
458.98	8181.64
459.19	8210.31
459.39	8306.56
459.60	8458.11
459.81	8241.03
460.02	8449.92
460.23	8484.73
460.44	8587.13
460.65	8554.37
460.85	8556.41
461.06	8767.35
461.27	8359.81
461.48	8959.86
461.69	8892.28
461.89	8505.21
462.10	8787.83
462.31	8710.01
462.52	8839.03
462.73	8832.89
462.94	9064.31
463.14	8953.72
463.35	8937.34
463.56	9357.17
463.77	9250.67
463.98	9021.30
464.18	9131.89
464.39	9383.79
464.60	9453.42
464.81	9521.01
465.02	9465.71
465.23	9729.90
465.43	9330.55
465.64	9822.06
465.85	9574.25
466.06	9482.10
466.27	9865.07
466.47	9873.26
466.68	9975.66
466.89	9920.36
467.10	9944.94
467.30	9983.85
467.51	10172.26
467.72	10317.67
467.93	10055.53
468.14	10086.25
468.34	10379.11
468.55	10676.06
468.76	10456.93
468.97	10194.79
469.17	10659.68
469.38	10762.08
469.59	10725.21
469.80	10680.16
470.01	10680.16
470.21	10911.58
470.42	11169.62
470.63	10970.97
470.84	10997.59
471.04	11110.23
471.25	11224.92
471.46	11130.71
471.67	11558.74
471.87	11159.38
472.08	11530.06
472.29	11753.29
472.50	11384.66
472.70	11415.38
472.91	11691.85
473.12	11478.86
473.33	11906.89
473.53	11890.51
473.74	11800.40
473.95	12238.66
474.16	12277.57
474.36	12078.92
474.57	12339.01
474.78	12611.39
474.99	12498.75
475.19	12439.36
475.40	12916.54
475.61	12859.20
475.81	12963.64
476.02	13162.30
476.23	12724.03
476.44	13199.16
476.64	13369.14
476.85	13408.05
477.06	12986.17
477.27	13715.25
477.47	13469.49
477.68	13672.24
477.89	13799.21
478.09	13780.78
478.30	13965.10
478.51	13891.37
478.71	13850.41
478.92	14210.86
479.13	14280.49
479.34	14442.28
479.54	14341.93
479.75	14503.71
479.96	14784.29
480.16	14706.46
480.37	14714.66
480.58	14823.20
480.78	15148.82
480.99	14884.64
481.20	15234.84
481.41	15165.21
481.61	15296.28
481.82	15539.99
482.03	15476.50
482.23	15560.47
482.44	15812.37
482.65	15759.12
482.85	16015.12
483.06	15773.46
483.27	16033.55
483.47	16092.94
483.68	15953.68
483.89	16441.09
484.09	16455.43
484.30	16383.75
484.51	16543.49
484.71	16850.69
484.92	16750.34
485.13	17139.45
485.33	16932.61
485.54	16963.33
485.75	17098.49
485.95	17397.49
486.16	17430.26
486.37	17291.00
486.57	17467.13
486.78	17587.96
486.98	17682.16
487.19	17608.44
487.40	17778.42
487.60	17895.15
487.81	18073.32
488.02	18159.34
488.22	17776.37
488.43	18339.56
488.64	18343.66
488.84	18304.74
489.05	18657.00
489.25	18648.80
489.46	18712.29
489.67	18499.30
489.87	18798.31
490.08	19224.28
490.29	18986.72
490.49	19531.48
490.70	19338.97
490.90	19592.92
491.11	19314.39
491.32	19449.56
491.52	19545.81
491.73	19521.24
491.94	19830.48
492.14	19658.45
492.35	20068.05
492.55	20082.38
492.76	20227.79
492.97	20453.06
493.17	20125.39
493.38	20231.88
493.58	20524.74
493.79	20643.52
494.00	20561.61
494.20	20442.82
494.41	20766.40
494.61	20784.83
494.82	21157.57
495.02	21057.21
495.23	21153.47
495.44	21352.12
495.64	21266.11
495.85	21534.39
496.05	21415.61
496.26	21178.04
496.47	21552.82
496.67	21550.78
496.88	21857.97
497.08	21692.08
497.29	21802.68
497.49	21870.26
497.70	22228.65
497.91	22144.69
498.11	22214.32
498.32	22376.11
498.52	22324.91
498.73	22615.72
498.93	22720.17
499.14	22718.12
499.34	22646.44
499.55	22630.05
499.76	22503.08
499.96	22832.80
500.17	22974.11
500.37	22978.21
500.58	23328.41
500.78	23113.38
500.99	23221.92
501.19	23352.99
501.40	23414.43
501.60	23045.79
501.81	23744.15
502.02	23588.50
502.22	23422.62
502.43	23738.01
502.63	23944.85
502.84	23979.67
503.04	23803.54
503.25	24118.93
503.45	23850.64
503.66	24155.79
503.86	24022.67
504.07	24594.06
504.27	24297.10
504.48	24518.28
504.68	24432.27
504.89	24901.25
505.09	24794.76
505.30	24813.19
505.50	24575.62
505.71	24884.87
505.91	24979.07
506.12	24966.79
506.32	25044.61
506.53	24960.64
506.73	25075.33
506.94	25298.56
507.14	25259.65
507.35	25011.84
507.55	25349.76
507.76	25704.06
507.96	25306.75
508.17	25630.33
508.37	25392.76
508.58	25542.27
508.78	25659.00
508.99	26009.20
509.19	25951.86
509.40	25751.16
509.60	25677.43
509.81	26252.91
510.01	25775.73
510.22	26308.21
510.42	26080.88
510.63	26381.93
510.83	26109.55
511.04	26502.76
511.24	26381.93
511.44	26371.69
511.65	26523.24
511.85	26222.19
512.06	26472.04
512.26	26781.29
512.47	26850.92
512.67	26742.38
512.88	26762.86
513.08	26510.96
513.29	26771.05
513.49	27117.15
513.69	26723.94
513.90	27242.08
514.10	27457.12
514.31	27123.30
514.51	27360.86
514.72	27070.05
514.92	27493.98
515.13	27303.52
515.33	27545.18
515.53	27424.35
515.74	27387.49
515.94	27580.00
516.15	27608.67
516.35	27506.27
516.56	27835.99
516.76	27668.06
516.96	28124.75
517.17	28051.03
517.37	28159.57
517.58	28014.16
517.78	28182.10
517.99	28257.87
518.19	28364.37
518.39	28321.36
518.60	28358.22
518.80	28501.58
519.01	28626.51
519.21	28806.73
519.41	28831.30
519.62	28466.77
519.82	28902.98
520.03	28982.85
520.23	29244.99
520.43	28902.98
520.64	28741.19
520.84	29445.69
521.05	29249.09
521.25	29394.50
521.45	29371.97
521.66	29492.80
521.86	29322.82
522.07	29292.10
522.27	29904.44
522.47	29333.06
522.68	30072.37
522.88	29695.55
523.08	29759.03
523.29	29969.97
523.49	29990.45
523.70	29771.32
523.90	30221.87
524.10	30107.19
524.31	30461.49
524.51	30256.69
524.71	30885.42
524.92	30686.76
525.12	30840.36
525.33	30897.70
525.53	31014.44
525.73	31094.31
525.94	31292.96
526.14	31198.76
526.34	31233.57
526.55	31135.27
526.75	31049.25
526.95	31448.61
527.16	31370.79
527.36	31510.05
527.56	31802.91
527.77	32155.16
527.97	32065.05
528.17	31643.17
528.38	31782.43
528.58	32417.30
528.78	32202.26
528.99	31901.21
529.19	32372.24
529.39	32165.40
529.60	32572.94
529.80	32581.13
530.00	32525.84
530.21	32804.36
530.41	33048.07
530.61	32691.73
530.82	32865.80
531.02	32931.34
531.22	33179.14
531.43	33109.51
531.63	33418.75
531.83	33449.47
532.04	33836.54
532.24	33521.15
532.44	33756.67
532.64	33801.72
532.85	33977.85
533.05	34037.24
533.25	33885.69
533.46	34139.64
533.66	34559.47
533.86	34418.16
534.07	34686.45
534.27	34520.56
534.47	34854.38
534.67	35245.54
534.88	34696.69
535.08	34643.44
535.28	34821.61
535.49	34962.92
535.69	35515.87
535.89	35130.86
536.09	35460.58
536.30	35499.49
536.50	35853.79
536.70	35929.56
536.91	35778.01
537.11	35997.15
537.31	35825.12
537.51	35816.93
537.72	36165.08
537.92	36025.82
538.12	36629.97
538.32	36560.34
538.53	36715.98
538.73	36539.86
538.93	36462.04
539.13	36451.80
539.34	36513.23
539.54	36656.59
539.74	37119.43
539.94	36947.40
540.15	36515.28
540.35	37244.36
540.55	37010.89
540.75	37447.11
540.96	37246.41
541.16	37453.25
541.36	37273.03
541.56	37668.29
541.77	38094.27
541.97	37825.98
542.17	37467.59
542.37	38030.78
542.58	37514.69
542.78	37748.16
542.98	38000.06
543.18	37912.00
543.38	38331.83
543.59	38229.43
543.79	38215.10
543.99	38182.33
544.19	38286.78
544.40	38583.73
544.60	38897.07
544.80	38749.62
545.00	38534.58
545.20	38794.67
545.41	38718.90
545.61	38970.80
545.81	39200.17
546.01	39118.25
546.21	39040.43
546.42	39282.09
546.62	39574.95
546.82	39128.49
547.02	39556.52
547.22	39232.94
547.43	39437.73
547.63	39761.31
547.83	39361.96
548.03	39654.82
548.23	39548.32
548.44	39550.37
548.64	40070.56
548.84	39755.17
549.04	39914.91
549.24	39847.33
549.45	40355.22
549.65	39845.28
549.85	40525.21
550.05	40334.74
550.25	40043.93
550.45	40920.46
550.66	40418.71
550.86	40138.14
551.06	40557.97
551.26	40637.84
551.46	40799.63
551.66	40695.19
551.87	40547.73
552.07	40711.57
552.27	40711.57
552.47	41082.25
552.67	41127.31
552.87	41211.28
553.07	40961.42
553.28	40967.57
553.48	41223.56
553.68	41115.02
553.88	41534.85
554.08	41018.77
554.28	41282.95
554.48	41442.70
554.69	41567.62
554.89	41561.48
555.09	41514.37
555.29	41194.89
555.49	41887.10
555.69	41706.88
555.89	41508.23
556.10	41997.70
556.30	41459.08
556.50	41637.25
556.70	42028.41
556.90	41969.02
557.10	41794.95
557.30	41692.55
557.50	42218.88
557.70	42102.14
557.91	42290.55
558.11	42106.24
558.31	42302.84
558.51	42059.13
558.71	42071.42
558.91	42276.22
559.11	42675.57
559.31	42616.18
559.51	41973.12
559.72	42304.89
559.92	42669.43
560.12	42200.44
560.32	42741.11
560.52	42638.71
560.72	42399.10
560.92	43173.23
561.12	42634.61
561.32	42997.10
561.52	42620.28
561.72	43119.98
561.93	42653.05
562.13	43242.86
562.33	42741.11
562.53	43449.70
562.73	42878.32
562.93	42976.62
563.13	43109.74
563.33	43115.89
563.53	43414.89
563.73	42757.49
563.93	43380.07
564.13	43935.07
564.33	43507.05
564.53	43177.33
564.74	43429.23
564.94	43418.99
565.14	43820.39
565.34	42999.15
565.54	43541.86
565.74	43656.55
565.94	43834.72
566.14	43761.00
566.34	43105.65
566.54	43717.99
566.74	43396.46
566.94	44033.38
567.14	44021.09
567.34	43863.39
567.54	43922.79
567.74	44156.25
567.94	43529.58
568.14	44391.77
568.34	44485.98
568.54	44391.77
568.74	44647.77
568.94	44148.06
569.14	44926.29
569.34	44336.48
569.54	44813.65
569.75	44295.52
569.95	44520.79
570.15	44688.73
570.35	44840.28
570.55	44455.26
570.75	44463.45
570.95	44707.16
571.15	45028.69
571.35	44864.85
571.55	44850.52
571.75	44840.28
571.95	44883.28
572.15	45022.54
572.35	45286.73
572.55	44621.14
572.75	45053.26
572.95	45540.68
573.15	45069.65
573.35	44760.40
573.55	44938.58
573.75	45413.71
573.95	45391.18
574.15	45147.47
574.35	45612.36
574.55	45274.45
574.75	45434.19
574.95	45595.98
575.15	45321.55
575.34	45630.79
575.54	45643.08
575.74	45980.99
575.94	45927.75
576.14	45854.02
576.34	45624.65
576.54	45741.38
576.74	46071.10
576.94	46134.59
577.14	45993.28
577.34	46357.82
577.54	45890.88
577.74	46327.10
577.94	46267.71
578.14	46544.19
578.34	46859.57
578.54	46298.43
578.74	46865.72
578.94	46613.82
579.14	46454.08
579.34	46507.32
579.54	46859.57
579.74	46638.39
579.94	46830.90
580.13	46779.70
580.33	46318.91
580.53	46447.93
580.73	47062.32
580.93	46961.97
581.13	46931.25
581.33	47183.15
581.53	47244.59
581.73	47174.96
581.93	47531.31
582.13	47527.21
582.33	47303.98
582.53	47217.97
582.73	47740.20
582.92	47377.71
583.12	47398.19
583.32	47439.15
583.52	47826.21
583.72	48319.77
583.92	47953.19
584.12	47506.73
584.32	48276.77
584.52	48192.80
584.72	47910.18
584.92	48090.40
585.11	48411.93
585.31	48272.67
585.51	48510.24
585.71	48086.31
585.91	48551.20
586.11	48395.55
586.31	48405.79
586.51	48332.06
586.71	48796.95
586.91	48784.66
587.10	48506.14
587.30	48616.73
587.50	49319.18
587.70	49124.63
587.90	48760.09
588.10	48782.62
588.30	48633.11
588.50	49069.33
