SpectraSuite Data File
++++++++++++++++++++++++++++++++++++
Date: Fri Jun 02 14:51:07 CEST 2017
User: INFO_000
Dark Spectrum Present: No
Reference Spectrum Present: No
Number of Sampled Component Spectra: 1
Spectrometers: USB4H00879
Integration Time (usec): 80000 (USB4H00879)
Spectra Averaged: 1 (USB4H00879)
Boxcar Smoothing: 0 (USB4H00879)
Correct for Electrical Dark: No (USB4H00879)
Strobe/Lamp Enabled: No (USB4H00879)
Correct for Detector Non-linearity: No (USB4H00879)
Correct for Stray Light: No (USB4H00879)
Number of Pixels in Processed Spectrum: 3648
>>>>>Begin Processed Spectral Data<<<<<
345.13	1290.22
345.34	1290.22
345.56	1290.22
345.78	1224.69
345.99	1271.79
346.21	1751.01
346.42	1744.87
346.64	1617.90
346.86	1814.50
347.07	1656.81
347.29	1650.66
347.50	1656.81
347.72	1671.14
347.94	1691.62
348.15	1589.22
348.37	1634.28
348.59	1695.72
348.80	1568.74
349.02	1712.10
349.23	1820.64
349.45	1781.73
349.67	1814.50
349.88	1740.77
350.10	1925.09
350.31	1785.83
350.53	1785.83
350.75	1974.24
350.96	1712.10
351.18	1759.21
351.39	1796.07
351.61	1724.39
351.82	1871.84
352.04	1890.28
352.26	1769.44
352.47	1769.44
352.69	1781.73
352.90	1650.66
353.12	1773.54
353.34	1875.94
353.55	1931.23
353.77	1894.37
353.98	1775.59
354.20	1740.77
354.41	1884.13
354.63	1884.13
354.85	1994.72
355.06	1880.04
355.28	1693.67
355.49	1880.04
355.71	1855.46
355.92	1855.46
356.14	1777.64
356.35	1867.75
356.57	1843.17
356.79	1912.80
357.00	1800.16
357.22	1949.67
357.43	1839.08
357.65	1890.28
357.86	1748.97
358.08	1802.21
358.29	1896.42
358.51	1896.42
358.72	1918.95
358.94	1920.99
359.16	1886.18
359.37	1773.54
359.59	1918.95
359.80	1902.56
360.02	1861.60
360.23	1904.61
360.45	1853.41
360.66	1935.33
360.88	1767.40
361.09	1861.60
361.31	1970.15
361.52	1822.69
361.74	1949.67
361.95	2064.35
362.17	1851.36
362.38	1978.34
362.60	2023.39
362.81	1957.86
363.03	1841.12
363.24	1908.71
363.46	1953.76
363.67	1920.99
363.89	1931.23
364.10	1945.57
364.32	1843.17
364.53	1970.15
364.75	1863.65
364.96	1966.05
365.18	1927.14
365.39	1904.61
365.61	1837.03
365.82	2027.49
366.04	1929.19
366.25	1953.76
366.47	2066.40
366.68	1990.63
366.90	1990.63
367.11	2076.64
367.33	2017.25
367.54	2062.30
367.76	1984.48
367.97	2072.54
368.19	1925.09
368.40	2043.87
368.62	1949.67
368.83	1880.04
369.05	1957.86
369.26	1865.70
369.48	1877.99
369.69	1978.34
369.91	1982.43
370.12	1982.43
370.33	2011.11
370.55	1892.32
370.76	2019.30
370.98	2031.58
371.19	1992.67
371.41	2023.39
371.62	2011.11
371.84	2019.30
372.05	2138.08
372.27	1912.80
372.48	2060.26
372.69	2090.98
372.91	2076.64
373.12	2086.88
373.34	2029.54
373.55	2013.15
373.77	2162.66
373.98	2015.20
374.20	2088.93
374.41	2201.57
374.62	2093.02
374.84	2154.46
375.05	2088.93
375.27	2103.26
375.48	2119.65
375.70	2115.55
375.91	2224.09
376.12	2263.01
376.34	2060.26
376.55	2103.26
376.77	2232.29
376.98	2056.16
377.19	2152.42
377.41	2109.41
377.62	2252.77
377.84	2174.94
378.05	2351.07
378.27	2187.23
378.48	2189.28
378.69	2340.83
378.91	2293.72
379.12	2279.39
379.34	2273.25
379.55	2303.96
379.76	2246.62
379.98	2232.29
380.19	2330.59
380.41	2265.05
380.62	2254.81
380.83	2154.46
381.05	2215.90
381.26	2303.96
381.47	2220.00
381.69	2209.76
381.90	2213.85
382.12	2285.53
382.33	2273.25
382.54	2220.00
382.76	2265.05
382.97	2351.07
383.19	2174.94
383.40	2273.25
383.61	2334.68
383.83	2197.47
384.04	2306.01
384.25	2340.83
384.47	2240.48
384.68	2308.06
384.89	2377.69
385.11	2246.62
385.32	2248.67
385.54	2297.82
385.75	2267.10
385.96	2324.44
386.18	2369.50
386.39	2367.45
386.60	2314.20
386.82	2404.32
387.03	2361.31
387.24	2461.66
387.46	2498.52
387.67	2449.37
387.88	2377.69
388.10	2445.27
388.31	2412.51
388.52	2502.62
388.74	2510.81
388.95	2486.23
389.16	2451.42
389.38	2467.80
389.59	2469.85
389.80	2531.29
390.02	2611.16
390.23	2617.30
390.44	2535.39
390.66	2430.94
390.87	2482.14
391.08	2600.92
391.30	2666.46
391.51	2682.84
391.72	2541.53
391.94	2645.98
392.15	2547.67
392.36	2629.59
392.58	2492.38
392.79	2627.54
393.00	2557.91
393.22	2729.94
393.43	2668.50
393.64	2764.76
393.85	2590.68
394.07	2578.39
394.28	2719.70
394.49	2615.26
394.71	2705.37
394.92	2797.53
395.13	2670.55
395.35	2637.78
395.56	2674.65
395.77	2721.75
395.98	2740.18
396.20	2912.21
396.41	2758.61
396.62	2793.43
396.84	2734.04
397.05	2705.37
397.26	2869.20
397.47	2836.44
397.69	2772.95
397.90	2973.65
398.11	2721.75
398.32	2818.00
398.54	2897.88
398.75	2715.61
398.96	2920.40
399.18	3035.09
399.39	2916.31
399.60	3020.75
399.81	2918.36
400.03	2887.64
400.24	3209.17
400.45	2791.38
400.66	3045.33
400.88	2858.96
401.09	3149.78
401.30	3043.28
401.51	2969.55
401.73	3035.09
401.94	3074.00
402.15	3131.34
402.36	3041.23
402.58	3155.92
402.79	3121.10
403.00	3078.10
403.21	3188.69
403.43	3166.16
403.64	3125.20
403.85	3145.68
404.06	3110.86
404.27	3108.82
404.49	3035.09
404.70	3117.01
404.91	3182.54
405.12	3153.87
405.34	3211.22
405.55	3330.00
405.76	3114.96
405.97	3143.63
406.19	3254.22
406.40	3205.07
406.61	3186.64
406.82	3260.37
407.03	3223.50
407.25	3256.27
407.46	3260.37
407.67	3373.00
407.88	3377.10
408.09	3243.98
408.31	3270.61
408.52	3430.35
408.73	3284.94
408.94	3284.94
409.15	3342.28
409.37	3469.26
409.58	3442.64
409.79	3428.30
410.00	3598.28
410.21	3313.61
410.43	3375.05
410.64	3315.66
410.85	3483.59
411.06	3448.78
411.27	3495.88
411.48	3499.98
411.70	3497.93
411.91	3397.58
412.12	3661.77
412.33	3514.31
412.54	3549.13
412.76	3690.44
412.97	3542.99
413.18	3499.98
413.39	3571.66
413.60	3672.01
413.81	3536.84
414.03	3518.41
414.24	3696.58
414.45	3737.54
414.66	3477.45
414.87	3688.39
415.08	3635.14
415.30	3669.96
415.51	3745.73
415.72	3682.25
415.93	3688.39
416.14	3712.97
416.35	3712.97
416.56	3745.73
416.78	3829.70
416.99	3827.65
417.20	3848.13
417.41	3837.89
417.62	3805.13
417.83	3854.28
418.04	3743.69
418.26	3839.94
418.47	3846.09
418.68	3899.33
418.89	3854.28
419.10	3915.72
419.31	4026.31
419.52	3981.25
419.73	3989.44
419.95	4024.26
420.16	3913.67
420.37	3977.16
420.58	3917.76
420.79	3823.56
421.00	4073.41
421.21	3989.44
421.42	3866.56
421.63	4112.32
421.85	4005.83
422.06	4016.07
422.27	3999.68
422.48	3930.05
422.69	4231.10
422.90	4163.52
423.11	4114.37
423.32	4116.42
423.53	4270.01
423.75	4071.36
423.96	4306.88
424.17	4212.67
424.38	4374.46
424.59	4245.44
424.80	4532.15
425.01	4331.45
425.22	4366.27
425.43	4435.90
425.64	4476.86
425.85	4462.52
426.06	4505.53
426.28	4333.50
426.49	4190.14
426.70	4362.17
426.91	4530.11
427.12	4442.04
427.33	4546.49
427.54	4509.63
427.75	4521.92
427.96	4683.70
428.17	4575.16
428.38	4652.98
428.59	4562.87
428.80	4630.46
429.01	4560.83
429.23	4579.26
429.44	4718.52
429.65	4745.14
429.86	4810.68
430.07	4796.34
430.28	4593.59
430.49	4718.52
430.70	4886.45
430.91	4845.49
431.12	4790.20
431.33	4765.62
431.54	4904.89
431.75	4900.79
431.96	5005.24
432.17	4908.98
432.38	4822.97
432.59	5177.26
432.80	5066.67
433.01	5148.59
433.22	5124.02
433.43	5111.73
433.64	5060.53
433.85	4995.00
434.06	5089.20
434.27	4892.60
434.49	5142.45
434.70	5324.72
434.91	5242.80
435.12	5218.22
435.33	5117.87
435.54	5261.23
435.75	5046.20
435.96	5334.96
436.17	5142.45
436.38	5214.13
436.59	5316.53
436.80	5279.66
437.01	5504.94
437.22	5525.42
437.43	5279.66
437.64	5318.57
437.85	5457.84
438.06	5437.36
438.27	5429.17
438.48	5717.93
438.69	5713.83
438.90	5382.06
439.11	5545.90
439.32	5605.29
439.53	5506.99
439.74	5566.38
439.95	5607.34
440.16	5568.43
440.37	5648.30
440.57	5550.00
440.78	5869.48
440.99	5791.66
441.20	5834.66
441.41	5554.09
441.62	5728.17
441.83	5771.18
442.04	5861.29
442.25	5965.73
442.46	5855.14
442.67	5941.16
442.88	6315.94
443.09	5853.09
443.30	5760.94
443.51	5986.21
443.72	6043.56
443.93	6076.32
444.14	6244.26
444.35	5978.02
444.56	6137.76
444.77	6049.70
444.98	6328.22
445.19	6191.01
445.40	6180.77
445.61	6125.47
445.81	6313.89
446.02	6313.89
446.23	6168.48
446.44	6033.32
446.65	6301.60
446.86	6293.41
447.07	6447.01
447.28	6680.47
447.49	6404.00
447.70	6377.37
447.91	6502.30
448.12	6563.74
448.33	6762.39
448.54	6614.94
448.74	6522.78
448.95	6735.77
449.16	6436.77
449.37	6926.23
449.58	6596.51
449.79	6866.84
450.00	6698.91
450.21	6803.35
450.42	6901.65
450.63	6793.11
450.84	6887.32
451.05	6707.10
451.25	6852.50
451.46	6936.47
451.67	7024.53
451.88	7178.13
452.09	6932.37
452.30	6872.98
452.51	7104.40
452.72	7081.88
452.93	7339.92
453.13	6969.24
453.34	7165.84
453.55	7092.12
453.76	7088.02
453.97	7634.83
454.18	7204.75
454.39	7432.08
454.60	7413.65
454.81	7393.17
455.01	7530.38
455.22	7307.15
455.43	7450.51
455.64	7694.22
455.85	7821.19
456.06	7815.05
456.27	7620.49
456.48	7534.48
456.68	7757.71
456.89	7583.63
457.10	7772.04
457.31	7743.37
457.52	7749.51
457.73	7901.06
457.94	7999.37
458.14	7972.74
458.35	8310.66
458.56	7899.02
458.77	7853.96
458.98	8261.51
459.19	8073.09
459.39	8054.66
459.60	8261.51
459.81	8109.96
460.02	8296.32
460.23	8357.76
460.44	8484.73
460.65	8423.30
460.85	8361.86
461.06	8556.41
461.27	8281.99
461.48	8681.34
461.69	8914.81
461.89	8281.99
462.10	8611.71
462.31	8335.23
462.52	8601.47
462.73	8621.95
462.94	9056.12
463.14	8941.43
463.35	8740.73
463.56	9359.22
463.77	9189.24
463.98	8970.10
464.18	9215.86
464.39	9004.92
464.60	9316.21
464.81	9277.30
465.02	9072.50
465.23	9488.24
465.43	9095.03
465.64	9473.90
465.85	9422.70
466.06	9404.27
466.27	9701.23
466.47	9686.89
466.68	9506.67
466.89	9678.70
467.10	9766.76
467.30	9506.67
467.51	9840.49
467.72	9975.66
467.93	9647.98
468.14	9959.27
468.34	9969.51
468.55	10006.38
468.76	10053.48
468.97	10110.82
469.17	10221.41
469.38	10467.17
469.59	10624.86
469.80	10112.87
470.01	10125.16
470.21	10532.70
470.42	10479.46
470.63	10694.49
470.84	10395.49
471.04	10684.25
471.25	10714.97
471.46	10745.69
471.67	11022.17
471.87	10887.00
472.08	10903.39
472.29	11198.29
472.50	10833.75
472.70	10997.59
472.91	11247.44
473.12	11454.29
473.33	11450.19
473.53	11501.39
473.74	11294.55
473.95	11704.14
474.16	11743.05
474.36	11491.15
474.57	11923.27
474.78	12085.06
474.99	11886.41
475.19	11814.73
475.40	12375.88
475.61	12304.20
475.81	12484.42
476.02	12588.86
476.23	12240.71
476.44	12500.80
476.64	12701.50
476.85	12906.30
477.06	12652.35
477.27	13070.14
477.47	13020.99
477.68	13094.71
477.89	13104.95
478.09	13111.10
478.30	13346.61
478.51	13393.72
478.71	13457.20
478.92	13623.09
479.13	13662.00
479.34	13668.14
479.54	13938.48
479.75	13741.87
479.96	13750.06
480.16	14071.59
480.37	14245.67
480.58	14071.59
480.78	14593.83
480.99	14274.34
481.20	14530.34
481.41	14718.75
481.61	14587.68
481.82	14913.31
482.03	14810.91
482.23	14747.42
482.44	15075.10
482.65	15349.53
482.85	15318.81
483.06	15251.22
483.27	15437.59
483.47	15634.19
483.68	15400.72
483.89	15644.43
484.09	15632.15
484.30	15722.26
484.51	16076.55
484.71	16097.03
484.92	16203.53
485.13	16121.61
485.33	16230.15
485.54	16285.45
485.75	16699.14
485.95	16684.80
486.16	16932.61
486.37	16959.23
486.57	16645.89
486.78	17096.44
486.98	17071.87
487.19	17194.75
487.40	17129.21
487.60	17336.06
487.81	17659.63
488.02	17331.96
488.22	17450.74
488.43	17991.41
488.64	17850.10
488.84	18020.08
489.05	18251.50
489.25	18173.67
489.46	18190.06
489.67	18458.34
489.87	18421.48
490.08	18503.40
490.29	18515.69
490.49	18962.14
490.70	18884.32
490.90	19001.05
491.11	18884.32
491.32	18896.61
491.52	19193.56
491.73	19023.58
491.94	19453.66
492.14	19183.32
492.35	19904.21
492.55	19584.73
492.76	19934.93
492.97	19977.94
493.17	20012.75
493.38	20006.61
493.58	20162.25
493.79	20307.66
494.00	20328.14
494.20	20508.36
494.41	20629.19
494.61	20530.89
494.82	20692.68
495.02	20741.83
495.23	20881.09
495.44	20940.48
495.64	20997.82
495.85	21223.10
496.05	21114.56
496.26	21446.33
496.47	21249.72
496.67	21345.98
496.88	21687.99
497.08	21638.84
497.29	22202.03
497.49	21685.94
497.70	21814.96
497.91	22181.55
498.11	22283.95
498.32	22048.43
498.52	22359.72
498.73	22406.83
498.93	22552.23
499.14	22277.80
499.34	22634.15
499.55	22853.28
499.76	22613.67
499.96	22722.21
500.17	22660.77
500.37	22724.26
500.58	22875.81
500.78	23168.67
500.99	23084.70
501.19	23336.60
501.40	23156.38
501.60	23189.15
501.81	23303.84
502.02	23340.70
502.22	23350.94
502.43	23658.14
502.63	23684.76
502.84	23824.02
503.04	23879.32
503.25	23862.93
503.45	24114.83
503.66	23901.84
503.86	23989.91
504.07	24413.84
504.27	24043.15
504.48	24778.37
504.68	24417.93
504.89	24604.30
505.09	24434.32
505.30	24549.00
505.50	24446.60
505.71	24465.03
505.91	24594.06
506.12	24743.56
506.32	24573.58
506.53	24688.26
506.73	24960.64
506.94	24979.07
507.14	24876.68
507.35	25040.51
507.55	25114.24
507.76	24991.36
507.96	25054.85
508.17	25036.42
508.37	25202.30
508.58	25417.34
508.78	25271.93
508.99	25720.44
509.19	25316.99
509.40	25671.29
509.60	25538.17
509.81	25398.91
510.01	25284.22
510.22	25597.56
510.42	25630.33
510.63	25677.43
510.83	25886.32
511.04	25882.23
511.24	25788.02
511.44	25566.84
511.65	25771.64
511.85	26160.75
512.06	25863.80
512.26	26025.59
512.47	26187.38
512.67	26189.42
512.88	26338.93
513.08	25841.27
513.29	26283.63
513.49	26426.99
513.69	26269.30
513.90	26187.38
514.10	26490.48
514.31	26615.40
514.51	26627.69
514.72	26234.48
514.92	26408.56
515.13	26568.30
515.33	26601.07
515.53	26670.70
515.74	26672.74
515.94	26592.87
516.15	26613.35
516.35	26717.80
516.56	26785.38
516.76	27100.77
516.96	26857.06
517.17	26891.88
517.37	26781.29
517.58	27260.51
517.78	26924.65
517.99	27149.92
518.19	27047.52
518.39	27305.57
518.60	27442.78
518.80	27432.54
519.01	27496.03
519.21	27457.12
519.41	27430.49
519.62	27383.39
519.82	27876.95
520.03	27414.11
520.23	27717.21
520.43	27997.78
520.64	27858.52
520.84	28235.35
521.05	27838.04
521.25	28268.11
521.45	28163.67
521.66	28077.65
521.86	27817.56
522.07	28317.26
522.27	27975.25
522.47	28178.00
522.68	28511.82
522.88	28671.56
523.08	28585.55
523.29	28360.27
523.49	28597.84
523.70	28751.43
523.90	28755.53
524.10	28808.78
524.31	28937.80
524.51	28571.21
524.71	29138.50
524.92	29204.03
525.12	29185.60
525.33	29093.44
525.53	29433.41
525.73	29398.59
525.94	29554.24
526.14	29398.59
526.34	29662.78
526.55	29724.22
526.75	29255.23
526.95	29890.10
527.16	29849.14
527.36	29994.55
527.56	30146.10
527.77	30318.13
527.97	29992.50
528.17	30160.44
528.38	30656.04
528.58	30613.04
528.78	30379.57
528.99	30498.35
529.19	30494.25
529.39	30299.70
529.60	30711.34
529.80	30756.39
530.00	30660.14
530.21	31000.10
530.41	31338.02
530.61	30811.69
530.82	31239.72
531.02	31340.07
531.22	31716.89
531.43	31342.11
531.63	31649.31
531.83	32038.42
532.04	32013.85
532.24	31823.39
532.44	32239.12
532.64	32310.80
532.85	32409.11
533.05	32394.77
533.25	32364.05
533.46	32400.91
533.66	32706.06
533.86	32544.27
534.07	33256.96
534.27	32785.93
534.47	33334.79
534.67	33197.57
534.88	32867.85
535.08	32939.53
535.28	33287.68
535.49	33732.09
535.69	33777.15
535.89	33740.29
536.09	33918.46
536.30	33789.44
536.50	34119.16
536.70	34129.40
536.91	34162.17
537.11	33891.83
537.31	34246.13
537.51	34409.97
537.72	34743.79
537.92	34911.72
538.12	35100.14
538.32	34596.34
538.53	34907.63
538.73	35018.22
538.93	34942.44
539.13	34926.06
539.34	35091.94
539.54	35296.74
539.74	35184.10
539.94	35702.24
540.15	35423.72
540.35	35685.86
540.55	35788.25
540.75	35687.90
540.96	35991.00
541.16	36089.31
541.36	35976.67
541.56	36048.35
541.77	36525.52
541.97	36124.12
542.17	36558.29
542.37	36376.02
542.58	36722.13
542.78	36582.87
542.98	36685.26
543.18	36748.75
543.38	37330.37
543.59	37428.68
543.79	36744.66
543.99	37211.59
544.19	37428.68
544.40	37250.50
544.60	37367.24
544.80	37397.96
545.00	37694.91
545.20	37862.85
545.41	37750.21
545.61	37656.00
545.81	37893.57
546.01	38071.74
546.21	37690.82
546.42	38016.44
546.62	38157.75
546.82	38041.02
547.02	37889.47
547.22	38659.51
547.43	38520.24
547.63	38481.33
547.83	38864.30
548.03	38602.16
548.23	38698.42
548.44	38874.54
548.64	38845.87
548.84	39138.73
549.04	38743.47
549.24	39163.31
549.45	39357.86
549.65	39447.97
549.85	39232.94
550.05	39419.30
550.25	39490.98
550.45	40504.73
550.66	39912.86
550.86	39454.12
551.06	39611.81
551.26	39861.66
551.46	40353.18
551.66	40023.45
551.87	40492.44
552.07	40111.52
552.27	40029.60
552.47	40342.94
552.67	40244.63
552.87	40703.38
553.07	40291.74
553.28	40252.83
553.48	40752.53
553.68	40455.57
553.88	40883.60
554.08	40777.11
554.28	40879.50
554.48	40478.10
554.69	40998.29
554.89	41059.73
555.09	41031.05
555.29	40779.15
555.49	41010.57
555.69	41522.57
555.89	41037.20
556.10	41422.22
556.30	40854.93
556.50	41567.62
556.70	41364.87
556.90	41653.64
557.10	41698.69
557.30	41520.52
557.50	41813.38
557.70	42249.60
557.91	41936.26
558.11	41876.86
558.31	41934.21
558.51	42087.81
558.71	42452.34
558.91	42059.13
559.11	42278.27
559.31	42210.68
559.51	42089.85
559.72	42155.39
559.92	42143.10
560.12	41643.40
560.32	42691.96
560.52	42354.04
560.72	42704.24
560.92	42599.80
561.12	42431.86
561.32	42876.27
561.52	42421.62
561.72	42628.47
561.93	42220.92
562.13	42667.38
562.33	42440.06
562.53	42765.68
562.73	42462.58
562.93	42720.63
563.13	42825.07
563.33	42614.13
563.53	43113.84
563.73	42734.96
563.93	42909.04
564.13	43146.61
564.33	43292.01
564.53	42714.48
564.74	43156.85
564.94	42943.86
565.14	43255.15
565.34	42847.60
565.54	43109.74
565.74	43146.61
565.94	43582.82
566.14	43398.51
566.34	43236.72
566.54	43425.13
566.74	43416.94
566.94	43818.34
567.14	43666.79
567.34	43214.19
567.54	43586.92
567.74	43423.08
567.94	43083.12
568.14	43535.72
568.34	43740.52
568.54	43679.08
568.74	44205.41
568.94	43656.55
569.14	44199.26
569.34	43978.08
569.54	44092.77
569.75	43480.42
569.95	43664.74
570.15	44483.93
570.35	44107.10
570.55	44076.38
570.75	44170.59
570.95	44330.33
571.15	44088.67
571.35	44303.71
571.55	44080.48
571.75	43804.00
571.95	44311.90
572.15	44160.35
572.35	44389.72
572.55	44197.21
572.75	44285.28
572.95	44139.87
573.15	44449.11
573.35	44191.07
573.55	44420.44
573.75	44137.82
573.95	44571.99
574.15	44367.20
574.35	44236.12
574.55	44682.58
574.75	43971.94
574.95	44629.34
575.15	44733.78
575.34	44553.56
575.54	44584.28
575.74	44954.96
575.94	44707.16
576.14	44684.63
576.34	44676.44
576.54	44997.97
576.74	45194.57
576.94	44449.11
577.14	44989.78
577.34	44893.52
577.54	44698.97
577.74	44905.81
577.94	44946.77
578.14	44844.37
578.34	45284.68
578.54	44627.29
578.74	44709.21
578.94	44776.79
579.14	44574.04
579.34	45217.10
579.54	45690.18
579.74	45671.75
579.94	45176.14
580.13	45532.49
580.33	45411.66
580.53	45313.36
580.73	45294.92
580.93	45333.84
581.13	45462.86
581.33	45339.98
581.53	45450.57
581.73	45536.59
581.93	45794.63
582.13	45569.35
582.33	45598.02
582.53	45448.52
582.73	45880.64
582.92	45804.87
583.12	45579.59
583.32	45602.12
583.52	45698.37
583.72	46110.02
583.92	45645.13
584.12	45735.24
584.32	46683.45
584.52	45784.39
584.72	46146.88
584.92	46015.81
585.11	46449.98
585.31	46130.50
585.51	46404.92
585.71	45933.89
585.91	46589.24
586.11	46560.57
586.31	46011.71
586.51	46155.07
586.71	46372.16
586.91	46748.98
587.10	46560.57
587.30	46556.47
587.50	46591.29
587.70	46841.14
587.90	46949.68
588.10	46699.83
588.30	46353.72
588.50	46499.13
588.69	46724.41
