SpectraSuite Data File
++++++++++++++++++++++++++++++++++++
Date: Fri Jun 02 14:51:06 CEST 2017
User: INFO_000
Dark Spectrum Present: No
Reference Spectrum Present: No
Number of Sampled Component Spectra: 1
Spectrometers: USB4H00879
Integration Time (usec): 80000 (USB4H00879)
Spectra Averaged: 1 (USB4H00879)
Boxcar Smoothing: 0 (USB4H00879)
Correct for Electrical Dark: No (USB4H00879)
Strobe/Lamp Enabled: No (USB4H00879)
Correct for Detector Non-linearity: No (USB4H00879)
Correct for Stray Light: No (USB4H00879)
Number of Pixels in Processed Spectrum: 3648
>>>>>Begin Processed Spectral Data<<<<<
345.13	1257.45
345.34	1257.45
345.56	1257.45
345.78	1273.84
345.99	1333.23
346.21	1796.07
346.42	1658.85
346.64	1705.96
346.86	1796.07
347.07	1675.24
347.29	1738.73
347.50	1613.80
347.72	1755.11
347.94	1708.01
348.15	1540.07
348.37	1593.32
348.59	1687.53
348.80	1675.24
349.02	1724.39
349.23	1834.98
349.45	1812.45
349.67	1818.60
349.88	1763.30
350.10	1869.80
350.31	1740.77
350.53	1802.21
350.75	1906.66
350.96	1636.33
351.18	1814.50
351.39	1806.31
351.61	1753.06
351.82	1822.69
352.04	1826.79
352.26	1763.30
352.47	1837.03
352.69	1834.98
352.90	1669.09
353.12	1896.42
353.34	1863.65
353.55	1816.55
353.77	1800.16
353.98	1810.40
354.20	1689.57
354.41	1822.69
354.63	1810.40
354.85	1884.13
355.06	1824.74
355.28	1701.86
355.49	1814.50
355.71	1818.60
355.92	1751.01
356.14	1843.17
356.35	1710.05
356.57	1779.68
356.79	1873.89
357.00	1765.35
357.22	1873.89
357.43	1742.82
357.65	1845.22
357.86	1748.97
358.08	1769.44
358.29	1841.12
358.51	1929.19
358.72	1896.42
358.94	1910.75
359.16	1867.75
359.37	1880.04
359.59	1834.98
359.80	1863.65
360.02	1869.80
360.23	1830.88
360.45	1937.38
360.66	1822.69
360.88	1798.12
361.09	1787.88
361.31	1869.80
361.52	1798.12
361.74	1970.15
361.95	2041.82
362.17	1798.12
362.38	2011.11
362.60	1953.76
362.81	1943.52
363.03	1875.94
363.24	1908.71
363.46	2033.63
363.67	1826.79
363.89	1941.47
364.10	2009.06
364.32	1814.50
364.53	1980.39
364.75	1857.51
364.96	1935.33
365.18	2011.11
365.39	1912.80
365.61	1894.37
365.82	2023.39
366.04	1980.39
366.25	1806.31
366.47	1949.67
366.68	1964.00
366.90	1906.66
367.11	2021.35
367.33	2033.63
367.54	2017.25
367.76	1941.47
367.97	2058.21
368.19	1910.75
368.40	2027.49
368.62	1961.95
368.83	1845.22
369.05	1867.75
369.26	1857.51
369.48	1890.28
369.69	1875.94
369.91	1994.72
370.12	1902.56
370.33	2023.39
370.55	1892.32
370.76	1918.95
370.98	2050.02
371.19	2025.44
371.41	1988.58
371.62	1947.62
371.84	1972.19
372.05	2058.21
372.27	1970.15
372.48	2054.11
372.69	1996.77
372.91	2131.94
373.12	2138.08
373.34	1957.86
373.55	2193.37
373.77	2074.59
373.98	1998.82
374.20	2058.21
374.41	2185.18
374.62	2144.22
374.84	2168.80
375.05	2146.27
375.27	2062.30
375.48	2097.12
375.70	2133.98
375.91	2146.27
376.12	2246.62
376.34	2174.94
376.55	2031.58
376.77	2207.71
376.98	2099.17
377.19	2074.59
377.41	2117.60
377.62	2234.33
377.84	2248.67
378.05	2281.44
378.27	2107.36
378.48	2248.67
378.69	2310.11
378.91	2252.77
379.12	2277.34
379.34	2176.99
379.55	2277.34
379.76	2234.33
379.98	2144.22
380.19	2162.66
380.41	2265.05
380.62	2287.58
380.83	2281.44
381.05	2148.32
381.26	2435.03
381.47	2252.77
381.69	2207.71
381.90	2402.27
382.12	2256.86
382.33	2224.09
382.54	2293.72
382.76	2228.19
382.97	2297.82
383.19	2238.43
383.40	2334.68
383.61	2267.10
383.83	2248.67
384.04	2346.97
384.25	2215.90
384.47	2265.05
384.68	2285.53
384.89	2334.68
385.11	2303.96
385.32	2353.12
385.54	2267.10
385.75	2330.59
385.96	2308.06
386.18	2410.46
386.39	2314.20
386.60	2355.16
386.82	2447.32
387.03	2367.45
387.24	2396.12
387.46	2369.50
387.67	2414.56
387.88	2473.95
388.10	2430.94
388.31	2422.75
388.52	2508.76
388.74	2459.61
388.95	2428.89
389.16	2369.50
389.38	2521.05
389.59	2555.86
389.80	2525.15
390.02	2519.00
390.23	2586.58
390.44	2553.82
390.66	2623.45
390.87	2521.05
391.08	2529.24
391.30	2598.87
391.51	2586.58
391.72	2609.11
391.94	2625.50
392.15	2564.06
392.36	2568.15
392.58	2475.99
392.79	2611.16
393.00	2615.26
393.22	2627.54
393.43	2799.57
393.64	2766.81
393.85	2648.02
394.07	2596.82
394.28	2748.37
394.49	2672.60
394.71	2650.07
394.92	2754.52
395.13	2760.66
395.35	2668.50
395.56	2648.02
395.77	2777.05
395.98	2715.61
396.20	2766.81
396.41	2801.62
396.62	2783.19
396.84	2727.89
397.05	2797.53
397.26	2772.95
397.47	2942.93
397.69	2854.87
397.90	2891.73
398.11	2877.40
398.32	2824.15
398.54	2828.24
398.75	2785.24
398.96	2873.30
399.18	3076.05
399.39	2916.31
399.60	2895.83
399.81	2861.01
400.03	2875.35
400.24	3170.26
400.45	2811.86
400.66	2912.21
400.88	2914.26
401.09	3076.05
401.30	3000.27
401.51	3133.39
401.73	3016.66
401.94	3125.20
402.15	3043.28
402.36	2918.36
402.58	3059.67
402.79	3000.27
403.00	3155.92
403.21	3090.38
403.43	3137.49
403.64	3223.50
403.85	3110.86
404.06	3219.41
404.27	2924.50
404.49	3176.40
404.70	3080.14
404.91	3231.69
405.12	3135.44
405.34	3151.82
405.55	3362.76
405.76	3092.43
405.97	3184.59
406.19	3456.97
406.40	3215.31
406.61	3196.88
406.82	3256.27
407.03	3239.89
407.25	3207.12
407.46	3373.00
407.67	3350.48
407.88	3360.72
408.09	3336.14
408.31	3330.00
408.52	3389.39
408.73	3268.56
408.94	3219.41
409.15	3360.72
409.37	3315.66
409.58	3432.40
409.79	3311.57
410.00	3512.27
410.21	3370.96
410.43	3416.01
410.64	3459.02
410.85	3506.12
411.06	3465.16
411.27	3491.79
411.48	3518.41
411.70	3440.59
411.91	3563.47
412.12	3590.09
412.33	3596.23
412.54	3422.16
412.76	3649.48
412.97	3631.05
413.18	3641.29
413.39	3557.32
413.60	3629.00
413.81	3649.48
414.03	3600.33
414.24	3602.38
414.45	3747.78
414.66	3534.79
414.87	3698.63
415.08	3641.29
415.30	3719.11
415.51	3760.07
415.72	3639.24
415.93	3702.73
416.14	3712.97
416.35	3676.10
416.56	3772.36
416.78	3741.64
416.99	3827.65
417.20	3739.59
417.41	3885.00
417.62	3841.99
417.83	3887.04
418.04	3825.61
418.26	3768.26
418.47	3839.94
418.68	3807.17
418.89	3952.58
419.10	4130.75
419.31	3917.76
419.52	4001.73
419.73	3934.15
419.95	3971.01
420.16	3831.75
420.37	3891.14
420.58	4022.21
420.79	3803.08
421.00	3946.44
421.21	4009.92
421.42	3923.91
421.63	4007.87
421.85	4048.83
422.06	4087.75
422.27	4097.99
422.48	4184.00
422.69	3981.25
422.90	4102.08
423.11	4042.69
423.32	4231.10
423.53	4362.17
423.75	4171.71
423.96	4407.23
424.17	4190.14
424.38	4376.51
424.59	4298.69
424.80	4319.17
425.01	4335.55
425.22	4327.36
425.43	4272.06
425.64	4440.00
425.85	4548.54
426.06	4483.00
426.28	4421.56
426.49	4437.95
426.70	4425.66
426.91	4329.41
427.12	4581.31
427.33	4485.05
427.54	4605.88
427.75	4587.45
427.96	4669.37
428.17	4532.15
428.38	4607.93
428.59	4564.92
428.80	4675.51
429.01	4702.14
429.23	4618.17
429.44	4874.17
429.65	4734.90
429.86	4878.26
430.07	4695.99
430.28	4798.39
430.49	4876.21
430.70	4900.79
430.91	4972.47
431.12	4865.97
431.33	4958.13
431.54	4931.51
431.75	5089.20
431.96	4929.46
432.17	4949.94
432.38	4859.83
432.59	5121.97
432.80	5097.39
433.01	5056.43
433.22	5023.67
433.43	5197.74
433.64	5007.28
433.85	5085.11
434.06	5105.59
434.27	5015.48
434.49	5171.12
434.70	5347.25
434.91	5097.39
435.12	5316.53
435.33	5228.46
435.54	5205.94
435.75	5025.72
435.96	5281.71
436.17	5101.49
436.38	5277.62
436.59	5418.93
436.80	5244.85
437.01	5457.84
437.22	5517.23
437.43	5431.21
437.64	5230.51
437.85	5570.48
438.06	5578.67
438.27	5369.77
438.48	5390.25
438.69	5515.18
438.90	5636.01
439.11	5533.61
439.32	5722.02
439.53	5627.82
439.74	5621.67
439.95	5840.81
440.16	5603.24
440.37	5701.54
440.57	5633.96
440.78	5717.93
440.99	5922.73
441.20	5834.66
441.41	5541.80
441.62	5801.90
441.83	5849.00
442.04	5795.75
442.25	5887.91
442.46	5834.66
442.67	6156.19
442.88	6221.73
443.09	5703.59
443.30	5867.43
443.51	5898.15
443.72	6102.95
443.93	5871.53
444.14	6234.02
444.35	5908.39
444.56	6180.77
444.77	6152.10
444.98	6184.87
445.19	6082.47
445.40	6238.11
445.61	6053.80
445.81	6317.98
446.02	6258.59
446.23	6260.64
446.44	6141.86
446.65	6352.80
446.86	6317.98
447.07	6399.90
447.28	6721.43
447.49	6524.83
447.70	6348.70
447.91	6631.32
448.12	6524.83
448.33	6580.12
448.54	6614.94
448.74	6494.11
448.95	6637.47
449.16	6500.25
449.37	6809.50
449.58	6713.24
449.79	6866.84
450.00	6647.71
450.21	6758.30
450.42	6776.73
450.63	6920.09
450.84	6811.54
451.05	6768.54
451.25	6778.78
451.46	6875.03
451.67	6979.48
451.88	6999.96
452.09	6979.48
452.30	7051.16
452.51	7094.16
452.72	7141.27
452.93	7309.20
453.13	6922.13
453.34	7149.46
453.55	7126.93
453.76	7270.29
453.97	7511.95
454.18	7307.15
454.39	7391.12
454.60	7247.76
454.81	7337.87
455.01	7620.49
455.22	7368.59
455.43	7464.85
455.64	7554.96
455.85	7573.39
456.06	7815.05
456.27	7610.25
456.48	7544.72
456.68	7761.80
456.89	7692.17
457.10	7810.95
457.31	7917.45
457.52	7788.43
457.73	8009.61
457.94	7960.45
458.14	8001.41
458.35	8109.96
458.56	8046.47
458.77	7944.07
458.98	8298.37
459.19	8169.35
459.39	8165.25
459.60	8415.10
459.81	8130.44
460.02	8382.34
460.23	8175.49
460.44	8511.36
460.65	8431.49
460.85	8587.13
461.06	8476.54
461.27	8236.93
461.48	8720.25
461.69	8718.20
461.89	8398.72
462.10	8613.76
462.31	8425.34
462.52	8503.17
462.73	8814.46
462.94	8832.89
463.14	8894.33
463.35	8816.51
463.56	9285.49
463.77	9119.60
463.98	8851.32
464.18	9054.07
464.39	9109.36
464.60	9301.87
464.81	9004.92
465.02	9301.87
465.23	9566.06
465.43	9373.55
465.64	9627.50
465.85	9404.27
466.06	9217.91
466.27	9645.93
466.47	9613.17
466.68	9621.36
466.89	9594.73
467.10	9820.01
467.30	9697.13
467.51	9830.25
467.72	9942.89
467.93	9801.58
468.14	10004.33
468.34	10106.73
468.55	10016.62
468.76	10268.52
468.97	10051.43
469.17	10307.43
469.38	10194.79
469.59	10659.68
469.80	10366.82
470.01	10235.75
470.21	10348.39
470.42	10465.12
470.63	10639.20
470.84	10569.57
471.04	10696.54
471.25	10841.95
471.46	10717.02
471.67	11056.98
471.87	11020.12
472.08	11138.90
472.29	11337.56
472.50	10872.67
472.70	11122.52
472.91	11011.93
473.12	11536.21
473.33	11384.66
473.53	11495.25
473.74	11540.30
473.95	11618.13
474.16	11773.77
474.36	11681.61
474.57	11949.90
474.78	11880.27
474.99	11792.20
475.19	11822.92
475.40	12189.51
475.61	12418.88
475.81	12482.37
476.02	12554.05
476.23	12435.27
476.44	12623.68
476.64	12699.45
476.85	12715.84
477.06	12709.69
477.27	12916.54
477.47	12984.12
477.68	12902.20
477.89	13154.10
478.09	13217.59
478.30	13233.97
478.51	13176.63
478.71	13434.68
478.92	13377.33
479.13	13588.27
479.34	13803.31
479.54	13799.21
479.75	13848.36
479.96	13688.62
480.16	14079.79
480.37	14053.16
480.58	14401.32
480.78	14577.44
480.99	14208.81
481.20	14313.25
481.41	14376.74
481.61	14659.36
481.82	14901.02
482.03	14907.16
482.23	14864.16
482.44	15097.63
482.65	15197.98
482.85	15384.34
483.06	15255.32
483.27	15281.94
483.47	15568.66
483.68	15648.53
483.89	15542.03
484.09	15609.62
484.30	15898.38
484.51	16121.61
484.71	16283.40
484.92	16090.89
485.13	16398.09
485.33	16199.43
485.54	16432.90
485.75	16471.81
485.95	16576.26
486.16	16533.25
486.37	17004.28
486.57	16912.13
486.78	16897.79
486.98	16926.46
487.19	17143.55
487.40	17473.27
487.60	17360.63
487.81	17680.11
488.02	17520.37
488.22	17420.02
488.43	17880.82
488.64	17534.71
488.84	17964.78
489.05	17979.12
489.25	17809.14
489.46	18140.91
489.67	18196.20
489.87	18364.14
490.08	18392.81
490.29	18360.04
490.49	18843.36
490.70	18677.48
490.90	18986.72
491.11	18867.94
491.32	18896.61
491.52	18956.00
491.73	19404.50
491.94	19232.47
492.14	19199.71
492.35	19556.05
492.55	19904.21
492.76	19736.27
492.97	19857.10
493.17	19896.02
493.38	19883.73
493.58	20309.71
493.79	20225.74
494.00	20178.64
494.20	20371.15
494.41	20424.39
494.61	20735.68
494.82	20510.41
495.02	20723.40
495.23	20721.35
495.44	20727.49
495.64	21036.74
495.85	21167.80
496.05	21051.07
496.26	21153.47
496.47	21673.65
496.67	21597.88
496.88	21366.46
497.08	21493.43
497.29	21675.70
497.49	21649.08
497.70	21767.86
497.91	22017.71
498.11	22030.00
498.32	22146.73
498.52	22128.30
498.73	22574.76
498.93	22140.59
499.14	22349.48
499.34	22554.28
499.55	22587.05
499.76	22441.64
499.96	22607.53
500.17	22834.85
500.37	23070.37
500.58	23199.39
500.78	22986.40
500.99	22892.19
501.19	23078.56
501.40	23146.14
501.60	23193.25
501.81	23387.80
502.02	23398.04
502.22	23047.84
502.43	23541.40
502.63	23553.69
502.84	23738.01
503.04	23600.79
503.25	23547.54
503.45	23852.69
503.66	24000.15
503.86	23635.61
504.07	24186.51
504.27	24096.40
504.48	24532.62
504.68	23887.51
504.89	24626.82
505.09	24338.06
505.30	24297.10
505.50	24649.35
505.71	24647.30
505.91	24759.94
506.12	24483.47
506.32	24727.17
506.53	24753.80
506.73	24876.68
506.94	25173.63
507.14	24974.98
507.35	24667.78
507.55	24954.50
507.76	25046.66
507.96	25206.40
508.17	25159.30
508.37	25034.37
508.58	25136.77
508.78	25521.79
508.99	25710.20
509.19	25767.54
509.40	25484.92
509.60	25374.33
509.81	25693.82
510.01	25538.17
510.22	25484.92
510.42	25679.48
510.63	25644.66
510.83	25894.52
511.04	25581.18
511.24	25722.49
511.44	25933.43
511.65	26084.98
511.85	26037.87
512.06	26228.34
512.26	25933.43
512.47	26238.58
512.67	25919.09
512.88	26408.56
513.08	26162.80
513.29	26447.47
513.49	26396.27
513.69	26373.74
513.90	26467.95
514.10	26779.24
514.31	26668.65
514.51	26459.76
514.72	26619.50
514.92	26453.61
515.13	26314.35
515.33	26709.61
515.53	26476.14
515.74	26754.66
515.94	26846.82
516.15	26785.38
516.35	26738.28
516.56	27305.57
516.76	26926.69
516.96	27068.00
517.17	26709.61
517.37	27119.20
517.58	27283.04
517.78	27100.77
517.99	27371.10
518.19	27285.09
518.39	27661.91
518.60	27250.27
518.80	27354.72
519.01	27532.89
519.21	27432.54
519.41	27782.74
519.62	27453.02
519.82	27606.62
520.03	27813.46
520.23	27852.38
520.43	27588.19
520.64	27960.92
520.84	28171.86
521.05	28284.50
521.25	28229.20
521.45	28010.07
521.66	28249.68
521.86	28149.33
522.07	28294.74
522.27	28223.06
522.47	28323.41
522.68	28612.17
522.88	28190.29
523.08	28964.42
523.29	28812.87
523.49	28544.59
523.70	28857.93
523.90	29142.60
524.10	28800.58
524.31	28862.02
524.51	28837.45
524.71	29517.37
524.92	28911.17
525.12	29357.63
525.33	29142.60
525.53	29412.93
525.73	29775.42
525.94	29476.41
526.14	29769.27
526.34	29728.31
526.55	29838.90
526.75	29625.92
526.95	30101.04
527.16	29720.12
527.36	29924.92
527.56	30078.52
527.77	30199.35
527.97	30340.66
528.17	30629.42
528.38	30498.35
528.58	30692.91
528.78	30393.90
528.99	30262.83
529.19	30606.89
529.39	30484.01
529.60	31071.78
529.80	31086.12
530.00	30989.86
530.21	31385.12
530.41	31079.97
530.61	31168.04
530.82	31165.99
531.02	31401.50
531.22	31548.96
531.43	31614.49
531.63	31753.76
531.83	31811.10
532.04	31696.41
532.24	31632.93
532.44	32554.51
532.64	32419.35
532.85	32554.51
533.05	32349.71
533.25	32677.39
533.46	32275.99
533.66	32609.81
533.86	32624.14
534.07	32974.34
534.27	33127.94
534.47	32839.18
534.67	33140.23
534.88	32865.80
535.08	33185.29
535.28	33179.14
535.49	33283.59
535.69	33754.62
535.89	33924.60
536.09	33797.63
536.30	34018.81
536.50	33873.40
536.70	34098.68
536.91	34227.70
537.11	34192.89
537.31	34403.83
537.51	34350.58
537.72	34747.89
537.92	34823.66
538.12	35022.31
538.32	34727.41
538.53	35116.52
538.73	34840.04
538.93	35016.17
539.13	35010.03
539.34	35130.86
539.54	35241.45
539.74	35558.88
539.94	35702.24
540.15	35079.66
540.35	35632.61
540.55	35304.93
540.75	35735.01
540.96	35728.86
541.16	35853.79
541.36	35902.94
541.56	36013.53
541.77	36519.38
541.97	36031.96
542.17	36599.25
542.37	36699.60
542.58	36541.91
542.78	36589.01
542.98	36388.31
543.18	36943.31
543.38	37172.68
543.59	37000.65
543.79	37037.51
543.99	36996.56
544.19	37549.51
544.40	37307.85
544.60	37963.20
544.80	37111.24
545.00	37254.60
545.20	37799.36
545.41	37537.22
545.61	37555.65
545.81	37811.65
546.01	37959.10
546.21	38086.07
546.42	37686.72
546.62	38092.22
546.82	38292.92
547.02	38397.37
547.22	38432.18
547.43	38383.03
547.63	38561.20
547.83	38817.20
548.03	38323.64
548.23	38938.03
548.44	38569.40
548.64	38755.76
548.84	39120.30
549.04	39321.00
549.24	39032.24
549.45	39542.18
549.65	39103.92
549.85	39234.99
550.05	39499.17
550.25	39333.29
550.45	39736.74
550.66	39386.54
550.86	39511.46
551.06	39396.77
551.26	39855.52
551.46	39953.82
551.66	39738.79
551.87	39785.89
552.07	40224.15
552.27	40555.93
552.47	40068.51
552.67	40318.36
552.87	40318.36
553.07	40418.71
553.28	40562.07
553.48	40832.40
553.68	40600.98
553.88	41035.15
554.08	40529.30
554.28	40775.06
554.48	40588.69
554.69	40809.87
554.89	40648.08
555.09	41035.15
555.29	40959.38
555.49	41055.63
555.69	41022.86
555.89	41268.62
556.10	41551.24
556.30	41022.86
556.50	41653.64
556.70	41708.93
556.90	41438.60
557.10	41497.99
557.30	41497.99
557.50	41555.33
557.70	41497.99
557.91	41731.46
558.11	41528.71
558.31	42175.87
558.51	41817.47
558.71	42214.78
558.91	41848.19
559.11	41766.27
559.31	41850.24
559.51	41903.49
559.72	42304.89
559.92	42184.06
560.12	42130.81
560.32	42227.07
560.52	42071.42
560.72	41979.26
560.92	41921.92
561.12	42577.27
561.32	42655.09
561.52	42415.48
561.72	42997.10
561.93	42319.23
562.13	42331.51
562.33	42401.14
562.53	42763.64
562.73	42808.69
562.93	42669.43
563.13	42995.06
563.33	42630.52
563.53	43005.30
563.73	42714.48
563.93	43146.61
564.13	43507.05
564.33	43095.41
564.53	42892.66
564.74	43375.98
564.94	42890.61
565.14	42866.03
565.34	43191.66
565.54	43218.28
565.74	43410.79
565.94	43382.12
566.14	43265.39
566.34	43146.61
566.54	43656.55
566.74	43076.97
566.94	43007.34
567.14	43588.97
567.34	43169.13
567.54	43441.51
567.74	43543.91
567.94	43468.14
568.14	43478.38
568.34	43455.85
568.54	43591.01
568.74	43601.25
568.94	43525.48
569.14	43746.66
569.34	43750.76
569.54	43609.45
569.75	43464.04
569.95	43773.28
570.15	44311.90
570.35	44103.01
570.55	43726.18
570.75	43998.56
570.95	43689.32
571.15	44072.29
571.35	43894.11
571.55	44225.89
571.75	43918.69
571.95	44514.65
572.15	43763.04
572.35	43939.17
572.55	44125.53
572.75	44318.04
572.95	43894.11
573.15	44508.50
573.35	44436.83
573.55	44475.74
573.75	44311.90
573.95	44277.08
574.15	44293.47
574.35	44506.46
574.55	44735.83
574.75	44324.19
574.95	44860.76
575.15	44389.72
575.34	44526.94
575.54	44717.40
575.74	44926.29
575.94	45053.26
576.14	44471.64
576.34	44830.04
576.54	45100.37
576.74	44901.71
576.94	44963.15
577.14	45028.69
577.34	45413.71
577.54	45110.61
577.74	45247.82
577.94	45094.22
578.14	44739.93
578.34	45161.81
578.54	44565.85
578.74	45333.84
578.94	45210.96
579.14	45163.85
579.34	45344.08
579.54	45608.26
579.74	45401.42
579.94	45583.69
580.13	45544.78
580.33	45524.30
580.53	45489.48
580.73	45296.97
580.93	45559.11
581.13	45512.01
581.33	45823.30
581.53	45815.11
581.73	45776.20
581.93	45737.29
582.13	45925.70
582.33	45497.67
582.53	45708.61
582.73	45911.36
582.92	45911.36
583.12	46339.39
583.32	46019.91
583.52	45948.23
583.72	46142.78
583.92	45634.89
584.12	46083.39
584.32	46355.77
584.52	46060.87
584.72	46048.58
584.92	46396.73
585.11	46355.77
585.31	46462.27
585.51	46351.68
585.71	46337.34
585.91	46501.18
586.11	46447.93
586.31	46185.79
586.51	46175.55
586.71	46855.48
586.91	46394.68
587.10	46564.67
587.30	46882.10
587.50	46585.15
587.70	46642.49
587.90	47152.43
588.10	46538.04
588.30	46867.76
588.50	46939.44
588.69	47115.57
