SpectraSuite Data File
++++++++++++++++++++++++++++++++++++
Date: Fri Jun 02 14:51:08 CEST 2017
User: INFO_000
Dark Spectrum Present: No
Reference Spectrum Present: No
Number of Sampled Component Spectra: 1
Spectrometers: USB4H00879
Integration Time (usec): 80000 (USB4H00879)
Spectra Averaged: 1 (USB4H00879)
Boxcar Smoothing: 0 (USB4H00879)
Correct for Electrical Dark: No (USB4H00879)
Strobe/Lamp Enabled: No (USB4H00879)
Correct for Detector Non-linearity: No (USB4H00879)
Correct for Stray Light: No (USB4H00879)
Number of Pixels in Processed Spectrum: 3648
>>>>>Begin Processed Spectral Data<<<<<
345.13	1349.61
345.34	1349.61
345.56	1349.61
345.78	1224.69
345.99	1277.93
346.21	1738.73
346.42	1652.71
346.64	1675.24
346.86	1804.26
347.07	1585.13
347.29	1644.52
347.50	1611.75
347.72	1687.53
347.94	1769.44
348.15	1628.14
348.37	1634.28
348.59	1722.34
348.80	1658.85
349.02	1691.62
349.23	1877.99
349.45	1875.94
349.67	1953.76
349.88	1769.44
350.10	1916.90
350.31	1822.69
350.53	1816.55
350.75	1943.52
350.96	1808.36
351.18	1818.60
351.39	1830.88
351.61	1798.12
351.82	1968.10
352.04	1943.52
352.26	1787.88
352.47	1949.67
352.69	1951.71
352.90	1734.63
353.12	1822.69
353.34	1773.54
353.55	1980.39
353.77	1900.52
353.98	1908.71
354.20	1820.64
354.41	1918.95
354.63	1980.39
354.85	1953.76
355.06	1990.63
355.28	1769.44
355.49	1914.85
355.71	1869.80
355.92	1814.50
356.14	1904.61
356.35	1818.60
356.57	1863.65
356.79	1886.18
357.00	1828.84
357.22	1951.71
357.43	1822.69
357.65	1955.81
357.86	1808.36
358.08	1888.23
358.29	1890.28
358.51	1937.38
358.72	1994.72
358.94	1841.12
359.16	1955.81
359.37	1927.14
359.59	1937.38
359.80	1982.43
360.02	1920.99
360.23	1970.15
360.45	1976.29
360.66	1947.62
360.88	1828.84
361.09	1912.80
361.31	1992.67
361.52	1986.53
361.74	2054.11
361.95	2009.06
362.17	1886.18
362.38	2027.49
362.60	2021.35
362.81	1970.15
363.03	1976.29
363.24	1972.19
363.46	2070.50
363.67	2002.91
363.89	1974.24
364.10	2060.26
364.32	2002.91
364.53	2017.25
364.75	1861.60
364.96	1988.58
365.18	1976.29
365.39	1943.52
365.61	1888.23
365.82	2062.30
366.04	1984.48
366.25	1994.72
366.47	2062.30
366.68	2056.16
366.90	1894.37
367.11	1990.63
367.33	2039.78
367.54	2086.88
367.76	1961.95
367.97	2164.70
368.19	1988.58
368.40	2031.58
368.62	1974.24
368.83	1964.00
369.05	2066.40
369.26	1972.19
369.48	2013.15
369.69	2058.21
369.91	1957.86
370.12	2021.35
370.33	2125.79
370.55	1994.72
370.76	2025.44
370.98	2033.63
371.19	2041.82
371.41	2131.94
371.62	2074.59
371.84	2013.15
372.05	2213.85
372.27	2021.35
372.48	2076.64
372.69	2172.89
372.91	2154.46
373.12	2181.09
373.34	2066.40
373.55	2181.09
373.77	2211.81
373.98	2093.02
374.20	2183.13
374.41	2084.83
374.62	2093.02
374.84	2174.94
375.05	2107.36
375.27	2195.42
375.48	2117.60
375.70	2105.31
375.91	2256.86
376.12	2316.25
376.34	2115.55
376.55	2119.65
376.77	2189.28
376.98	2138.08
377.19	2093.02
377.41	2064.35
377.62	2179.04
377.84	2168.80
378.05	2287.58
378.27	2181.09
378.48	2236.38
378.69	2330.59
378.91	2367.45
379.12	2209.76
379.34	2205.66
379.55	2254.81
379.76	2205.66
379.98	2164.70
380.19	2197.47
380.41	2336.73
380.62	2246.62
380.83	2228.19
381.05	2197.47
381.26	2396.12
381.47	2189.28
381.69	2154.46
381.90	2408.41
382.12	2281.44
382.33	2281.44
382.54	2301.92
382.76	2265.05
382.97	2373.60
383.19	2254.81
383.40	2289.63
383.61	2240.48
383.83	2252.77
384.04	2279.39
384.25	2318.30
384.47	2301.92
384.68	2277.34
384.89	2306.01
385.11	2322.40
385.32	2232.29
385.54	2357.21
385.75	2267.10
385.96	2371.55
386.18	2435.03
386.39	2385.88
386.60	2437.08
386.82	2361.31
387.03	2361.31
387.24	2475.99
387.46	2336.73
387.67	2373.60
387.88	2369.50
388.10	2475.99
388.31	2379.74
388.52	2494.43
388.74	2492.38
388.95	2410.46
389.16	2506.71
389.38	2441.18
389.59	2494.43
389.80	2539.48
390.02	2496.47
390.23	2562.01
390.44	2537.43
390.66	2521.05
390.87	2379.74
391.08	2473.95
391.30	2639.83
391.51	2541.53
391.72	2680.79
391.94	2535.39
392.15	2619.35
392.36	2660.31
392.58	2555.86
392.79	2602.97
393.00	2633.69
393.22	2662.36
393.43	2580.44
393.64	2789.33
393.85	2664.41
394.07	2664.41
394.28	2723.80
394.49	2650.07
394.71	2766.81
394.92	2719.70
395.13	2688.98
395.35	2711.51
395.56	2656.22
395.77	2637.78
395.98	2783.19
396.20	2779.09
396.41	2748.37
396.62	2758.61
396.84	2811.86
397.05	2787.29
397.26	2719.70
397.47	2918.36
397.69	2723.80
397.90	2951.12
398.11	2875.35
398.32	2820.05
398.54	2893.78
398.75	2848.72
398.96	2861.01
399.18	3045.33
399.39	2891.73
399.60	2965.46
399.81	2787.29
400.03	2957.27
400.24	3198.93
400.45	2901.97
400.66	3030.99
400.88	2969.55
401.09	3059.67
401.30	2844.63
401.51	3121.10
401.73	3016.66
401.94	3057.62
402.15	3194.83
402.36	3106.77
402.58	3071.95
402.79	3194.83
403.00	3112.91
403.21	3123.15
403.43	3119.06
403.64	3356.62
403.85	3018.71
404.06	3137.49
404.27	3037.14
404.49	3100.62
404.70	3164.11
404.91	3198.93
405.12	3157.97
405.34	3149.78
405.55	3311.57
405.76	3104.72
405.97	3086.29
406.19	3291.09
406.40	3084.24
406.61	3182.54
406.82	3342.28
407.03	3213.26
407.25	3196.88
407.46	3440.59
407.67	3379.15
407.88	3348.43
408.09	3223.50
408.31	3227.60
408.52	3364.81
408.73	3196.88
408.94	3229.65
409.15	3370.96
409.37	3465.16
409.58	3377.10
409.79	3403.72
410.00	3456.97
410.21	3434.44
410.43	3452.88
410.64	3313.61
410.85	3538.89
411.06	3469.26
411.27	3565.51
411.48	3518.41
411.70	3379.15
411.91	3438.54
412.12	3444.68
412.33	3563.47
412.54	3485.64
412.76	3514.31
412.97	3483.59
413.18	3446.73
413.39	3581.90
413.60	3610.57
413.81	3598.28
414.03	3557.32
414.24	3579.85
414.45	3686.34
414.66	3545.03
414.87	3674.06
415.08	3567.56
415.30	3622.86
415.51	3657.67
415.72	3567.56
415.93	3682.25
416.14	3725.26
416.35	3633.10
416.56	3694.54
416.78	3674.06
416.99	3684.30
417.20	3700.68
417.41	3729.35
417.62	3764.17
417.83	3731.40
418.04	3745.73
418.26	3833.80
418.47	3727.30
418.68	3809.22
418.89	3731.40
419.10	3950.53
419.31	3905.48
419.52	3833.80
419.73	3798.98
419.95	3891.14
420.16	3854.28
420.37	3772.36
420.58	3844.04
420.79	3805.13
421.00	3928.00
421.21	3846.09
421.42	3860.42
421.63	3907.52
421.85	4024.26
422.06	4095.94
422.27	4050.88
422.48	4136.90
422.69	4020.16
422.90	4014.02
423.11	4112.32
423.32	4159.42
423.53	4227.01
423.75	4192.19
423.96	4296.64
424.17	4243.39
424.38	4306.88
424.59	4317.12
424.80	4360.13
425.01	4235.20
425.22	4300.73
425.43	4231.10
425.64	4458.43
425.85	4456.38
426.06	4435.90
426.28	4394.94
426.49	4302.78
426.70	4356.03
426.91	4353.98
427.12	4417.47
427.33	4505.53
427.54	4384.70
427.75	4587.45
427.96	4691.90
428.17	4505.53
428.38	4603.83
428.59	4640.70
428.80	4562.87
429.01	4730.81
429.23	4614.07
429.44	5068.72
429.65	4804.53
429.86	4843.45
430.07	4736.95
430.28	4509.63
430.49	4677.56
430.70	4839.35
430.91	5050.29
431.12	4806.58
431.33	4999.09
431.54	4931.51
431.75	4913.08
431.96	5040.05
432.17	5019.57
432.38	4970.42
432.59	5144.50
432.80	5048.24
433.01	5121.97
433.22	5173.17
433.43	5234.61
433.64	5179.31
433.85	5173.17
434.06	5259.18
434.27	5175.22
434.49	5199.79
434.70	5369.77
434.91	5265.33
435.12	5308.34
435.33	5283.76
435.54	5365.68
435.75	5197.74
435.96	5345.20
436.17	5357.49
436.38	5433.26
436.59	5443.50
436.80	5322.67
437.01	5644.20
437.22	5717.93
437.43	5613.48
437.64	5474.22
437.85	5613.48
438.06	5674.92
438.27	5527.47
438.48	5621.67
438.69	5709.74
438.90	5758.89
439.11	5603.24
439.32	5840.81
439.53	5736.36
439.74	5752.74
439.95	5627.82
440.16	5748.65
440.37	5808.04
440.57	5681.07
440.78	5990.31
440.99	5846.95
441.20	5861.29
441.41	5861.29
441.62	5855.14
441.83	5705.64
442.04	5855.14
442.25	5808.04
442.46	5935.01
442.67	5996.45
442.88	6389.66
443.09	5957.54
443.30	5869.48
443.51	5969.83
443.72	6162.34
443.93	5908.39
444.14	6360.99
444.35	6057.89
444.56	6080.42
444.77	6156.19
444.98	6223.78
445.19	6254.50
445.40	6246.30
445.61	6162.34
445.81	6293.41
446.02	6266.78
446.23	6447.01
446.44	6141.86
446.65	6317.98
446.86	6322.08
447.07	6338.46
447.28	6610.84
447.49	6434.72
447.70	6467.49
447.91	6545.31
448.12	6432.67
448.33	6573.98
448.54	6467.49
448.74	6563.74
448.95	6594.46
449.16	6485.92
449.37	6825.88
449.58	6459.29
449.79	6877.08
450.00	6516.64
450.21	6764.44
450.42	6778.78
450.63	6688.67
450.84	6811.54
451.05	6836.12
451.25	6713.24
451.46	6612.89
451.67	6811.54
451.88	6973.33
452.09	6854.55
452.30	6764.44
452.51	7012.24
452.72	7069.59
452.93	7217.04
453.13	6956.95
453.34	7022.48
453.55	6883.22
453.76	7028.63
453.97	7282.58
454.18	7073.68
454.39	7341.97
454.60	7126.93
454.81	7288.72
455.01	7421.84
455.22	7085.97
455.43	7245.71
455.64	7409.55
455.85	7530.38
456.06	7440.27
456.27	7405.46
456.48	7524.24
456.68	7589.77
456.89	7546.76
457.10	7534.48
457.31	7610.25
457.52	7589.77
457.73	7626.64
457.94	7753.61
458.14	7565.20
458.35	8005.51
458.56	7866.25
458.77	7759.75
458.98	7763.85
459.19	7841.67
459.39	7878.54
459.60	7964.55
459.81	7896.97
460.02	8058.76
460.23	8089.48
460.44	8087.43
460.65	8077.19
460.85	8183.68
461.06	8245.12
461.27	8060.80
461.48	8484.73
461.69	8327.04
461.89	8273.79
462.10	8384.38
462.31	8390.53
462.52	8318.85
462.73	8421.25
462.94	8785.79
463.14	8556.41
463.35	8494.97
463.56	8912.76
463.77	8646.52
463.98	8517.50
464.18	8861.56
464.39	8826.75
464.60	8951.67
464.81	8970.10
465.02	9045.88
465.23	9252.72
465.43	9166.71
465.64	9330.55
465.85	9084.79
466.06	9148.28
466.27	9604.97
466.47	9475.95
466.68	9434.99
466.89	9408.37
467.10	9660.27
467.30	9502.58
467.51	9844.59
467.72	9854.83
467.93	9559.92
468.14	9684.84
468.34	9844.59
468.55	9969.51
468.76	9875.31
468.97	9918.31
469.17	10088.29
469.38	10243.94
469.59	10415.97
469.80	10045.29
470.01	10078.05
470.21	10444.64
470.42	10458.98
470.63	10674.01
470.84	10542.94
471.04	10616.67
471.25	10780.51
471.46	10762.08
471.67	10946.39
471.87	10868.57
472.08	11054.94
472.29	11263.83
472.50	10950.49
472.70	11065.18
472.91	11214.68
473.12	11335.51
473.33	11706.19
473.53	11648.85
473.74	11497.30
473.95	11814.73
474.16	11861.84
474.36	12060.49
474.57	11923.27
474.78	12244.81
474.99	12183.37
475.19	12144.45
475.40	12302.15
475.61	12396.35
475.81	12648.26
476.02	12851.00
476.23	12515.14
476.44	12861.24
476.64	12977.98
476.85	12967.74
477.06	12879.68
477.27	13283.13
477.47	13453.11
477.68	13455.15
477.89	13379.38
478.09	13655.86
478.30	13569.84
478.51	13807.41
478.71	13807.41
478.92	14067.50
479.13	14075.69
479.34	14128.94
479.54	13961.00
479.75	14212.90
479.96	14305.06
480.16	14319.40
480.37	14274.34
480.58	14769.95
480.78	14948.12
480.99	14931.74
481.20	14946.08
481.41	15195.93
481.61	14927.64
481.82	14886.68
482.03	15030.04
482.23	15331.09
482.44	15617.81
482.65	15646.48
482.85	15882.00
483.06	15888.14
483.27	15757.07
483.47	16043.79
483.68	16133.90
483.89	16115.47
484.09	16273.16
484.30	16207.62
484.51	16389.89
484.71	16441.09
484.92	16416.52
485.13	16510.72
485.33	16639.75
485.54	16672.51
485.75	16887.55
485.95	17166.07
486.16	17045.24
486.37	17338.10
486.57	17258.23
486.78	17262.33
486.98	17078.01
487.19	17444.60
487.40	17762.03
487.60	17764.08
487.81	17864.43
488.02	17776.37
488.22	17778.42
488.43	17923.82
488.64	18159.34
488.84	18048.75
489.05	18550.50
489.25	18151.15
489.46	18503.40
489.67	18306.79
489.87	18548.45
490.08	18716.39
490.29	18730.72
490.49	19091.16
490.70	19193.56
490.90	19093.21
491.11	18964.19
491.32	19207.90
491.52	18980.57
491.73	19259.10
491.94	19650.26
492.14	19259.10
492.35	19572.44
492.55	19803.86
492.76	19797.71
492.97	19771.09
493.17	19517.14
493.38	19932.88
493.58	20041.42
493.79	20168.40
494.00	20166.35
494.20	20541.13
494.41	20311.75
494.61	20426.44
494.82	20610.76
495.02	20436.68
495.23	20641.48
495.44	20758.21
495.64	21030.59
495.85	20975.30
496.05	21032.64
496.26	20821.70
496.47	21327.55
496.67	20836.03
496.88	21216.96
497.08	21022.40
497.29	21345.98
497.49	21370.55
497.70	21475.00
497.91	21569.21
498.11	21817.01
498.32	21419.71
498.52	21788.34
498.73	21833.39
498.93	21943.99
499.14	21835.44
499.34	22159.02
499.55	21896.88
499.76	22048.43
499.96	22095.53
500.17	22167.21
500.37	21995.18
500.58	21868.21
500.78	22326.96
500.99	22662.82
501.19	22349.48
501.40	22679.21
501.60	22273.71
501.81	22466.22
502.02	22705.83
502.22	22396.59
502.43	22933.15
502.63	23183.01
502.84	23244.45
503.04	22847.14
503.25	22945.44
503.45	22924.96
503.66	23045.79
503.86	22949.54
504.07	23129.76
504.27	23074.46
504.48	23506.59
504.68	23146.14
504.89	23754.39
505.09	23492.25
505.30	23733.91
505.50	23488.15
505.71	23635.61
505.91	23842.45
506.12	23623.32
506.32	23547.54
506.53	23869.08
506.73	24030.87
506.94	24096.40
507.14	24020.63
507.35	24088.21
507.55	24180.37
507.76	24161.94
507.96	23895.70
508.17	24049.30
508.37	24389.26
508.58	24094.35
508.78	24286.86
508.99	24825.48
509.19	24598.15
509.40	24626.82
509.60	24624.78
509.81	24817.29
510.01	24424.08
510.22	24688.26
510.42	24452.75
510.63	24686.22
510.83	24690.31
511.04	24589.96
511.24	25024.13
511.44	24888.96
511.65	24968.84
511.85	25177.73
512.06	24931.97
512.26	25366.14
512.47	25134.72
512.67	25357.95
512.88	25308.80
513.08	25112.19
513.29	25343.61
513.49	25476.73
513.69	25515.64
513.90	25507.45
514.10	25769.59
514.31	25575.03
514.51	25740.92
514.72	25990.77
514.92	25851.51
515.13	25988.72
515.33	25775.73
515.53	26009.20
515.74	26031.73
515.94	26138.23
516.15	26044.02
516.35	25857.65
516.56	26375.79
516.76	26048.11
516.96	26224.24
517.17	26490.48
517.37	26449.52
517.58	26250.86
517.78	26629.74
517.99	26572.39
518.19	26725.99
518.39	26746.47
518.60	26955.36
518.80	26930.79
519.01	27004.52
519.21	27156.07
519.41	27065.96
519.62	27258.46
519.82	27553.37
520.03	27577.95
520.23	27471.45
520.43	27418.21
520.64	27491.93
520.84	27973.21
521.05	27610.71
521.25	28036.69
521.45	27876.95
521.66	27897.43
521.86	27973.21
522.07	27833.94
522.27	28206.67
522.47	28210.77
522.68	28442.19
522.88	28360.27
523.08	28843.59
523.29	28347.98
523.49	28782.15
523.70	28655.18
523.90	28720.71
524.10	28839.50
524.31	29113.92
524.51	29136.45
524.71	29587.00
524.92	29048.39
525.12	29562.43
525.33	29556.28
525.53	29601.34
525.73	29875.77
525.94	30027.32
526.14	29849.14
526.34	30047.80
526.55	30025.27
526.75	30117.43
526.95	30334.51
527.16	30088.76
527.36	30449.20
527.56	30641.71
527.77	30948.90
527.97	30789.16
528.17	30850.60
528.38	31012.39
528.58	31145.51
528.78	31272.48
528.99	31385.12
529.19	31307.30
529.39	31055.40
529.60	31440.42
529.80	31284.77
530.00	31489.57
530.21	31575.58
530.41	32273.94
530.61	31796.76
530.82	32087.57
531.02	32249.36
531.22	32189.97
531.43	32339.47
531.63	32486.93
531.83	32742.92
532.04	33168.90
532.24	32622.09
532.44	33297.92
532.64	33060.36
532.85	33062.41
533.05	33273.35
533.25	33211.91
533.46	33519.10
533.66	33502.72
533.86	33476.10
534.07	33443.33
534.27	33682.94
534.47	34100.73
534.67	33949.18
534.88	33877.50
535.08	34098.68
535.28	34463.22
535.49	34467.31
535.69	34727.41
535.89	34618.86
536.09	34555.38
536.30	34766.32
536.50	34749.93
536.70	35247.59
536.91	35005.93
537.11	35436.00
537.31	35442.15
537.51	35448.29
537.72	35984.86
537.92	35624.42
538.12	36085.21
538.32	35726.81
538.53	35939.80
538.73	35712.48
538.93	36068.83
539.13	36029.91
539.34	36304.34
539.54	35948.00
539.74	36683.22
539.94	36548.05
540.15	36226.52
540.35	36703.70
540.55	36885.97
540.75	36754.90
540.96	36769.23
541.16	36943.31
541.36	36976.08
541.56	37119.43
541.77	37522.88
541.97	37207.50
542.17	37256.65
542.37	37723.58
542.58	37694.91
542.78	37359.05
542.98	37608.90
543.18	38014.40
543.38	38190.52
543.59	37834.17
543.79	37864.89
543.99	37967.29
544.19	37758.40
544.40	38124.99
544.60	38596.02
544.80	38196.67
545.00	38002.11
545.20	38874.54
545.41	38618.55
545.61	38471.09
545.81	38911.41
546.01	38774.19
546.21	38659.51
546.42	38360.50
546.62	38905.26
546.82	38780.34
547.02	39296.42
547.22	38888.88
547.43	38892.97
547.63	39095.72
547.83	39306.66
548.03	38925.74
548.23	39564.71
548.44	39435.69
548.64	39433.64
548.84	39515.56
549.04	39413.16
549.24	39474.60
549.45	39503.27
549.65	39437.73
549.85	39431.59
550.05	40183.19
550.25	39916.96
550.45	39929.25
550.66	40072.60
550.86	39615.91
551.06	40105.37
551.26	40068.51
551.46	39970.21
551.66	40170.91
551.87	40035.74
552.07	40531.35
552.27	39835.04
552.47	40500.63
552.67	40445.33
552.87	40482.20
553.07	40121.76
553.28	40179.10
553.48	40983.95
553.68	40168.86
553.88	40594.84
554.08	40592.79
554.28	41018.77
554.48	40369.56
554.69	40633.75
554.89	40670.61
555.09	40545.69
555.29	40428.95
555.49	40730.00
555.69	41198.99
555.89	40947.09
556.10	40711.57
556.30	40607.12
556.50	40904.08
556.70	40762.77
556.90	41026.96
557.10	40836.50
557.30	40897.94
557.50	41160.08
557.70	41223.56
557.91	41110.92
558.11	40877.46
558.31	40940.94
558.51	40975.76
558.71	41297.29
558.91	41201.04
559.11	40986.00
559.31	41328.01
559.51	41104.78
559.72	40822.16
559.92	41297.29
560.12	41246.09
560.32	41506.18
560.52	40897.94
560.72	41153.93
560.92	41254.28
561.12	41377.16
561.32	41823.62
561.52	40789.39
561.72	41477.51
561.93	41323.91
562.13	41330.06
562.33	41399.69
562.53	41751.94
562.73	41469.32
562.93	41639.30
563.13	41680.26
563.33	41477.51
563.53	41932.16
563.73	41160.08
563.93	41522.57
564.13	42073.47
564.33	41508.23
564.53	41524.61
564.74	41772.42
564.94	41147.79
565.14	41768.32
565.34	41594.25
565.54	41309.58
565.74	41899.39
565.94	41651.59
566.14	41702.79
566.34	41471.37
566.54	42202.49
566.74	41600.39
566.94	42073.47
567.14	42085.76
567.34	41842.05
567.54	42227.07
567.74	41776.51
567.94	41702.79
568.14	42300.79
568.34	41870.72
568.54	42001.79
568.74	42368.38
568.94	42235.26
569.14	42386.81
569.34	42030.46
569.54	42159.48
569.75	41907.58
569.95	41936.26
570.15	42440.06
570.35	42544.50
570.55	42536.31
570.75	42489.21
570.95	42308.99
571.15	42620.28
571.35	42200.44
571.55	42509.69
571.75	42358.14
571.95	42227.07
572.15	42339.71
572.35	42651.00
572.55	42618.23
572.75	42483.06
572.95	42798.45
573.15	42737.01
573.35	42395.00
573.55	42442.10
573.75	42913.14
573.95	43173.23
574.15	42640.76
574.35	42886.51
574.55	42591.61
574.75	42911.09
574.95	42814.83
575.15	42993.01
575.34	43193.71
575.54	43054.45
575.74	43402.60
575.94	43111.79
576.14	42906.99
576.34	43298.16
576.54	43472.23
576.74	43367.79
576.94	43285.87
577.14	43427.18
577.34	43613.54
577.54	43257.20
577.74	43636.07
577.94	43613.54
578.14	43795.81
578.34	44060.00
578.54	43390.31
578.74	43548.01
578.94	43695.46
579.14	43406.70
579.34	43844.96
579.54	43740.52
579.74	44229.98
579.94	44189.02
580.13	44266.84
580.33	44332.38
580.53	44016.99
580.73	43838.82
580.93	43955.55
581.13	44103.01
581.33	44633.43
581.53	44160.35
581.73	44615.00
581.93	44957.01
582.13	44725.59
582.33	44442.97
582.53	44746.07
582.73	44543.32
582.92	44776.79
583.12	44879.19
583.32	44971.35
583.52	44834.13
583.72	45589.83
583.92	44965.20
584.12	45157.71
584.32	45765.96
584.52	44926.29
584.72	45393.23
584.92	45823.30
585.11	46021.95
585.31	45614.41
585.51	45471.05
585.71	45651.27
585.91	45534.54
586.11	45710.66
586.31	45417.80
586.51	45743.43
586.71	45774.15
586.91	46304.57
587.10	45886.79
587.30	45991.23
587.50	46204.22
587.70	46218.56
587.90	46183.74
588.10	46431.55
588.30	46214.46
588.50	46923.06
588.69	46302.53
