SpectraSuite Data File
++++++++++++++++++++++++++++++++++++
Date: Fri Jun 02 14:51:09 CEST 2017
User: INFO_000
Dark Spectrum Present: No
Reference Spectrum Present: No
Number of Sampled Component Spectra: 1
Spectrometers: USB4H00879
Integration Time (usec): 80000 (USB4H00879)
Spectra Averaged: 1 (USB4H00879)
Boxcar Smoothing: 0 (USB4H00879)
Correct for Electrical Dark: No (USB4H00879)
Strobe/Lamp Enabled: No (USB4H00879)
Correct for Detector Non-linearity: No (USB4H00879)
Correct for Stray Light: No (USB4H00879)
Number of Pixels in Processed Spectrum: 3648
>>>>>Begin Processed Spectral Data<<<<<
345.13	1296.36
345.34	1296.36
345.56	1296.36
345.78	1249.26
345.99	1273.84
346.21	1679.33
346.42	1705.96
346.64	1638.38
346.86	1839.08
347.07	1650.66
347.29	1689.57
347.50	1732.58
347.72	1689.57
347.94	1787.88
348.15	1552.36
348.37	1626.09
348.59	1693.67
348.80	1652.71
349.02	1843.17
349.23	1816.55
349.45	1769.44
349.67	1810.40
349.88	1777.64
350.10	1927.14
350.31	1834.98
350.53	1853.41
350.75	2002.91
350.96	1794.02
351.18	1855.46
351.39	1814.50
351.61	1818.60
351.82	1828.84
352.04	1912.80
352.26	1777.64
352.47	1925.09
352.69	1945.57
352.90	1755.11
353.12	1855.46
353.34	1839.08
353.55	1943.52
353.77	1900.52
353.98	1765.35
354.20	1849.32
354.41	1888.23
354.63	1863.65
354.85	1968.10
355.06	1925.09
355.28	1814.50
355.49	1869.80
355.71	1851.36
355.92	1896.42
356.14	1894.37
356.35	1875.94
356.57	1804.26
356.79	1931.23
357.00	1816.55
357.22	1937.38
357.43	1804.26
357.65	1951.71
357.86	1808.36
358.08	1931.23
358.29	1884.13
358.51	1996.77
358.72	1943.52
358.94	1923.04
359.16	1966.05
359.37	1904.61
359.59	1920.99
359.80	1947.62
360.02	1939.43
360.23	1970.15
360.45	2080.74
360.66	1886.18
360.88	1871.84
361.09	1888.23
361.31	1949.67
361.52	1986.53
361.74	1953.76
361.95	2035.68
362.17	1923.04
362.38	2142.18
362.60	2013.15
362.81	1986.53
363.03	1908.71
363.24	1937.38
363.46	2086.88
363.67	1910.75
363.89	1990.63
364.10	1843.17
364.32	1929.19
364.53	2039.78
364.75	1865.70
364.96	2000.87
365.18	2033.63
365.39	1941.47
365.61	1974.24
365.82	2138.08
366.04	1959.91
366.25	1884.13
366.47	2058.21
366.68	2047.97
366.90	1966.05
367.11	2033.63
367.33	2109.41
367.54	2070.50
367.76	1980.39
367.97	2129.89
368.19	2045.92
368.40	2103.26
368.62	1910.75
368.83	1920.99
369.05	2058.21
369.26	1957.86
369.48	2011.11
369.69	1966.05
369.91	2050.02
370.12	1980.39
370.33	2119.65
370.55	2056.16
370.76	2060.26
370.98	2117.60
371.19	2043.87
371.41	1966.05
371.62	2041.82
371.84	1951.71
372.05	2154.46
372.27	2107.36
372.48	2031.58
372.69	2095.07
372.91	2138.08
373.12	2156.51
373.34	2041.82
373.55	2166.75
373.77	2222.05
373.98	2074.59
374.20	2181.09
374.41	2240.48
374.62	2082.78
374.84	2127.84
375.05	2138.08
375.27	2129.89
375.48	2156.51
375.70	2168.80
375.91	2174.94
376.12	2256.86
376.34	2058.21
376.55	2230.24
376.77	2248.67
376.98	2142.18
377.19	2164.70
377.41	2123.74
377.62	2244.57
377.84	2265.05
378.05	2275.29
378.27	2199.52
378.48	2213.85
378.69	2420.70
378.91	2330.59
379.12	2189.28
379.34	2174.94
379.55	2338.78
379.76	2342.88
379.98	2181.09
380.19	2213.85
380.41	2293.72
380.62	2310.11
380.83	2176.99
381.05	2199.52
381.26	2351.07
381.47	2189.28
381.69	2215.90
381.90	2275.29
382.12	2273.25
382.33	2265.05
382.54	2269.15
382.76	2234.33
382.97	2297.82
383.19	2201.57
383.40	2287.58
383.61	2295.77
383.83	2230.24
384.04	2279.39
384.25	2346.97
384.47	2361.31
384.68	2338.78
384.89	2301.92
385.11	2291.68
385.32	2293.72
385.54	2338.78
385.75	2256.86
385.96	2428.89
386.18	2338.78
386.39	2416.60
386.60	2334.68
386.82	2418.65
387.03	2353.12
387.24	2445.27
387.46	2447.32
387.67	2437.08
387.88	2387.93
388.10	2455.51
388.31	2461.66
388.52	2557.91
388.74	2469.85
388.95	2387.93
389.16	2461.66
389.38	2482.14
389.59	2652.12
389.80	2461.66
390.02	2482.14
390.23	2478.04
390.44	2502.62
390.66	2334.68
390.87	2506.71
391.08	2478.04
391.30	2602.97
391.51	2613.21
391.72	2605.02
391.94	2580.44
392.15	2539.48
392.36	2564.06
392.58	2529.24
392.79	2641.88
393.00	2553.82
393.22	2629.59
393.43	2705.37
393.64	2742.23
393.85	2746.33
394.07	2582.49
394.28	2615.26
394.49	2609.11
394.71	2721.75
394.92	2770.90
395.13	2621.40
395.35	2658.26
395.56	2617.30
395.77	2818.00
395.98	2754.52
396.20	2830.29
396.41	2838.48
396.62	2863.06
396.84	2775.00
397.05	2787.29
397.26	2699.22
397.47	2881.49
397.69	2777.05
397.90	2934.74
398.11	2838.48
398.32	2752.47
398.54	2768.85
398.75	2793.43
398.96	2838.48
399.18	2979.79
399.39	2871.25
399.60	3024.85
399.81	2895.83
400.03	2959.31
400.24	3125.20
400.45	2977.75
400.66	3010.51
400.88	2957.27
401.09	3076.05
401.30	3002.32
401.51	3033.04
401.73	3061.71
401.94	3047.38
402.15	3168.21
402.36	3063.76
402.58	3123.15
402.79	3190.74
403.00	3092.43
403.21	3143.63
403.43	3035.09
403.64	3172.30
403.85	3006.42
404.06	3168.21
404.27	3096.53
404.49	3213.26
404.70	3180.50
404.91	3223.50
405.12	3139.54
405.34	3190.74
405.55	3211.22
405.76	3018.71
405.97	3147.73
406.19	3289.04
406.40	3170.26
406.61	3258.32
406.82	3323.85
407.03	3327.95
407.25	3286.99
407.46	3325.90
407.67	3375.05
407.88	3327.95
408.09	3293.13
408.31	3217.36
408.52	3389.39
408.73	3211.22
408.94	3311.57
409.15	3358.67
409.37	3442.64
409.58	3573.71
409.79	3411.92
410.00	3434.44
410.21	3307.47
410.43	3352.52
410.64	3370.96
410.85	3440.59
411.06	3551.18
411.27	3559.37
411.48	3542.99
411.70	3561.42
411.91	3526.60
412.12	3592.14
412.33	3506.12
412.54	3452.88
412.76	3647.43
412.97	3598.28
413.18	3463.12
413.39	3557.32
413.60	3522.51
413.81	3534.79
414.03	3604.42
414.24	3604.42
414.45	3682.25
414.66	3516.36
414.87	3651.53
415.08	3604.42
415.30	3620.81
415.51	3559.37
415.72	3563.47
415.93	3637.19
416.14	3751.88
416.35	3657.67
416.56	3684.30
416.78	3631.05
416.99	3592.14
417.20	3870.66
417.41	3801.03
417.62	3712.97
417.83	3762.12
418.04	3690.44
418.26	3774.41
418.47	3731.40
418.68	3882.95
418.89	3794.89
419.10	3923.91
419.31	3815.37
419.52	3915.72
419.73	3868.61
419.95	3956.68
420.16	3866.56
420.37	3948.48
420.58	3919.81
420.79	3841.99
421.00	3905.48
421.21	4011.97
421.42	3936.20
421.63	4061.12
421.85	3948.48
422.06	4050.88
422.27	3985.35
422.48	4020.16
422.69	4009.92
422.90	4073.41
423.11	4063.17
423.32	4106.18
423.53	4245.44
423.75	4167.62
423.96	4364.22
424.17	4298.69
424.38	4358.08
424.59	4179.90
424.80	4335.55
425.01	4157.38
425.22	4298.69
425.43	4222.91
425.64	4345.79
425.85	4376.51
426.06	4435.90
426.28	4462.52
426.49	4335.55
426.70	4292.54
426.91	4429.76
427.12	4550.59
427.33	4339.65
427.54	4321.21
427.75	4411.32
427.96	4493.24
428.17	4415.42
428.38	4673.46
428.59	4640.70
428.80	4425.66
429.01	4618.17
429.23	4595.64
429.44	4726.71
429.65	4716.47
429.86	4767.67
430.07	4624.31
430.28	4771.77
430.49	4726.71
430.70	4820.92
430.91	4841.40
431.12	4777.91
431.33	5027.76
431.54	4911.03
431.75	4868.02
431.96	4884.41
432.17	4845.49
432.38	4898.74
432.59	5220.27
432.80	5081.01
433.01	5089.20
433.22	5126.07
433.43	5015.48
433.64	5121.97
433.85	4984.76
434.06	5146.55
434.27	4888.50
434.49	5138.35
434.70	5175.22
434.91	5314.48
435.12	5220.27
435.33	5205.94
435.54	5259.18
435.75	5173.17
435.96	5418.93
436.17	5138.35
436.38	5382.06
436.59	5402.54
436.80	5386.16
437.01	5539.76
437.22	5504.94
437.43	5521.32
437.64	5369.77
437.85	5611.43
438.06	5605.29
438.27	5466.03
438.48	5541.80
438.69	5642.15
438.90	5570.48
439.11	5556.14
439.32	5703.59
439.53	5687.21
439.74	5709.74
439.95	5910.44
440.16	5570.48
440.37	5607.34
440.57	5672.87
440.78	5808.04
440.99	5769.13
441.20	5898.15
441.41	5685.16
441.62	5834.66
441.83	5795.75
442.04	5820.33
442.25	5840.81
442.46	5877.67
442.67	6006.69
442.88	6322.08
443.09	5953.45
443.30	6004.64
443.51	5904.29
443.72	6358.94
443.93	5990.31
444.14	6285.22
444.35	5975.97
444.56	6045.60
444.77	6047.65
444.98	6201.25
445.19	6299.55
445.40	6272.93
445.61	6176.67
445.81	6227.87
446.02	6414.24
446.23	6236.06
446.44	6211.49
446.65	6395.81
446.86	6295.46
447.07	6410.14
447.28	6557.60
447.49	6561.69
447.70	6399.90
447.91	6539.16
448.12	6530.97
448.33	6510.49
448.54	6606.75
448.74	6461.34
448.95	6670.23
449.16	6610.84
449.37	6891.41
449.58	6561.69
449.79	6750.10
450.00	6586.27
450.21	6768.54
450.42	6991.77
450.63	6879.13
450.84	6719.39
451.05	6821.78
451.25	6793.11
451.46	6801.30
451.67	6965.14
451.88	7131.03
452.09	7006.10
452.30	6924.18
452.51	6829.98
452.72	7075.73
452.93	7171.99
453.13	7049.11
453.34	7036.82
453.55	7178.13
453.76	7139.22
453.97	7526.29
454.18	7339.92
454.39	7294.86
454.60	7298.96
454.81	7131.03
455.01	7595.92
455.22	7253.91
455.43	7425.93
455.64	7610.25
455.85	7655.31
456.06	7731.08
456.27	7624.59
456.48	7565.20
456.68	7708.55
456.89	7903.11
457.10	7706.51
457.31	7729.03
457.52	7696.27
457.73	7669.64
457.94	8103.81
458.14	7577.48
458.35	8195.97
458.56	8114.05
458.77	7813.00
458.98	7982.98
459.19	8114.05
459.39	8171.40
459.60	8212.35
459.81	8032.13
460.02	8269.70
460.23	8105.86
460.44	8302.47
460.65	8308.61
460.85	8337.28
461.06	8357.76
461.27	8208.26
461.48	8599.42
461.69	8789.88
461.89	8218.50
462.10	8548.22
462.31	8331.14
462.52	8429.44
462.73	8238.98
462.94	8775.55
463.14	8738.68
463.35	8761.21
463.56	9023.35
463.77	9017.21
463.98	8796.03
464.18	8906.62
464.39	9060.21
464.60	9209.72
464.81	9152.37
465.02	9117.56
465.23	9299.83
465.43	9092.98
465.64	9406.32
465.85	9217.91
466.06	9088.89
466.27	9604.97
466.47	9578.35
466.68	9611.12
466.89	9502.58
467.10	9586.54
467.30	9455.47
467.51	9750.38
467.72	9916.26
467.93	9590.64
468.14	9820.01
468.34	9832.30
468.55	9985.90
468.76	10014.57
468.97	9846.63
469.17	10110.82
469.38	10225.51
469.59	10338.15
469.80	10172.26
470.01	10309.47
470.21	10485.60
470.42	10375.01
470.63	10501.98
470.84	10602.33
471.04	10743.64
471.25	10667.87
471.46	10516.32
471.67	10850.14
471.87	10712.92
472.08	10917.72
472.29	11026.26
472.50	10766.17
472.70	10907.48
472.91	10991.45
473.12	11075.42
473.33	11468.62
473.53	11470.67
473.74	11360.08
473.95	11403.09
474.16	11577.17
474.36	11462.48
474.57	11910.99
474.78	11921.23
474.99	11800.40
475.19	11741.00
475.40	12027.72
475.61	12339.01
475.81	12209.99
476.02	12427.07
476.23	12441.41
476.44	12666.69
476.64	12451.65
476.85	12930.87
477.06	12652.35
477.27	13020.99
477.47	13047.61
477.68	13094.71
477.89	13111.10
478.09	13127.48
478.30	12953.40
478.51	13281.08
478.71	13410.10
478.92	13664.05
479.13	13524.79
479.34	13664.05
479.54	13659.95
479.75	13815.60
479.96	13795.12
480.16	13909.80
480.37	14075.69
480.58	13971.24
480.78	14294.82
480.99	14493.47
481.20	14391.08
481.41	14731.04
481.61	14440.23
481.82	14507.81
482.03	14632.74
482.23	14761.76
482.44	15062.81
482.65	15226.65
482.85	15118.11
483.06	15288.09
483.27	15400.72
483.47	15410.96
483.68	15314.71
483.89	15634.19
484.09	15587.09
484.30	15978.25
484.51	16002.83
484.71	16097.03
484.92	16189.19
485.13	16183.05
485.33	16295.69
485.54	16185.10
485.75	16516.87
485.95	16551.68
486.16	16764.67
486.37	16938.75
486.57	16654.08
486.78	16688.90
486.98	16654.08
487.19	17053.44
487.40	17338.10
487.60	17131.26
487.81	17569.52
488.02	17223.42
488.22	17454.84
488.43	17383.16
488.64	17850.10
488.84	17823.47
489.05	17972.97
489.25	17905.39
489.46	18345.70
489.67	18288.36
489.87	18288.36
490.08	18200.30
490.29	18429.67
490.49	18693.86
490.70	18841.31
490.90	18826.98
491.11	18912.99
491.32	19042.01
491.52	18851.55
491.73	19216.09
491.94	19187.42
492.14	19021.53
492.35	19474.13
492.55	19533.53
492.76	19578.58
492.97	19568.34
493.17	20049.61
493.38	20033.23
493.58	20057.81
493.79	20082.38
494.00	20002.51
494.20	20614.85
494.41	20311.75
494.61	20305.61
494.82	20784.83
495.02	20340.43
495.23	20707.01
495.44	20924.10
495.64	21167.80
495.85	20637.38
496.05	21139.13
496.26	21163.71
496.47	21532.34
496.67	21225.15
496.88	21573.30
497.08	21307.07
497.29	21728.95
497.49	21714.61
497.70	21817.01
497.91	21948.08
498.11	21956.27
498.32	21978.80
498.52	22085.30
498.73	22372.01
498.93	22111.92
499.14	22365.87
499.34	22650.53
499.55	22595.24
499.76	22576.81
499.96	22562.47
500.17	22544.04
500.37	22955.68
500.58	22593.19
500.78	22953.63
500.99	22656.68
501.19	23027.36
501.40	23305.88
501.60	22800.04
501.81	23207.58
502.02	23160.48
502.22	22900.39
502.43	23404.19
502.63	23252.64
502.84	23547.54
503.04	23568.02
503.25	23643.80
503.45	23848.60
503.66	23987.86
503.86	23813.78
504.07	23955.09
504.27	23701.14
504.48	24309.39
504.68	24307.34
504.89	24475.27
505.09	24567.43
505.30	24143.50
505.50	24553.10
505.71	24184.46
505.91	24458.89
506.12	24606.34
506.32	24641.16
506.53	24723.08
506.73	24696.46
506.94	24790.66
507.14	24987.27
507.35	24897.16
507.55	25067.14
507.76	25120.38
507.96	24895.11
508.17	25114.24
508.37	25294.46
508.58	24925.83
508.78	25255.55
508.99	25460.35
509.19	25345.66
509.40	25456.25
509.60	25343.61
509.81	25534.07
510.01	25511.55
510.22	25464.44
510.42	25515.64
510.63	25747.06
510.83	25495.16
511.04	25896.56
511.24	26007.16
511.44	25738.87
511.65	26076.79
511.85	25986.68
512.06	26187.38
512.26	25900.66
512.47	26365.55
512.67	26005.11
512.88	26082.93
513.08	26078.83
513.29	26396.27
513.49	26295.92
513.69	26484.33
513.90	26322.54
514.10	26537.58
514.31	26408.56
514.51	26588.78
514.72	26269.30
514.92	26453.61
515.13	26725.99
515.33	26537.58
515.53	27033.19
515.74	26928.74
515.94	26730.09
516.15	26850.92
516.35	26527.34
516.56	27186.79
516.76	26957.41
516.96	26922.60
517.17	26652.27
517.37	27170.40
517.58	27018.85
517.78	27231.84
517.99	27280.99
518.19	27493.98
518.39	27280.99
518.60	27498.08
518.80	27336.29
519.01	27700.83
519.21	27541.08
519.41	27526.75
519.62	27491.93
519.82	27623.00
520.03	27680.35
520.23	27782.74
520.43	27797.08
520.64	27821.66
520.84	28143.19
521.05	27852.38
521.25	28020.31
521.45	28298.83
521.66	28366.42
521.86	28165.71
522.07	27987.54
522.27	28178.00
522.47	28063.32
522.68	28374.61
522.88	28532.30
523.08	28431.95
523.29	28239.44
523.49	28556.88
523.70	28739.15
523.90	28868.17
524.10	28702.28
524.31	28864.07
524.51	28630.60
524.71	28956.23
524.92	29101.64
525.12	29222.47
525.33	29177.41
525.53	29171.27
525.73	29548.09
525.94	29361.73
526.14	29423.17
526.34	29539.90
526.55	29875.77
526.75	29677.12
526.95	29564.48
527.16	29632.06
527.36	29736.51
527.56	29859.38
527.77	30271.03
527.97	30168.63
528.17	30326.32
528.38	30305.84
528.58	30295.60
528.78	30686.76
528.99	30473.78
529.19	30635.56
529.39	30242.35
529.60	30490.16
529.80	30709.29
530.00	30416.43
530.21	30936.62
530.41	30909.99
530.61	30809.64
530.82	30877.22
531.02	31372.83
531.22	31344.16
531.43	31241.76
531.63	31606.30
531.83	31712.80
532.04	32030.23
532.24	31493.66
532.44	32120.34
532.64	31995.42
532.85	31895.07
533.05	32069.14
533.25	31915.54
533.46	32060.95
533.66	32552.46
533.86	32075.29
534.07	32402.96
534.27	32486.93
534.47	32861.71
534.67	32912.91
534.88	32386.58
535.08	32935.43
535.28	32822.80
535.49	32970.25
535.69	33369.60
535.89	33342.98
536.09	33193.48
536.30	33875.45
536.50	33721.85
536.70	33512.96
536.91	33537.54
537.11	33443.33
537.31	33576.45
537.51	33859.07
537.72	33988.09
537.92	34143.74
538.12	34250.23
538.32	34500.08
538.53	34586.10
538.73	34403.83
538.93	34383.35
539.13	34799.08
539.34	34524.66
539.54	34758.13
539.74	34811.37
539.94	35063.27
540.15	34852.33
540.35	35319.27
540.55	35288.55
540.75	34983.40
540.96	35386.85
541.16	35186.15
541.36	35403.24
541.56	35263.97
541.77	35759.58
541.97	35718.62
542.17	35925.47
542.37	36060.63
542.58	36060.63
542.78	35710.43
542.98	35771.87
543.18	36179.42
543.38	36668.88
543.59	36322.77
543.79	36091.35
543.99	36419.03
544.19	36443.60
544.40	36496.85
544.60	36658.64
544.80	36855.25
545.00	37135.82
545.20	37029.32
545.41	37205.45
545.61	36922.83
545.81	36945.36
546.01	37750.21
546.21	37320.13
546.42	37305.80
546.62	37336.52
546.82	37313.99
547.02	37520.84
547.22	37512.64
547.43	37795.26
547.63	37729.73
547.83	37633.47
548.03	37453.25
548.23	37787.07
548.44	38167.99
548.64	37627.33
548.84	38251.96
549.04	38284.73
549.24	38247.86
549.45	38188.47
549.65	38362.55
549.85	38546.87
550.05	38630.83
550.25	38847.92
550.45	39138.73
550.66	38755.76
550.86	38962.61
551.06	39187.88
551.26	39200.17
551.46	39306.66
551.66	38993.32
551.87	39273.90
552.07	39724.45
552.27	39632.29
552.47	39460.26
552.67	39310.76
552.87	39667.11
553.07	39585.19
553.28	39521.70
553.48	39998.88
553.68	39824.80
553.88	40052.12
554.08	40056.22
554.28	39818.66
554.48	39544.23
554.69	40088.99
554.89	40045.98
555.09	40197.53
555.29	40187.29
555.49	40723.86
555.69	40271.26
555.89	40154.52
556.10	40613.27
556.30	40600.98
556.50	41035.15
556.70	40461.72
556.90	41055.63
557.10	41250.19
557.30	40879.50
557.50	41268.62
557.70	41067.92
557.91	41174.41
558.11	41043.34
558.31	41315.72
558.51	41254.28
558.71	41520.52
558.91	41272.71
559.11	41155.98
559.31	41559.43
559.51	40816.02
559.72	41594.25
559.92	41547.14
560.12	41444.74
560.32	41825.67
560.52	41223.56
560.72	41799.04
560.92	41776.51
561.12	42089.85
561.32	42192.25
561.52	41592.20
561.72	42452.34
561.93	42014.08
562.13	41907.58
562.33	42210.68
562.53	42683.76
562.73	41979.26
562.93	42378.62
563.13	42263.93
563.33	42456.44
563.53	42607.99
563.73	42401.14
563.93	42685.81
564.13	43181.42
564.33	42974.58
564.53	42755.44
564.74	42685.81
564.94	42782.07
565.14	43197.80
565.34	42651.00
565.54	42777.97
565.74	42753.40
565.94	43375.98
566.14	43001.20
566.34	42890.61
566.54	43226.48
566.74	42833.27
566.94	43433.32
567.14	43468.14
567.34	43386.22
567.54	43836.77
567.74	43171.18
567.94	43513.19
568.14	43490.66
568.34	43947.36
568.54	43636.07
568.74	43701.61
568.94	43373.93
569.14	44180.83
569.34	43883.87
569.54	44012.90
569.75	43556.20
569.95	43756.90
570.15	44354.91
570.35	44287.32
570.55	44105.06
570.75	43842.92
570.95	44174.69
571.15	44246.36
571.35	44279.13
571.55	44191.07
571.75	44209.50
571.95	44385.63
572.15	44629.34
572.35	44492.12
572.55	44692.82
572.75	44467.55
572.95	44434.78
573.15	44668.25
573.35	44098.91
573.55	44283.23
573.75	44338.52
573.95	44889.43
574.15	44340.57
574.35	45321.55
574.55	44733.78
574.75	44815.70
574.95	45034.83
575.15	45065.55
575.34	44997.97
575.54	45370.70
575.74	45321.55
575.94	45471.05
576.14	45208.91
576.34	45339.98
576.54	45147.47
576.74	45559.11
576.94	45122.90
577.14	45831.49
577.34	45909.32
577.54	45542.73
577.74	45638.98
577.94	45471.05
578.14	45796.68
578.34	45811.01
578.54	45540.68
578.74	45765.96
578.94	45950.27
579.14	45782.34
579.34	45561.16
579.54	45978.95
579.74	46097.73
579.94	45917.51
580.13	45972.80
580.33	46394.68
580.53	45954.37
580.73	46529.85
580.93	46222.65
581.13	46548.28
581.33	46589.24
581.53	46552.38
581.73	46306.62
581.93	46937.40
582.13	46251.33
582.33	46327.10
582.53	46570.81
582.73	46626.10
582.92	46929.20
583.12	46974.26
583.32	46845.24
583.52	45935.94
583.72	47136.05
583.92	46585.15
584.12	47050.03
584.32	47093.04
584.52	47273.26
584.72	47080.75
584.92	46681.40
585.11	47437.10
585.31	46456.12
585.51	47338.80
585.71	46863.67
585.91	47553.83
586.11	47027.51
586.31	47064.37
586.51	47375.66
586.71	47836.45
586.91	47498.54
587.10	47418.67
587.30	47416.62
587.50	47371.57
587.70	47371.57
587.90	47326.51
588.10	48014.63
588.30	47824.17
588.50	47727.91
588.69	47592.75
