SpectraSuite Data File
++++++++++++++++++++++++++++++++++++
Date: Fri Jun 02 14:51:09 CEST 2017
User: INFO_000
Dark Spectrum Present: No
Reference Spectrum Present: No
Number of Sampled Component Spectra: 1
Spectrometers: USB4H00879
Integration Time (usec): 80000 (USB4H00879)
Spectra Averaged: 1 (USB4H00879)
Boxcar Smoothing: 0 (USB4H00879)
Correct for Electrical Dark: No (USB4H00879)
Strobe/Lamp Enabled: No (USB4H00879)
Correct for Detector Non-linearity: No (USB4H00879)
Correct for Stray Light: No (USB4H00879)
Number of Pixels in Processed Spectrum: 3648
>>>>>Begin Processed Spectral Data<<<<<
345.13	1241.07
345.34	1241.07
345.56	1241.07
345.78	1243.12
345.99	1226.73
346.21	1691.62
346.42	1669.09
346.64	1615.85
346.86	1816.55
347.07	1685.48
347.29	1687.53
347.50	1587.18
347.72	1699.81
347.94	1826.79
348.15	1591.27
348.37	1599.46
348.59	1685.48
348.80	1695.72
349.02	1822.69
349.23	1941.47
349.45	1806.31
349.67	1849.32
349.88	1785.83
350.10	1918.95
350.31	1855.46
350.53	1777.64
350.75	2037.73
350.96	1863.65
351.18	1832.93
351.39	1841.12
351.61	1832.93
351.82	1918.95
352.04	1904.61
352.26	1775.59
352.47	1902.56
352.69	1877.99
352.90	1783.78
353.12	1820.64
353.34	1859.56
353.55	1880.04
353.77	1839.08
353.98	1847.27
354.20	1775.59
354.41	1863.65
354.63	1863.65
354.85	2033.63
355.06	1941.47
355.28	1804.26
355.49	1914.85
355.71	1845.22
355.92	1826.79
356.14	1945.57
356.35	1892.32
356.57	1765.35
356.79	1904.61
357.00	1910.75
357.22	1992.67
357.43	1875.94
357.65	2068.45
357.86	1828.84
358.08	1902.56
358.29	1920.99
358.51	1986.53
358.72	1984.48
358.94	1912.80
359.16	1925.09
359.37	1888.23
359.59	1941.47
359.80	1935.33
360.02	1937.38
360.23	1949.67
360.45	1980.39
360.66	1988.58
360.88	1871.84
361.09	1923.04
361.31	1929.19
361.52	1992.67
361.74	2019.30
361.95	2029.54
362.17	1961.95
362.38	2095.07
362.60	2004.96
362.81	1912.80
363.03	1992.67
363.24	1947.62
363.46	2064.35
363.67	2062.30
363.89	1982.43
364.10	1951.71
364.32	1945.57
364.53	2113.50
364.75	1996.77
364.96	1970.15
365.18	1986.53
365.39	1988.58
365.61	1875.94
365.82	2047.97
366.04	1947.62
366.25	1976.29
366.47	1990.63
366.68	2031.58
366.90	1925.09
367.11	2017.25
367.33	2029.54
367.54	2035.68
367.76	2033.63
367.97	2121.70
368.19	2066.40
368.40	2119.65
368.62	1931.23
368.83	1984.48
369.05	2086.88
369.26	1959.91
369.48	2019.30
369.69	1968.10
369.91	1984.48
370.12	1964.00
370.33	2080.74
370.55	2002.91
370.76	2066.40
370.98	2166.75
371.19	1998.82
371.41	1939.43
371.62	2019.30
371.84	2004.96
372.05	2123.74
372.27	2002.91
372.48	2082.78
372.69	2088.93
372.91	2179.04
373.12	2174.94
373.34	2103.26
373.55	2088.93
373.77	2064.35
373.98	2058.21
374.20	2140.13
374.41	2191.33
374.62	2158.56
374.84	2127.84
375.05	2250.72
375.27	2121.70
375.48	2152.42
375.70	2076.64
375.91	2211.81
376.12	2215.90
376.34	2093.02
376.55	2109.41
376.77	2197.47
376.98	2056.16
377.19	2078.69
377.41	2076.64
377.62	2129.89
377.84	2244.57
378.05	2310.11
378.27	2207.71
378.48	2273.25
378.69	2385.88
378.91	2228.19
379.12	2174.94
379.34	2187.23
379.55	2342.88
379.76	2344.92
379.98	2203.61
380.19	2291.68
380.41	2234.33
380.62	2351.07
380.83	2211.81
381.05	2158.56
381.26	2377.69
381.47	2189.28
381.69	2263.01
381.90	2303.96
382.12	2252.77
382.33	2281.44
382.54	2250.72
382.76	2230.24
382.97	2248.67
383.19	2158.56
383.40	2320.35
383.61	2256.86
383.83	2220.00
384.04	2267.10
384.25	2396.12
384.47	2367.45
384.68	2322.40
384.89	2322.40
385.11	2355.16
385.32	2334.68
385.54	2357.21
385.75	2367.45
385.96	2263.01
386.18	2310.11
386.39	2338.78
386.60	2265.05
386.82	2437.08
387.03	2449.37
387.24	2469.85
387.46	2379.74
387.67	2478.04
387.88	2416.60
388.10	2398.17
388.31	2416.60
388.52	2516.95
388.74	2420.70
388.95	2322.40
389.16	2402.27
389.38	2455.51
389.59	2496.47
389.80	2605.02
390.02	2428.89
390.23	2475.99
390.44	2420.70
390.66	2490.33
390.87	2379.74
391.08	2496.47
391.30	2658.26
391.51	2598.87
391.72	2600.92
391.94	2594.78
392.15	2541.53
392.36	2600.92
392.58	2529.24
392.79	2568.15
393.00	2654.17
393.22	2629.59
393.43	2731.99
393.64	2723.80
393.85	2754.52
394.07	2584.54
394.28	2721.75
394.49	2703.32
394.71	2740.18
394.92	2770.90
395.13	2695.13
395.35	2680.79
395.56	2674.65
395.77	2731.99
395.98	2705.37
396.20	2838.48
396.41	2705.37
396.62	2826.20
396.84	2766.81
397.05	2813.91
397.26	2856.92
397.47	2830.29
397.69	2754.52
397.90	3024.85
398.11	2854.87
398.32	2895.83
398.54	2818.00
398.75	2809.81
398.96	2891.73
399.18	2908.12
399.39	2852.82
399.60	3067.86
399.81	2867.16
400.03	2879.44
400.24	3203.02
400.45	2881.49
400.66	3033.04
400.88	2971.60
401.09	3094.48
401.30	3096.53
401.51	3092.43
401.73	3149.78
401.94	3057.62
402.15	3123.15
402.36	3041.23
402.58	3088.34
402.79	3139.54
403.00	3174.35
403.21	3172.30
403.43	3268.56
403.64	3254.22
403.85	3121.10
404.06	3104.72
404.27	3106.77
404.49	3239.89
404.70	3106.77
404.91	3297.23
405.12	3192.78
405.34	3184.59
405.55	3424.20
405.76	3172.30
405.97	3215.31
406.19	3336.14
406.40	3219.41
406.61	3303.37
406.82	3190.74
407.03	3145.68
407.25	3303.37
407.46	3358.67
407.67	3332.05
407.88	3387.34
408.09	3217.36
408.31	3313.61
408.52	3299.28
408.73	3260.37
408.94	3307.47
409.15	3370.96
409.37	3424.20
409.58	3405.77
409.79	3448.78
410.00	3528.65
410.21	3307.47
410.43	3354.57
410.64	3360.72
410.85	3520.46
411.06	3338.19
411.27	3592.14
411.48	3469.26
411.70	3348.43
411.91	3483.59
412.12	3557.32
412.33	3477.45
412.54	3590.09
412.76	3694.54
412.97	3553.23
413.18	3510.22
413.39	3538.89
413.60	3620.81
413.81	3717.06
414.03	3549.13
414.24	3536.84
414.45	3790.79
414.66	3538.89
414.87	3784.65
415.08	3520.46
415.30	3569.61
415.51	3684.30
415.72	3682.25
415.93	3624.90
416.14	3629.00
416.35	3739.59
416.56	3758.02
416.78	3755.97
416.99	3743.69
417.20	3723.21
417.41	3792.84
417.62	3819.46
417.83	3737.54
418.04	3674.06
418.26	3798.98
418.47	3723.21
418.68	3839.94
418.89	3913.67
419.10	4026.31
419.31	3833.80
419.52	3835.85
419.73	3878.85
419.95	3921.86
420.16	3893.19
420.37	3801.03
420.58	3979.20
420.79	3727.30
421.00	3968.96
421.21	4052.93
421.42	3796.93
421.63	4032.45
421.85	3977.16
422.06	4018.11
422.27	4104.13
422.48	4095.94
422.69	4059.07
422.90	3989.44
423.11	4126.66
423.32	4138.94
423.53	4177.86
423.75	4198.34
423.96	4210.62
424.17	4194.24
424.38	4296.64
424.59	4177.86
424.80	4310.97
425.01	4255.68
425.22	4214.72
425.43	4173.76
425.64	4501.44
425.85	4442.04
426.06	4306.88
426.28	4288.45
426.49	4247.49
426.70	4329.41
426.91	4392.89
427.12	4491.20
427.33	4495.29
427.54	4485.05
427.75	4480.96
427.96	4708.28
428.17	4470.72
428.38	4530.11
428.59	4573.11
428.80	4468.67
429.01	4616.12
429.23	4460.48
429.44	4730.81
429.65	4806.58
429.86	4794.29
430.07	4483.00
430.28	4595.64
430.49	4718.52
430.70	4831.16
430.91	4906.93
431.12	4802.49
431.33	4970.42
431.54	4886.45
431.75	4896.69
431.96	4923.32
432.17	4923.32
432.38	4886.45
432.59	5191.60
432.80	4960.18
433.01	4908.98
433.22	5119.92
433.43	5081.01
433.64	5076.91
433.85	5130.16
434.06	5181.36
434.27	5162.93
434.49	5150.64
434.70	5302.19
434.91	5132.21
435.12	5169.07
435.33	5203.89
435.54	5341.10
435.75	5078.96
435.96	5181.36
436.17	5197.74
436.38	5488.56
436.59	5515.18
436.80	5349.29
437.01	5590.95
437.22	5451.69
437.43	5500.84
437.64	5310.38
437.85	5511.08
438.06	5480.36
438.27	5474.22
438.48	5484.46
438.69	5672.87
438.90	5617.58
439.11	5506.99
439.32	5701.54
439.53	5627.82
439.74	5746.60
439.95	5623.72
440.16	5638.06
440.37	5711.78
440.57	5744.55
440.78	5705.64
440.99	5881.77
441.20	5783.46
441.41	5646.25
441.62	5832.62
441.83	5734.31
442.04	5918.63
442.25	5935.01
442.46	5896.10
442.67	6045.60
442.88	6301.60
443.09	5887.91
443.30	5861.29
443.51	5990.31
443.72	6258.59
443.93	6090.66
444.14	6360.99
444.35	5904.29
444.56	6199.20
444.77	6240.16
444.98	6117.28
445.19	6131.62
445.40	6250.40
445.61	6135.71
445.81	6404.00
446.02	6414.24
446.23	6250.40
446.44	6123.43
446.65	6311.84
446.86	6227.87
447.07	6496.16
447.28	6422.43
447.49	6494.11
447.70	6426.53
447.91	6518.68
448.12	6510.49
448.33	6651.80
448.54	6533.02
448.74	6565.79
448.95	6653.85
449.16	6606.75
449.37	6770.58
449.58	6614.94
449.79	6768.54
450.00	6655.90
450.21	6791.06
450.42	6993.81
450.63	6856.60
450.84	6758.30
451.05	6850.46
451.25	6776.73
451.46	6805.40
451.67	7042.96
451.88	7016.34
452.09	6952.85
452.30	6934.42
452.51	7085.97
452.72	6938.52
452.93	7505.81
453.13	6901.65
453.34	7049.11
453.55	7083.92
453.76	7014.29
453.97	7247.76
454.18	7237.52
454.39	7192.47
454.60	7212.95
454.81	7169.94
455.01	7423.89
455.22	7165.84
455.43	7307.15
455.64	7544.72
455.85	7565.20
456.06	7659.40
456.27	7374.74
456.48	7485.33
456.68	7456.65
456.89	7612.30
457.10	7618.44
457.31	7696.27
457.52	7796.62
457.73	7841.67
457.94	7849.86
458.14	7681.93
458.35	8138.63
458.56	8005.51
458.77	7882.63
458.98	7782.28
459.19	8005.51
459.39	7980.93
459.60	8195.97
459.81	8034.18
460.02	8193.92
460.23	8208.26
460.44	8421.25
460.65	8212.35
460.85	8324.99
461.06	8341.38
461.27	8228.74
461.48	8558.46
461.69	8482.69
461.89	8243.07
462.10	8685.44
462.31	8310.66
462.52	8515.45
462.73	8542.08
462.94	8808.31
463.14	8634.24
463.35	8900.47
463.56	9301.87
463.77	8916.86
463.98	8759.16
464.18	8705.92
464.39	9119.60
464.60	9314.16
464.81	9170.80
465.02	9011.06
465.23	9496.43
465.43	9205.62
465.64	9375.60
465.85	9340.79
466.06	9281.39
466.27	9498.48
466.47	9377.65
466.68	9473.90
466.89	9576.30
467.10	9633.64
467.30	9379.70
467.51	9690.99
467.72	9973.61
467.93	9488.24
468.14	9744.24
468.34	9949.03
468.55	9981.80
468.76	10139.49
468.97	9758.57
469.17	10153.83
469.38	10139.49
469.59	10366.82
469.80	10123.11
470.01	10073.96
470.21	10360.67
470.42	10530.66
470.63	10493.79
470.84	10409.83
471.04	10493.79
471.25	10776.41
471.46	10729.31
471.67	11044.70
471.87	10778.46
472.08	11054.94
472.29	11132.76
472.50	10655.58
472.70	11038.55
472.91	11093.85
473.12	11302.74
473.33	11386.71
473.53	11499.34
473.74	11118.42
473.95	11540.30
474.16	11454.29
474.36	11691.85
474.57	11798.35
474.78	12011.34
474.99	11749.20
475.19	11882.31
475.40	12148.55
475.61	12101.45
475.81	12425.03
476.02	12429.12
476.23	12119.88
476.44	12560.19
476.64	12664.64
476.85	12646.21
477.06	12756.80
477.27	12879.68
477.47	12867.39
477.68	12879.68
477.89	13086.52
478.09	13041.46
478.30	13193.01
478.51	13133.62
478.71	13371.19
478.92	13633.33
479.13	13489.97
479.34	13807.41
479.54	13813.55
479.75	13881.13
479.96	13647.66
480.16	13836.08
480.37	14012.20
480.58	14362.40
480.78	14257.96
480.99	14335.78
481.20	14403.36
481.41	14415.65
481.61	14632.74
481.82	14651.17
482.03	14749.47
482.23	14589.73
482.44	15126.30
482.65	15183.64
482.85	15191.83
483.06	15257.37
483.27	15345.43
483.47	15529.75
483.68	15601.43
483.89	15738.64
484.09	15580.95
484.30	15838.99
484.51	15986.44
484.71	16236.30
484.92	15908.62
485.13	16035.60
485.33	15974.16
485.54	16269.06
485.75	16602.88
485.95	16678.66
486.16	16764.67
486.37	16740.10
486.57	16588.55
486.78	16883.45
486.98	16776.96
487.19	17174.27
487.40	17366.78
487.60	17278.71
487.81	17700.59
488.02	17444.60
488.22	17432.31
488.43	17731.31
488.64	17719.03
488.84	17743.60
489.05	18034.41
489.25	18083.56
489.46	18386.66
489.67	18173.67
489.87	18530.02
490.08	18546.40
490.29	18102.00
490.49	18869.98
490.70	18824.93
490.90	19001.05
491.11	18669.28
491.32	18880.22
491.52	19091.16
491.73	19285.72
491.94	19427.03
492.14	19267.29
492.35	19515.09
492.55	19390.17
492.76	19515.09
492.97	19746.51
493.17	19728.08
493.38	19900.11
493.58	20289.23
493.79	19984.08
494.00	19928.78
494.20	20082.38
494.41	20377.29
494.61	20438.73
494.82	20498.12
495.02	20641.48
495.23	20801.22
495.44	20862.66
495.64	20940.48
495.85	20874.95
496.05	21098.17
496.26	21040.83
496.47	21401.27
496.67	21210.81
496.88	21601.97
497.08	21028.54
497.29	21589.69
497.49	21419.71
497.70	21855.92
497.91	21413.56
498.11	21855.92
498.32	21874.35
498.52	21798.58
498.73	22066.86
498.93	21927.60
499.14	22455.98
499.34	22703.78
499.55	22488.74
499.76	22220.46
499.96	22421.16
500.17	22353.58
500.37	22613.67
500.58	22787.75
500.78	22951.59
500.99	22927.01
501.19	23090.85
501.40	23199.39
501.60	22857.38
501.81	23060.13
502.02	23301.79
502.22	23099.04
502.43	23604.89
502.63	23746.20
502.84	23488.15
503.04	23439.00
503.25	23563.93
503.45	23561.88
503.66	23647.90
503.86	23711.38
504.07	23830.16
504.27	23932.56
504.48	24135.31
504.68	23930.51
504.89	24401.55
505.09	24116.88
505.30	24536.71
505.50	24112.78
505.71	24264.33
505.91	24481.42
506.12	24432.27
506.32	24542.86
506.53	24747.65
506.73	24520.33
506.94	24768.13
507.14	24694.41
507.35	24989.31
507.55	24729.22
507.76	25271.93
507.96	25112.19
508.17	24727.17
508.37	25224.83
508.58	25253.50
508.78	25110.14
508.99	25501.31
509.19	25179.78
509.40	25259.65
509.60	25458.30
509.81	25489.02
510.01	25413.24
510.22	25415.29
510.42	25525.88
510.63	25841.27
510.83	25683.58
511.04	25749.11
511.24	25675.38
511.44	25749.11
511.65	26017.40
511.85	25452.16
512.06	26156.66
512.26	25935.48
512.47	26248.82
512.67	25894.52
512.88	26023.54
513.08	25804.41
513.29	26238.58
513.49	25970.29
513.69	26125.94
513.90	26476.14
514.10	26123.89
514.31	26764.90
514.51	26422.89
514.72	26261.10
514.92	26529.39
515.13	26449.52
515.33	26439.28
515.53	26500.72
515.74	26482.28
515.94	26902.12
516.15	26654.31
516.35	26728.04
516.56	26787.43
516.76	26959.46
516.96	26805.86
517.17	26842.73
517.37	26654.31
517.58	26979.94
517.78	27127.39
517.99	26910.31
518.19	27362.91
518.39	27211.36
518.60	27362.91
518.80	27364.96
519.01	27557.47
519.21	27289.18
519.41	27340.38
519.62	27301.47
519.82	27758.17
520.03	27362.91
520.23	27848.28
520.43	27477.60
520.64	27840.09
520.84	27735.64
521.05	28171.86
521.25	27731.54
521.45	28231.25
521.66	28167.76
521.86	28020.31
522.07	28282.45
522.27	28313.17
522.47	28155.47
522.68	28563.02
522.88	28184.15
523.08	28573.26
523.29	28421.71
523.49	28624.46
523.70	28702.28
523.90	28778.06
524.10	28700.23
524.31	28902.98
524.51	28888.65
524.71	29060.68
524.92	28986.95
525.12	28943.94
525.33	29240.90
525.53	28945.99
525.73	29546.05
525.94	29486.65
526.14	29562.43
526.34	29683.26
526.55	29931.06
526.75	29752.89
526.95	29730.36
527.16	29560.38
527.36	29589.05
527.56	29728.31
527.77	30266.93
527.97	30131.76
528.17	29834.81
528.38	30400.05
528.58	30123.57
528.78	30500.40
528.99	30426.67
529.19	30678.57
529.39	30078.52
529.60	30723.63
529.80	30490.16
530.00	30561.84
530.21	31286.82
530.41	31153.70
530.61	31039.01
530.82	30856.75
531.02	31325.73
531.22	31204.90
531.43	31223.33
531.63	31436.32
531.83	31821.34
532.04	32110.10
532.24	31503.90
532.44	31649.31
532.64	31641.12
532.85	32073.24
533.05	32151.06
533.25	32140.82
533.46	32224.79
533.66	32517.65
533.86	32294.42
534.07	32620.05
534.27	32550.42
534.47	33125.89
534.67	32712.20
534.88	32962.06
535.08	32871.95
535.28	32873.99
535.49	32964.10
535.69	33474.05
535.89	33426.95
536.09	33338.88
536.30	33580.54
536.50	33543.68
536.70	33603.07
536.91	34004.47
537.11	34035.19
537.31	33605.12
537.51	33410.56
537.72	34477.55
537.92	34141.69
538.12	34495.99
538.32	34190.84
538.53	34498.03
538.73	33957.37
538.93	34557.42
539.13	34647.54
539.34	34434.55
539.54	34631.15
539.74	35044.84
539.94	34569.71
540.15	34831.85
540.35	35089.90
540.55	35067.37
540.75	35163.62
540.96	35614.18
541.16	35479.01
541.36	35436.00
541.56	35368.42
541.77	35812.83
541.97	35661.28
542.17	36066.78
542.37	35890.65
542.58	35917.28
542.78	35976.67
542.98	35980.76
543.18	36292.05
543.38	36472.28
543.59	36378.07
543.79	36472.28
543.99	36316.63
544.19	36599.25
544.40	36636.11
544.60	36834.77
544.80	36840.91
545.00	36431.32
545.20	37461.44
545.41	37092.81
545.61	36898.25
545.81	37131.72
546.01	37645.76
546.21	37125.58
546.42	37287.37
546.62	37563.84
546.82	37475.78
547.02	37447.11
547.22	37719.49
547.43	37680.58
547.63	37959.10
547.83	37729.73
548.03	37461.44
548.23	38161.85
548.44	38149.56
548.64	38147.51
548.84	38309.30
549.04	37979.58
549.24	38499.76
549.45	38823.34
549.65	38479.28
549.85	39001.52
550.05	38831.54
550.25	38677.94
550.45	39325.10
550.66	38903.21
550.86	38671.79
551.06	39022.00
551.26	39234.99
551.46	39257.51
551.66	39241.13
551.87	39212.46
552.07	39126.44
552.27	39392.68
552.47	39196.07
552.67	39859.62
552.87	39626.15
553.07	39779.74
553.28	39613.86
553.48	39935.39
553.68	39656.87
553.88	40162.72
554.08	40084.89
554.28	40068.51
554.48	40095.13
554.69	40224.15
554.89	40400.28
555.09	40242.59
555.29	39902.62
555.49	40531.35
555.69	40408.47
555.89	40656.28
556.10	40934.80
556.30	40842.64
556.50	40715.67
556.70	40471.96
556.90	41033.10
557.10	40942.99
557.30	40580.50
557.50	41086.35
557.70	41139.60
557.91	41313.67
558.11	41403.78
558.31	41434.50
558.51	41131.40
558.71	41672.07
558.91	41842.05
559.11	41358.73
559.31	41704.84
559.51	41205.13
559.72	41610.63
559.92	41751.94
560.12	41538.95
560.32	41969.02
560.52	41874.82
560.72	41987.46
560.92	41909.63
561.12	41702.79
561.32	42014.08
561.52	41899.39
561.72	42272.12
561.93	42212.73
562.13	42227.07
562.33	41801.09
562.53	42681.72
562.73	42034.56
562.93	42235.26
563.13	42610.04
563.33	42468.73
563.53	42747.25
563.73	42837.36
563.93	42706.29
564.13	42620.28
564.33	42454.39
564.53	42669.43
564.74	43111.79
564.94	42530.17
565.14	43230.57
565.34	43181.42
565.54	42898.80
565.74	42927.47
565.94	43722.08
566.14	43011.44
566.34	42939.76
566.54	43642.21
566.74	43072.88
566.94	43113.84
567.14	43603.30
567.34	43115.89
567.54	43830.63
567.74	43189.61
567.94	43457.90
568.14	44127.58
568.34	43586.92
568.54	43527.53
568.74	43799.91
568.94	43709.80
569.14	43736.42
569.34	43775.33
569.54	43900.26
569.75	43404.65
569.95	44016.99
570.15	44399.96
570.35	44053.86
570.55	43959.65
570.75	43996.51
570.95	44447.07
571.15	44383.58
571.35	44084.58
571.55	44623.19
571.75	44090.72
571.95	44090.72
572.15	44223.84
572.35	44311.90
572.55	44244.32
572.75	44393.82
572.95	44266.84
573.15	44807.51
573.35	44371.29
573.55	44316.00
573.75	44346.72
573.95	44901.71
574.15	44371.29
574.35	45018.45
574.55	44817.75
574.75	44637.53
574.95	44561.75
575.15	44711.25
575.34	44858.71
575.54	45380.94
575.74	45202.77
575.94	44963.15
576.14	44891.48
576.34	45606.22
576.54	45296.97
576.74	45045.07
576.94	45282.64
577.14	45593.93
577.34	45591.88
577.54	44850.52
577.74	45329.74
577.94	45389.13
578.14	45397.32
578.34	45589.83
578.54	45182.29
578.74	45430.09
578.94	45524.30
579.14	45630.79
579.34	45552.97
579.54	46165.31
579.74	46019.91
579.94	46048.58
580.13	46208.32
580.33	46183.74
580.53	46185.79
580.73	46114.11
580.93	45878.60
581.13	45993.28
581.33	46275.90
581.53	46755.13
581.73	46087.49
581.93	46347.58
582.13	46198.08
582.33	46579.00
582.53	46204.22
582.73	46662.97
582.92	46343.48
583.12	46994.74
583.32	46519.61
583.52	46519.61
583.72	46691.64
583.92	46552.38
584.12	46568.76
584.32	47103.28
584.52	46802.23
584.72	46662.97
584.92	46916.92
585.11	47084.85
585.31	47025.46
585.51	47265.07
585.71	46740.79
585.91	47396.14
586.11	46830.90
586.31	47193.39
586.51	47342.89
586.71	47037.75
586.91	47164.72
587.10	47426.86
587.30	47113.52
587.50	47482.16
587.70	47344.94
587.90	47387.95
588.10	47418.67
588.30	47770.92
588.50	47211.82
588.69	47271.21
