SpectraSuite Data File
++++++++++++++++++++++++++++++++++++
Date: Fri Jun 02 14:51:13 CEST 2017
User: INFO_000
Dark Spectrum Present: No
Reference Spectrum Present: No
Number of Sampled Component Spectra: 1
Spectrometers: USB4H00879
Integration Time (usec): 80000 (USB4H00879)
Spectra Averaged: 1 (USB4H00879)
Boxcar Smoothing: 0 (USB4H00879)
Correct for Electrical Dark: No (USB4H00879)
Strobe/Lamp Enabled: No (USB4H00879)
Correct for Detector Non-linearity: No (USB4H00879)
Correct for Stray Light: No (USB4H00879)
Number of Pixels in Processed Spectrum: 3648
>>>>>Begin Processed Spectral Data<<<<<
345.13	1255.40
345.34	1255.40
345.56	1255.40
345.78	1302.51
345.99	1239.02
346.21	1738.73
346.42	1699.81
346.64	1665.00
346.86	1748.97
347.07	1681.38
347.29	1660.90
347.50	1638.38
347.72	1644.52
347.94	1712.10
348.15	1509.35
348.37	1562.60
348.59	1740.77
348.80	1648.61
349.02	1820.64
349.23	1884.13
349.45	1832.93
349.67	1880.04
349.88	1818.60
350.10	1918.95
350.31	1847.27
350.53	1853.41
350.75	1914.85
350.96	1781.73
351.18	1871.84
351.39	1828.84
351.61	1843.17
351.82	1898.47
352.04	1933.28
352.26	1775.59
352.47	1769.44
352.69	1861.60
352.90	1738.73
353.12	1867.75
353.34	1884.13
353.55	1875.94
353.77	1894.37
353.98	1828.84
354.20	1787.88
354.41	1961.95
354.63	1941.47
354.85	2027.49
355.06	1908.71
355.28	1820.64
355.49	1871.84
355.71	1867.75
355.92	1908.71
356.14	1978.34
356.35	1839.08
356.57	1886.18
356.79	1902.56
357.00	1877.99
357.22	1996.77
357.43	1888.23
357.65	2023.39
357.86	1896.42
358.08	1974.24
358.29	1834.98
358.51	2017.25
358.72	1998.82
358.94	1949.67
359.16	1955.81
359.37	1898.47
359.59	1916.90
359.80	1912.80
360.02	1945.57
360.23	2019.30
360.45	2052.06
360.66	1918.95
360.88	1966.05
361.09	1908.71
361.31	2054.11
361.52	1951.71
361.74	2052.06
361.95	2119.65
362.17	1912.80
362.38	2029.54
362.60	1988.58
362.81	1890.28
363.03	1970.15
363.24	2031.58
363.46	2078.69
363.67	2009.06
363.89	1898.47
364.10	1982.43
364.32	1957.86
364.53	2011.11
364.75	1939.43
364.96	1970.15
365.18	1988.58
365.39	2093.02
365.61	1978.34
365.82	2095.07
366.04	2095.07
366.25	2011.11
366.47	2000.87
366.68	2105.31
366.90	1955.81
367.11	2101.22
367.33	2101.22
367.54	2093.02
367.76	2021.35
367.97	2072.54
368.19	2052.06
368.40	2107.36
368.62	1943.52
368.83	1943.52
369.05	2099.17
369.26	2052.06
369.48	1939.43
369.69	2027.49
369.91	2037.73
370.12	2009.06
370.33	2066.40
370.55	2002.91
370.76	2086.88
370.98	2076.64
371.19	2039.78
371.41	2004.96
371.62	2062.30
371.84	2021.35
372.05	2168.80
372.27	2101.22
372.48	2088.93
372.69	2056.16
372.91	2201.57
373.12	2195.42
373.34	2076.64
373.55	2146.27
373.77	2082.78
373.98	2142.18
374.20	2129.89
374.41	2224.09
374.62	2138.08
374.84	2133.98
375.05	2164.70
375.27	2240.48
375.48	2117.60
375.70	2176.99
375.91	2123.74
376.12	2312.16
376.34	2156.51
376.55	2142.18
376.77	2142.18
376.98	2160.61
377.19	2174.94
377.41	2193.37
377.62	2191.33
377.84	2205.66
378.05	2404.32
378.27	2209.76
378.48	2238.43
378.69	2351.07
378.91	2371.55
379.12	2217.95
379.34	2299.87
379.55	2240.48
379.76	2250.72
379.98	2166.75
380.19	2285.53
380.41	2174.94
380.62	2318.30
380.83	2197.47
381.05	2179.04
381.26	2439.13
381.47	2224.09
381.69	2344.92
381.90	2402.27
382.12	2156.51
382.33	2314.20
382.54	2297.82
382.76	2277.34
382.97	2306.01
383.19	2250.72
383.40	2412.51
383.61	2277.34
383.83	2342.88
384.04	2263.01
384.25	2326.49
384.47	2377.69
384.68	2363.36
384.89	2250.72
385.11	2301.92
385.32	2310.11
385.54	2367.45
385.75	2367.45
385.96	2400.22
386.18	2346.97
386.39	2426.84
386.60	2314.20
386.82	2396.12
387.03	2379.74
387.24	2510.81
387.46	2410.46
387.67	2461.66
387.88	2592.73
388.10	2432.99
388.31	2455.51
388.52	2508.76
388.74	2555.86
388.95	2455.51
389.16	2514.91
389.38	2432.99
389.59	2568.15
389.80	2598.87
390.02	2566.10
390.23	2740.18
390.44	2535.39
390.66	2500.57
390.87	2572.25
391.08	2555.86
391.30	2641.88
391.51	2715.61
391.72	2523.10
391.94	2519.00
392.15	2627.54
392.36	2600.92
392.58	2598.87
392.79	2684.89
393.00	2594.78
393.22	2760.66
393.43	2867.16
393.64	2887.64
393.85	2803.67
394.07	2648.02
394.28	2717.65
394.49	2654.17
394.71	2699.22
394.92	2830.29
395.13	2650.07
395.35	2795.48
395.56	2750.42
395.77	2721.75
395.98	2752.47
396.20	2875.35
396.41	2789.33
396.62	2877.40
396.84	2785.24
397.05	2842.58
397.26	2875.35
397.47	2877.40
397.69	2820.05
397.90	3026.90
398.11	2854.87
398.32	2854.87
398.54	2809.81
398.75	2879.44
398.96	2924.50
399.18	3008.47
399.39	2975.70
399.60	3004.37
399.81	2918.36
400.03	2830.29
400.24	3137.49
400.45	2924.50
400.66	3063.76
400.88	3002.32
401.09	3213.26
401.30	2947.03
401.51	3123.15
401.73	3139.54
401.94	3121.10
402.15	3155.92
402.36	3098.58
402.58	3139.54
402.79	3110.86
403.00	3188.69
403.21	3155.92
403.43	3313.61
403.64	3272.65
403.85	3078.10
404.06	3176.40
404.27	3133.39
404.49	3047.38
404.70	3049.43
404.91	3215.31
405.12	3229.65
405.34	3223.50
405.55	3313.61
405.76	3121.10
405.97	3225.55
406.19	3317.71
406.40	3250.13
406.61	3299.28
406.82	3332.05
407.03	3330.00
407.25	3227.60
407.46	3387.34
407.67	3428.30
407.88	3456.97
408.09	3289.04
408.31	3323.85
408.52	3358.67
408.73	3266.51
408.94	3258.32
409.15	3344.33
409.37	3422.16
409.58	3459.02
409.79	3448.78
410.00	3510.22
410.21	3350.48
410.43	3475.40
410.64	3366.86
410.85	3514.31
411.06	3475.40
411.27	3522.51
411.48	3565.51
411.70	3534.79
411.91	3569.61
412.12	3588.04
412.33	3655.62
412.54	3524.55
412.76	3674.06
412.97	3602.38
413.18	3477.45
413.39	3641.29
413.60	3721.16
413.81	3704.78
414.03	3655.62
414.24	3667.91
414.45	3755.97
414.66	3596.23
414.87	3708.87
415.08	3712.97
415.30	3645.38
415.51	3798.98
415.72	3774.41
415.93	3680.20
416.14	3874.76
416.35	3704.78
416.56	3809.22
416.78	3745.73
416.99	3786.69
417.20	3682.25
417.41	3864.52
417.62	3796.93
417.83	3925.96
418.04	3844.04
418.26	3823.56
418.47	3772.36
418.68	3950.53
418.89	3876.80
419.10	4118.47
419.31	3901.38
419.52	4014.02
419.73	3985.35
419.95	4048.83
420.16	3866.56
420.37	3930.05
420.58	4022.21
420.79	3854.28
421.00	4202.43
421.21	4069.31
421.42	3952.58
421.63	4208.58
421.85	3968.96
422.06	4253.63
422.27	4181.95
422.48	4145.09
422.69	4218.82
422.90	4181.95
423.11	4231.10
423.32	4341.69
423.53	4364.22
423.75	4362.17
423.96	4472.76
424.17	4378.56
424.38	4485.05
424.59	4339.65
424.80	4628.41
425.01	4347.84
425.22	4380.61
425.43	4272.06
425.64	4693.94
425.85	4507.58
426.06	4483.00
426.28	4560.83
426.49	4491.20
426.70	4499.39
426.91	4495.29
427.12	4470.72
427.33	4698.04
427.54	4573.11
427.75	4794.29
427.96	4712.38
428.17	4628.41
428.38	4757.43
428.59	4790.20
428.80	4739.00
429.01	4835.25
429.23	4806.58
429.44	4956.08
429.65	4947.89
429.86	4947.89
430.07	4665.27
430.28	4870.07
430.49	4919.22
430.70	5050.29
430.91	5076.91
431.12	4827.06
431.33	5181.36
431.54	5085.11
431.75	5070.77
431.96	4992.95
432.17	4960.18
432.38	5019.57
432.59	5388.21
432.80	5250.99
433.01	5416.88
433.22	5291.95
433.43	5228.46
433.64	5326.77
433.85	5320.62
434.06	5455.79
434.27	5181.36
434.49	5322.67
434.70	5394.35
434.91	5361.58
435.12	5439.40
435.33	5390.25
435.54	5318.57
435.75	5263.28
435.96	5384.11
436.17	5212.08
436.38	5617.58
436.59	5447.60
436.80	5402.54
437.01	5752.74
437.22	5717.93
437.43	5461.93
437.64	5547.95
437.85	5744.55
438.06	5797.80
438.27	5535.66
438.48	5562.28
438.69	5816.23
438.90	5683.11
439.11	5631.91
439.32	5691.31
439.53	5765.03
439.74	5758.89
439.95	5881.77
440.16	5943.21
440.37	5797.80
440.57	5793.70
440.78	5867.43
440.99	5846.95
441.20	6021.03
441.41	5951.40
441.62	6104.99
441.83	5865.38
442.04	5900.20
442.25	6037.41
442.46	5924.77
442.67	6041.51
442.88	6512.54
443.09	6014.88
443.30	6127.52
443.51	6102.95
443.72	6281.12
443.93	6107.04
444.14	6365.09
444.35	6131.62
444.56	6315.94
444.77	6133.67
444.98	6178.72
445.19	6401.95
445.40	6266.78
445.61	6356.90
445.81	6520.73
446.02	6506.40
446.23	6313.89
446.44	6322.08
446.65	6469.53
446.86	6332.32
447.07	6459.29
447.28	6664.09
447.49	6653.85
447.70	6401.95
447.91	6598.56
448.12	6627.23
448.33	6809.50
448.54	6760.34
448.74	6555.55
448.95	6666.14
449.16	6672.28
449.37	6879.13
449.58	6494.11
449.79	6932.37
450.00	6805.40
450.21	6815.64
450.42	6926.23
450.63	6997.91
450.84	7045.01
451.05	6981.53
451.25	6918.04
451.46	6989.72
451.67	7016.34
451.88	6969.24
452.09	7073.68
452.30	7030.68
452.51	6983.57
452.72	7198.61
452.93	7470.99
453.13	7069.59
453.34	7186.32
453.55	7370.64
453.76	7366.54
453.97	7694.22
454.18	7403.41
454.39	7458.70
454.60	7448.46
454.81	7403.41
455.01	7565.20
455.22	7452.56
455.43	7571.34
455.64	7696.27
455.85	7716.75
456.06	7872.39
456.27	7720.84
456.48	7761.80
456.68	7829.38
456.89	7970.69
457.10	7978.89
457.31	7966.60
457.52	7896.97
457.73	7987.08
457.94	8281.99
458.14	7862.15
458.35	8290.18
458.56	8138.63
458.77	8091.52
458.98	8187.78
459.19	8183.68
459.39	8066.95
459.60	8413.06
459.81	8413.06
460.02	8419.20
460.23	8458.11
460.44	8587.13
460.65	8585.08
460.85	8603.52
461.06	8703.87
461.27	8425.34
461.48	8728.44
461.69	9047.93
461.89	8482.69
462.10	8963.96
462.31	8712.06
462.52	8656.76
462.73	8849.27
462.94	9111.41
463.14	8961.91
463.35	8992.63
463.56	9353.07
463.77	9555.82
463.98	8961.91
464.18	9101.17
464.39	9457.52
464.60	9639.79
464.81	9545.58
465.02	9367.41
465.23	9539.44
465.43	9379.70
465.64	9856.87
465.85	9760.62
466.06	9568.11
466.27	10035.05
466.47	9912.17
466.68	9957.22
466.89	9959.27
467.10	10078.05
467.30	9934.70
467.51	10170.21
467.72	10481.50
467.93	9815.91
468.14	10145.64
468.34	10344.29
468.55	10379.11
468.76	10536.80
468.97	10303.33
469.17	10708.83
469.38	10676.06
469.59	10751.84
469.80	10678.11
470.01	10932.06
470.21	10868.57
470.42	11018.07
470.63	11036.50
470.84	11020.12
471.04	11149.14
471.25	11177.81
471.46	11241.30
471.67	11300.69
471.87	11390.80
472.08	11548.50
472.29	11884.36
472.50	11349.84
472.70	11405.14
472.91	11759.44
473.12	11814.73
473.33	11775.82
473.53	12009.29
473.74	11552.59
473.95	12293.96
474.16	12465.99
474.36	12371.78
474.57	12336.96
474.78	12459.84
474.99	12453.70
475.19	12435.27
475.40	12660.54
475.61	12996.41
475.81	13043.51
476.02	13049.66
476.23	12828.48
476.44	12937.02
476.64	13408.05
476.85	13565.74
477.06	13217.59
477.27	13403.96
477.47	13434.68
477.68	13672.24
477.89	13739.82
478.09	13930.28
478.30	13793.07
478.51	13924.14
478.71	14018.35
478.92	14350.12
479.13	14081.83
479.34	14470.95
479.54	14462.76
479.75	14608.16
479.96	14604.07
480.16	14630.69
480.37	14739.23
480.58	14907.16
480.78	14989.08
480.99	14931.74
481.20	15163.16
481.41	15273.75
481.61	15347.48
481.82	15312.66
482.03	15546.13
482.23	15347.48
482.44	15771.41
482.65	15652.63
482.85	15916.81
483.06	15849.23
483.27	16140.04
483.47	16031.50
483.68	16312.07
483.89	16256.78
484.09	16346.89
484.30	16422.66
484.51	16602.88
484.71	16881.41
484.92	16856.83
485.13	16881.41
485.33	17030.91
485.54	16994.04
485.75	17573.62
485.95	17157.88
486.16	17209.08
486.37	17532.66
486.57	17444.60
486.78	17315.58
486.98	17438.45
487.19	17870.58
487.40	17864.43
487.60	17802.99
487.81	18134.76
488.02	18077.42
488.22	18026.22
488.43	18011.89
488.64	18300.65
488.84	18437.86
489.05	18732.77
489.25	18542.31
489.46	18753.25
489.67	18654.95
489.87	18962.14
490.08	19125.98
490.29	19062.49
490.49	19228.38
490.70	19386.07
490.90	19537.62
491.11	19533.53
491.32	19449.56
491.52	19504.85
491.73	19932.88
491.94	19644.12
492.14	19695.32
492.35	20141.77
492.55	20348.62
492.76	20117.20
492.97	20395.72
493.17	20178.64
493.38	20373.19
493.58	20616.90
493.79	20690.63
494.00	20508.36
494.20	20725.44
494.41	20629.19
494.61	20741.83
494.82	21018.30
495.02	20901.57
495.23	21333.69
495.44	21274.30
495.64	21411.51
495.85	21395.13
496.05	21556.92
496.26	21495.48
496.47	21937.84
496.67	21579.45
496.88	22156.97
497.08	21718.71
497.29	22058.67
497.49	21917.36
497.70	22197.93
497.91	21995.18
498.11	22318.76
498.32	22183.60
498.52	22320.81
498.73	22464.17
498.93	22517.42
499.14	22767.27
499.34	22613.67
499.55	22601.38
499.76	22857.38
499.96	22843.04
500.17	23236.25
500.37	23094.94
500.58	23074.46
500.78	23113.38
500.99	23019.17
501.19	23494.30
501.40	23226.01
501.60	23273.12
501.81	23666.33
502.02	23320.22
502.22	23502.49
502.43	23977.62
502.63	24159.89
502.84	24020.63
503.04	24254.09
503.25	24104.59
503.45	23987.86
503.66	23983.76
503.86	23930.51
504.07	24444.56
504.27	24141.46
504.48	24788.61
504.68	24571.53
504.89	25022.08
505.09	24614.54
505.30	24395.40
505.50	24811.14
505.71	24727.17
505.91	25017.99
506.12	25020.03
506.32	25050.75
506.53	25081.47
506.73	24977.03
506.94	25069.19
507.14	25069.19
507.35	25591.42
507.55	25591.42
507.76	25583.23
507.96	25396.86
508.17	25489.02
508.37	25646.71
508.58	25702.01
508.78	25773.69
508.99	25980.53
509.19	25824.89
509.40	26058.35
509.60	25943.67
509.81	25996.92
510.01	26048.11
510.22	26117.75
510.42	26388.08
510.63	26222.19
510.83	26218.10
511.04	26576.49
511.24	26545.77
511.44	26609.26
511.65	27006.56
511.85	26508.91
512.06	26603.11
512.26	26820.20
512.47	26898.02
512.67	26775.14
512.88	26738.28
513.08	26922.60
513.29	26959.46
513.49	26879.59
513.69	26953.32
513.90	27237.98
514.10	27336.29
514.31	27162.21
514.51	27303.52
514.72	27606.62
514.92	27336.29
515.13	27280.99
515.33	27436.64
515.53	27500.12
515.74	27952.73
515.94	27520.60
516.15	27981.40
516.35	27770.46
516.56	27825.75
516.76	27942.49
516.96	27795.03
517.17	27999.83
517.37	27956.82
517.58	28083.80
517.78	28456.53
517.99	28128.85
518.19	28302.93
518.39	28749.39
518.60	28524.11
518.80	28421.71
519.01	28384.85
519.21	28511.82
519.41	28411.47
519.62	28573.26
519.82	28913.22
520.03	29085.25
520.23	28821.06
520.43	28825.16
520.64	29216.32
520.84	29275.71
521.05	29115.97
521.25	29285.95
521.45	29484.61
521.66	29607.48
521.86	29468.22
522.07	29394.50
522.27	29445.69
522.47	29597.24
522.68	30068.28
522.88	29648.44
523.08	29806.14
523.29	29898.30
523.49	30264.88
523.70	30320.18
523.90	30160.44
524.10	30291.51
524.31	30600.75
524.51	30193.20
524.71	30928.42
524.92	30496.30
525.12	30866.98
525.33	30735.92
525.53	30871.08
525.73	31149.60
525.94	31018.53
526.14	30991.91
526.34	31397.41
526.55	31086.12
526.75	31116.84
526.95	31526.43
527.16	31501.86
527.36	31538.72
527.56	31933.98
527.77	31589.92
527.97	31700.51
528.17	31686.17
528.38	32284.18
528.58	32034.33
528.78	32265.75
528.99	32155.16
529.19	32466.45
529.39	31954.46
529.60	32642.57
529.80	32333.33
530.00	32181.78
530.21	32689.68
530.41	33127.94
530.61	32835.08
530.82	32869.90
531.02	33003.02
531.22	33338.88
531.43	33226.24
531.63	33277.44
531.83	33580.54
532.04	33938.94
532.24	33580.54
532.44	34059.77
532.64	33574.40
532.85	33951.23
533.05	34037.24
533.25	33588.74
533.46	34178.55
533.66	34596.34
533.86	34424.31
534.07	34842.09
534.27	34242.04
534.47	34813.42
534.67	34756.08
534.88	34598.38
535.08	35180.01
535.28	34907.63
535.49	35128.81
535.69	35331.56
535.89	35532.26
536.09	35368.42
536.30	35528.16
536.50	35552.74
536.70	35902.94
536.91	35943.90
537.11	35919.32
537.31	36046.30
537.51	35683.81
537.72	36363.73
537.92	36414.93
538.12	36410.84
538.32	36449.75
538.53	36640.21
538.73	36040.15
538.93	36591.06
539.13	36580.82
539.34	36568.53
539.54	36478.42
539.74	37094.86
539.94	37035.47
540.15	37078.47
540.35	37201.35
540.55	36976.08
540.75	37084.62
540.96	37332.42
541.16	37363.14
541.36	37385.67
541.56	37551.56
541.77	37627.33
541.97	38100.41
542.17	37651.91
542.37	37955.00
542.58	37893.57
542.78	37670.34
542.98	37885.37
543.18	38106.55
543.38	38247.86
543.59	38798.77
543.79	37963.20
543.99	38477.24
544.19	38491.57
544.40	38501.81
544.60	38440.37
544.80	38661.55
545.00	38839.73
545.20	39056.81
545.41	38831.54
545.61	38569.40
545.81	39089.58
546.01	39019.95
546.21	39050.67
546.42	39069.10
546.62	39347.62
546.82	39734.69
547.02	39034.28
547.22	39615.91
547.43	39374.25
547.63	39751.07
547.83	39867.81
548.03	39691.68
548.23	39871.90
548.44	39736.74
548.64	39857.57
548.84	39792.03
549.04	39978.40
549.24	39978.40
549.45	40101.28
549.65	39847.33
549.85	39992.73
550.05	40248.73
550.25	40443.29
550.45	40959.38
550.66	40324.50
550.86	40240.54
551.06	40805.78
551.26	40981.90
551.46	40783.25
551.66	41039.25
551.87	40756.63
552.07	40895.89
552.27	40662.42
552.47	40928.66
552.67	41049.49
552.87	40942.99
553.07	40914.32
553.28	41172.36
553.48	41076.11
553.68	41039.25
553.88	41274.76
554.08	41186.70
554.28	41239.95
554.48	41072.01
554.69	41170.32
554.89	41457.03
555.09	41647.49
555.29	41039.25
555.49	41612.68
555.69	41788.80
555.89	41743.75
556.10	42249.60
556.30	41422.22
556.50	41829.76
556.70	41792.90
556.90	41928.06
557.10	42089.85
557.30	41620.87
557.50	42333.56
557.70	42341.75
557.91	42556.79
558.11	42167.68
558.31	42706.29
558.51	42253.69
558.71	42182.01
558.91	42411.38
559.11	42376.57
559.31	42581.37
559.51	42362.23
559.72	42462.58
559.92	42573.17
560.12	42388.86
560.32	42947.95
560.52	42452.34
560.72	42884.47
560.92	42968.43
561.12	42530.17
561.32	43079.02
561.52	42519.93
561.72	43314.54
561.93	42751.35
562.13	42931.57
562.33	42759.54
562.53	43451.75
562.73	43038.06
562.93	42997.10
563.13	43326.83
563.33	43287.92
563.53	43382.12
563.73	43140.46
563.93	43105.65
564.13	43746.66
564.33	43623.78
564.53	43044.21
564.74	43498.86
564.94	43552.10
565.14	43466.09
565.34	43181.42
565.54	43584.87
565.74	43492.71
565.94	43720.04
566.14	43586.92
566.34	43294.06
566.54	44070.24
566.74	43650.41
566.94	44193.12
567.14	44174.69
567.34	43867.49
567.54	44289.37
567.74	43906.40
567.94	44049.76
568.14	44496.22
568.34	44537.18
568.54	44297.56
568.74	44137.82
568.94	44008.80
569.14	44840.28
569.34	44518.74
569.54	44373.34
569.75	44109.15
569.95	44410.20
570.15	44940.63
570.35	44787.03
570.55	44424.54
570.75	44215.65
570.95	44647.77
571.15	44879.19
571.35	44440.92
571.55	45086.03
571.75	44793.17
571.95	45057.36
572.15	44580.18
572.35	45176.14
572.55	45061.46
572.75	44985.68
572.95	44723.54
573.15	45446.47
573.35	45550.92
573.55	44944.72
573.75	44934.48
573.95	45307.21
574.15	44932.43
574.35	45260.11
574.55	45051.22
574.75	45043.02
574.95	45493.58
575.15	45227.34
575.34	45874.50
575.54	45667.66
575.74	45688.13
575.94	45661.51
576.14	45864.26
576.34	46085.44
576.54	45790.53
576.74	46132.54
576.94	45733.19
577.14	45854.02
577.34	46677.30
577.54	46013.76
577.74	46122.30
577.94	46290.24
578.14	46261.57
578.34	46619.96
578.54	46089.54
578.74	46288.19
578.94	46863.67
579.14	46251.33
579.34	46818.61
579.54	46474.55
579.74	46802.23
579.94	46728.50
580.13	47097.14
580.33	46867.76
580.53	46736.69
580.73	46910.77
580.93	47031.60
581.13	46841.14
581.33	47088.95
581.53	47236.40
581.73	47199.54
581.93	47498.54
582.13	47693.10
582.33	47516.97
582.53	47086.90
582.73	47269.17
582.92	47602.99
583.12	47742.25
583.32	47592.75
583.52	47260.97
583.72	47867.17
583.92	47783.21
584.12	47988.00
584.32	48540.96
584.52	47641.90
584.72	47795.49
584.92	48026.92
585.11	48450.84
585.31	47848.74
585.51	48674.07
585.71	48471.32
585.91	48633.11
586.11	48244.00
586.31	48364.83
586.51	48420.13
586.71	48768.28
586.91	49040.66
587.10	48755.99
587.30	48715.03
587.50	48805.14
587.70	49067.28
587.90	49112.34
588.10	48821.53
588.30	48715.03
588.50	49366.29
