SpectraSuite Data File
++++++++++++++++++++++++++++++++++++
Date: Fri Jun 02 14:51:11 CEST 2017
User: INFO_000
Dark Spectrum Present: No
Reference Spectrum Present: No
Number of Sampled Component Spectra: 1
Spectrometers: USB4H00879
Integration Time (usec): 80000 (USB4H00879)
Spectra Averaged: 1 (USB4H00879)
Boxcar Smoothing: 0 (USB4H00879)
Correct for Electrical Dark: No (USB4H00879)
Strobe/Lamp Enabled: No (USB4H00879)
Correct for Detector Non-linearity: No (USB4H00879)
Correct for Stray Light: No (USB4H00879)
Number of Pixels in Processed Spectrum: 3648
>>>>>Begin Processed Spectral Data<<<<<
345.13	1341.42
345.34	1341.42
345.56	1341.42
345.78	1310.70
345.99	1241.07
346.21	1761.25
346.42	1638.38
346.64	1595.37
346.86	1798.12
347.07	1687.53
347.29	1667.05
347.50	1677.29
347.72	1693.67
347.94	1740.77
348.15	1634.28
348.37	1595.37
348.59	1724.39
348.80	1798.12
349.02	1806.31
349.23	1837.03
349.45	1834.98
349.67	1877.99
349.88	1761.25
350.10	1931.23
350.31	1781.73
350.53	1851.36
350.75	1955.81
350.96	1720.29
351.18	1867.75
351.39	1910.75
351.61	1806.31
351.82	1890.28
352.04	1949.67
352.26	1877.99
352.47	1884.13
352.69	1951.71
352.90	1765.35
353.12	1886.18
353.34	1873.89
353.55	1918.95
353.77	1882.08
353.98	1798.12
354.20	1914.85
354.41	1937.38
354.63	1865.70
354.85	2029.54
355.06	1900.52
355.28	1724.39
355.49	1920.99
355.71	1841.12
355.92	1890.28
356.14	1961.95
356.35	1802.21
356.57	1851.36
356.79	1961.95
357.00	1898.47
357.22	1992.67
357.43	1849.32
357.65	1976.29
357.86	1916.90
358.08	1927.14
358.29	1902.56
358.51	1978.34
358.72	1970.15
358.94	1902.56
359.16	1931.23
359.37	1925.09
359.59	2025.44
359.80	1920.99
360.02	1982.43
360.23	1974.24
360.45	1964.00
360.66	2019.30
360.88	1925.09
361.09	1947.62
361.31	2011.11
361.52	1953.76
361.74	2009.06
361.95	2037.73
362.17	1880.04
362.38	2068.45
362.60	2025.44
362.81	1988.58
363.03	1904.61
363.24	2037.73
363.46	2045.92
363.67	2054.11
363.89	2007.01
364.10	1939.43
364.32	1982.43
364.53	2060.26
364.75	1843.17
364.96	2107.36
365.18	2041.82
365.39	1951.71
365.61	1984.48
365.82	2076.64
366.04	2035.68
366.25	2084.83
366.47	2021.35
366.68	2037.73
366.90	1945.57
367.11	2068.45
367.33	2123.74
367.54	2033.63
367.76	1929.19
367.97	2023.39
368.19	2074.59
368.40	2015.20
368.62	1961.95
368.83	1931.23
369.05	2019.30
369.26	2023.39
369.48	1953.76
369.69	1970.15
369.91	2097.12
370.12	2004.96
370.33	2056.16
370.55	1986.53
370.76	2072.54
370.98	2101.22
371.19	2103.26
371.41	2031.58
371.62	2109.41
371.84	2019.30
372.05	2152.42
372.27	2066.40
372.48	2066.40
372.69	2039.78
372.91	2146.27
373.12	2166.75
373.34	2047.97
373.55	2095.07
373.77	2166.75
373.98	2021.35
374.20	2154.46
374.41	2166.75
374.62	2211.81
374.84	2119.65
375.05	2195.42
375.27	2185.18
375.48	2203.61
375.70	2125.79
375.91	2228.19
376.12	2281.44
376.34	2191.33
376.55	2207.71
376.77	2271.20
376.98	2129.89
377.19	2158.56
377.41	2201.57
377.62	2197.47
377.84	2240.48
378.05	2303.96
378.27	2193.37
378.48	2254.81
378.69	2435.03
378.91	2344.92
379.12	2195.42
379.34	2174.94
379.55	2246.62
379.76	2303.96
379.98	2234.33
380.19	2236.38
380.41	2222.05
380.62	2289.63
380.83	2213.85
381.05	2203.61
381.26	2412.51
381.47	2240.48
381.69	2252.77
381.90	2445.27
382.12	2306.01
382.33	2260.96
382.54	2271.20
382.76	2289.63
382.97	2367.45
383.19	2215.90
383.40	2330.59
383.61	2193.37
383.83	2318.30
384.04	2236.38
384.25	2303.96
384.47	2445.27
384.68	2437.08
384.89	2263.01
385.11	2267.10
385.32	2320.35
385.54	2404.32
385.75	2318.30
385.96	2408.41
386.18	2463.71
386.39	2355.16
386.60	2367.45
386.82	2392.03
387.03	2404.32
387.24	2541.53
387.46	2471.90
387.67	2467.80
387.88	2445.27
388.10	2447.32
388.31	2363.36
388.52	2531.29
388.74	2416.60
388.95	2478.04
389.16	2508.76
389.38	2467.80
389.59	2600.92
389.80	2527.19
390.02	2662.36
390.23	2676.70
390.44	2555.86
390.66	2584.54
390.87	2559.96
391.08	2584.54
391.30	2727.89
391.51	2535.39
391.72	2633.69
391.94	2590.68
392.15	2717.65
392.36	2613.21
392.58	2568.15
392.79	2605.02
393.00	2676.70
393.22	2703.32
393.43	2791.38
393.64	2768.85
393.85	2729.94
394.07	2609.11
394.28	2678.74
394.49	2754.52
394.71	2787.29
394.92	2777.05
395.13	2729.94
395.35	2633.69
395.56	2668.50
395.77	2787.29
395.98	2826.20
396.20	2793.43
396.41	2848.72
396.62	2969.55
396.84	2729.94
397.05	2818.00
397.26	2828.24
397.47	2908.12
397.69	2813.91
397.90	3016.66
398.11	2877.40
398.32	2885.59
398.54	2920.40
398.75	2797.53
398.96	2961.36
399.18	2967.51
399.39	2957.27
399.60	2959.31
399.81	2871.25
400.03	2893.78
400.24	3278.80
400.45	2987.99
400.66	3033.04
400.88	3045.33
401.09	3092.43
401.30	3094.48
401.51	3049.43
401.73	3106.77
401.94	3188.69
402.15	3123.15
402.36	3125.20
402.58	3239.89
402.79	3196.88
403.00	3108.82
403.21	3119.06
403.43	3041.23
403.64	3180.50
403.85	3102.67
404.06	3160.02
404.27	3119.06
404.49	3268.56
404.70	3274.70
404.91	3274.70
405.12	3157.97
405.34	3221.45
405.55	3373.00
405.76	3121.10
405.97	3184.59
406.19	3452.88
406.40	3209.17
406.61	3223.50
406.82	3237.84
407.03	3217.36
407.25	3200.98
407.46	3442.64
407.67	3405.77
407.88	3461.07
408.09	3274.70
408.31	3317.71
408.52	3477.45
408.73	3399.63
408.94	3379.15
409.15	3379.15
409.37	3538.89
409.58	3536.84
409.79	3524.55
410.00	3604.42
410.21	3389.39
410.43	3514.31
410.64	3444.68
410.85	3442.64
411.06	3647.43
411.27	3559.37
411.48	3508.17
411.70	3532.75
411.91	3481.55
412.12	3555.27
412.33	3669.96
412.54	3571.66
412.76	3620.81
412.97	3661.77
413.18	3506.12
413.39	3565.51
413.60	3475.40
413.81	3653.58
414.03	3524.55
414.24	3622.86
414.45	3788.74
414.66	3516.36
414.87	3688.39
415.08	3661.77
415.30	3747.78
415.51	3694.54
415.72	3592.14
415.93	3702.73
416.14	3813.32
416.35	3706.82
416.56	3688.39
416.78	3872.71
416.99	3807.17
417.20	3880.90
417.41	3909.57
417.62	3870.66
417.83	3872.71
418.04	3856.33
418.26	3960.77
418.47	3827.65
418.68	4011.97
418.89	4001.73
419.10	4204.48
419.31	3964.87
419.52	3997.64
419.73	3960.77
419.95	4151.23
420.16	3971.01
420.37	4050.88
420.58	4138.94
420.79	3968.96
421.00	4054.98
421.21	4104.13
421.42	4059.07
421.63	3956.68
421.85	4030.40
422.06	4196.29
422.27	4210.62
422.48	4167.62
422.69	4255.68
422.90	4106.18
423.11	4169.66
423.32	4255.68
423.53	4284.35
423.75	4292.54
423.96	4405.18
424.17	4319.17
424.38	4388.80
424.59	4378.56
424.80	4562.87
425.01	4376.51
425.22	4403.13
425.43	4431.80
425.64	4636.60
425.85	4495.29
426.06	4509.63
426.28	4597.69
426.49	4517.82
426.70	4483.00
426.91	4599.74
427.12	4673.46
427.33	4589.50
427.54	4618.17
427.75	4626.36
427.96	4835.25
428.17	4702.14
428.38	4689.85
428.59	4771.77
428.80	4607.93
429.01	4769.72
429.23	4919.22
429.44	4876.21
429.65	4808.63
429.86	4913.08
430.07	4882.36
430.28	4956.08
430.49	5035.96
430.70	5214.13
430.91	4995.00
431.12	5029.81
431.33	5091.25
431.54	4986.80
431.75	5089.20
431.96	5064.63
432.17	5154.74
432.38	5150.64
432.59	5341.10
432.80	5279.66
433.01	5345.20
433.22	5222.32
433.43	5259.18
433.64	5121.97
433.85	5167.03
434.06	5216.18
434.27	5298.10
434.49	5451.69
434.70	5533.61
434.91	5343.15
435.12	5377.97
435.33	5425.07
435.54	5396.40
435.75	5124.02
435.96	5435.31
436.17	5488.56
436.38	5451.69
436.59	5615.53
436.80	5484.46
437.01	5693.35
437.22	5627.82
437.43	5617.58
437.64	5406.64
437.85	5758.89
438.06	5803.94
438.27	5650.35
438.48	5728.17
438.69	5738.41
438.90	5740.46
439.11	5746.60
439.32	5910.44
439.53	5814.18
439.74	5904.29
439.95	5910.44
440.16	5738.41
440.37	5855.14
440.57	5857.19
440.78	5853.09
440.99	6074.28
441.20	6090.66
441.41	5685.16
441.62	5920.68
441.83	5857.19
442.04	5992.36
442.25	6025.12
442.46	5986.21
442.67	6215.59
442.88	6541.21
443.09	5939.11
443.30	6100.90
443.51	6164.39
443.72	6471.58
443.93	5926.82
444.14	6367.13
444.35	6119.33
444.56	6240.16
444.77	6328.22
444.98	6322.08
445.19	6363.04
445.40	6242.21
445.61	6416.29
445.81	6453.15
446.02	6596.51
446.23	6227.87
446.44	6342.56
446.65	6473.63
446.86	6373.28
447.07	6561.69
447.28	6576.03
447.49	6653.85
447.70	6545.31
447.91	6666.14
448.12	6616.99
448.33	6719.39
448.54	6832.02
448.74	6645.66
448.95	6588.32
449.16	6703.00
449.37	6907.80
449.58	6758.30
449.79	6872.98
450.00	6836.12
450.21	6991.77
450.42	6746.01
450.63	6793.11
450.84	7014.29
451.05	6948.76
451.25	6817.69
451.46	6969.24
451.67	7028.63
451.88	7088.02
452.09	7028.63
452.30	7137.17
452.51	7163.79
452.72	7167.89
452.93	7528.33
453.13	6938.52
453.34	7251.86
453.55	7264.15
453.76	7317.39
453.97	7569.29
454.18	7413.65
454.39	7432.08
454.60	7395.22
454.81	7360.40
455.01	7669.64
455.22	7237.52
455.43	7475.09
455.64	7626.64
455.85	7876.49
456.06	7896.97
456.27	7769.99
456.48	7720.84
456.68	7729.03
456.89	7815.05
457.10	7917.45
457.31	7929.74
457.52	7817.10
457.73	8130.44
457.94	8155.01
458.14	7923.59
458.35	8368.00
458.56	8122.24
458.77	8134.53
458.98	8353.66
459.19	8230.79
459.39	8308.61
459.60	8613.76
459.81	8304.51
460.02	8578.94
460.23	8357.76
460.44	8546.17
460.65	8628.09
460.85	8662.91
461.06	8642.43
461.27	8488.83
461.48	8957.82
461.69	8865.66
461.89	8474.49
462.10	8972.15
462.31	8671.10
462.52	8593.28
462.73	8851.32
462.94	9066.36
463.14	8941.43
463.35	8963.96
463.56	9521.01
463.77	9543.53
463.98	9176.95
464.18	9156.47
464.39	9338.74
464.60	9645.93
464.81	9518.96
465.02	9363.31
465.23	9766.76
465.43	9469.81
465.64	9688.94
465.85	9619.31
466.06	9588.59
466.27	10086.25
466.47	9932.65
466.68	9936.74
466.89	9838.44
467.10	10061.67
467.30	10030.95
467.51	10112.87
467.72	10338.15
467.93	10168.16
468.14	10332.00
468.34	10450.78
468.55	10366.82
468.76	10332.00
468.97	10321.76
469.17	10487.65
469.38	10889.05
469.59	10940.25
469.80	10819.42
470.01	10821.47
470.21	10592.09
470.42	11118.42
470.63	11120.47
470.84	11052.89
471.04	11220.82
471.25	11134.81
471.46	11218.77
471.67	11558.74
471.87	11439.95
472.08	11407.19
472.29	11642.70
472.50	11403.09
472.70	11564.88
472.91	11773.77
473.12	11976.52
473.33	11935.56
473.53	12197.70
473.74	11931.47
473.95	12021.58
474.16	12644.16
474.36	12238.66
474.57	12392.26
474.78	12373.83
474.99	12455.75
475.19	12324.68
475.40	12838.72
475.61	12672.83
475.81	12875.58
476.02	13193.01
476.23	13143.86
476.44	13061.94
476.64	13475.63
476.85	13459.25
477.06	13213.49
477.27	13852.46
477.47	13741.87
477.68	13782.83
477.89	13592.37
478.09	13821.74
478.30	13922.09
478.51	14038.83
478.71	13971.24
478.92	14081.83
479.13	14221.10
479.34	14354.21
479.54	14470.95
479.75	14606.11
479.96	14620.45
480.16	14466.85
480.37	14821.15
480.58	14864.16
480.78	15200.02
480.99	14972.70
481.20	15191.83
481.41	15232.79
481.61	15351.57
481.82	15560.47
482.03	15341.33
482.23	15390.49
482.44	15603.47
482.65	15695.63
482.85	16000.78
483.06	15693.58
483.27	16103.18
483.47	16092.94
483.68	16215.82
483.89	16387.85
484.09	16465.67
484.30	16463.62
484.51	16666.37
484.71	16748.29
484.92	16760.58
485.13	16940.80
485.33	17166.07
485.54	16971.52
485.75	17231.61
485.95	17370.87
486.16	17403.64
486.37	17348.34
486.57	17393.40
486.78	17622.77
486.98	17780.46
487.19	17551.09
487.40	17901.29
487.60	17925.87
487.81	17997.55
488.02	17751.79
488.22	18081.52
488.43	18355.94
488.64	18116.33
488.84	18437.86
489.05	18831.07
489.25	18613.99
489.46	18902.75
489.67	18761.44
489.87	19115.74
490.08	19195.61
490.29	19326.68
490.49	19314.39
490.70	19447.51
490.90	19291.87
491.11	19392.22
491.32	19549.91
491.52	19379.93
491.73	19893.97
491.94	19787.47
492.14	19887.82
492.35	19898.06
492.55	20276.94
492.76	20297.42
492.97	20147.92
493.17	20405.96
493.38	20602.57
493.58	20555.46
493.79	20489.93
494.00	20436.68
494.20	20647.62
494.41	20788.93
494.61	21069.50
494.82	20895.43
495.02	20864.71
495.23	21040.83
495.44	20829.89
495.64	21206.72
495.85	21280.44
496.05	21601.97
496.26	21552.82
496.47	21685.94
496.67	21534.39
496.88	21851.83
497.08	21751.48
497.29	22085.30
497.49	21882.55
497.70	21741.24
497.91	22286.00
498.11	21954.22
498.32	22564.52
498.52	22318.76
498.73	22595.24
498.93	22679.21
499.14	22746.79
499.34	22728.36
499.55	22922.91
499.76	23033.50
499.96	22902.43
500.17	22935.20
500.37	23115.42
500.58	23180.96
500.78	23021.22
500.99	23133.86
501.19	23457.43
501.40	23592.60
501.60	23533.21
501.81	23664.28
502.02	23576.22
502.22	23633.56
502.43	23887.51
502.63	24110.74
502.84	24145.55
503.04	24120.98
503.25	24002.19
503.45	24100.50
503.66	24409.74
503.86	24256.14
504.07	24512.14
504.27	24356.49
504.48	24772.23
504.68	24505.99
504.89	25058.95
505.09	24897.16
505.30	24571.53
505.50	24772.23
505.71	24755.85
505.91	24723.08
506.12	24802.95
506.32	25243.26
506.53	24985.22
506.73	25214.59
506.94	25706.10
507.14	25620.09
507.35	25331.33
507.55	25372.28
507.76	25431.68
507.96	25421.44
508.17	25593.47
508.37	25394.81
508.58	25785.97
508.78	25927.28
508.99	26150.51
509.19	25890.42
509.40	25962.10
509.60	25972.34
509.81	25912.95
510.01	26119.79
510.22	26279.54
510.42	25980.53
510.63	26136.18
510.83	26490.48
511.04	26377.84
511.24	26599.02
511.44	26478.19
511.65	26414.70
511.85	26443.37
512.06	26795.62
512.26	26787.43
512.47	26799.72
512.67	26996.32
512.88	27088.48
513.08	26515.05
513.29	26744.42
513.49	27041.38
513.69	26959.46
513.90	27350.62
514.10	26936.93
514.31	27498.08
514.51	27453.02
514.72	27410.01
514.92	27221.60
515.13	27444.83
515.33	27477.60
515.53	27500.12
515.74	27500.12
515.94	27645.53
516.15	27872.85
516.35	27965.01
516.56	27807.32
516.76	27835.99
516.96	27774.55
517.17	28079.70
517.37	28032.60
517.58	28063.32
517.78	28503.63
517.99	28126.80
518.19	28444.24
518.39	28427.85
518.60	28825.16
518.80	28495.44
519.01	28712.52
519.21	28790.34
519.41	28808.78
519.62	28884.55
519.82	28845.64
520.03	28853.83
520.23	29001.29
520.43	28943.94
520.64	28890.70
520.84	29310.53
521.05	29070.92
521.25	29136.45
521.45	29556.28
521.66	29673.02
521.86	29402.69
522.07	29576.76
522.27	29765.18
522.47	29560.38
522.68	30021.17
522.88	29810.23
523.08	30160.44
523.29	30066.23
523.49	30185.01
523.70	29949.50
523.90	30414.38
524.10	29978.17
524.31	30410.29
524.51	30586.41
524.71	30953.00
524.92	30678.57
525.12	30991.91
525.33	30686.76
525.53	30975.53
525.73	30787.11
525.94	30987.82
526.14	31133.22
526.34	31485.47
526.55	31360.55
526.75	31360.55
526.95	31647.26
527.16	31512.10
527.36	31714.84
527.56	31704.60
527.77	31872.54
527.97	32087.57
528.17	32011.80
528.38	32421.39
528.58	32263.70
528.78	32060.95
528.99	31997.46
529.19	32177.68
529.39	31964.70
529.60	32755.21
529.80	32769.55
530.00	32464.40
530.21	33136.13
530.41	32704.01
530.61	32968.20
530.82	33234.44
531.02	32771.60
531.22	33285.64
531.43	33498.62
531.63	33676.80
531.83	33775.10
532.04	34020.86
532.24	33408.51
532.44	34229.75
532.64	33877.50
532.85	33951.23
533.05	34229.75
533.25	34293.24
533.46	33990.14
533.66	34430.45
533.86	34559.47
534.07	34495.99
534.27	34487.79
534.47	34844.14
534.67	34637.30
534.88	34817.52
535.08	34754.03
535.28	35266.02
535.49	35263.97
535.69	35853.79
535.89	35444.20
536.09	35530.21
536.30	35669.47
536.50	35493.35
536.70	35859.93
536.91	35943.90
537.11	35765.73
537.31	36185.56
537.51	36101.59
537.72	36597.20
537.92	36087.26
538.12	36177.37
538.32	36431.32
538.53	36390.36
538.73	36091.35
538.93	36615.63
539.13	37168.58
539.34	36640.21
539.54	36773.33
539.74	37225.93
539.94	36816.33
540.15	36857.29
540.35	37363.14
540.55	37088.71
540.75	37305.80
540.96	37189.06
541.16	37303.75
541.36	37291.46
541.56	37465.54
541.77	37739.97
541.97	37950.91
542.17	38020.54
542.37	38059.45
542.58	37934.53
542.78	37844.41
542.98	37803.46
543.18	38258.10
543.38	38657.46
543.59	38276.54
543.79	38419.89
543.99	38393.27
544.19	38372.79
544.40	38294.97
544.60	38942.13
544.80	38542.77
545.00	38888.88
545.20	38671.79
545.41	38794.67
545.61	38995.37
545.81	39054.76
546.01	39478.69
546.21	39339.43
546.42	39493.03
546.62	39468.45
546.82	39394.73
547.02	39574.95
547.22	39171.50
547.43	39941.53
547.63	39706.02
547.83	39955.87
548.03	39546.28
548.23	39699.87
548.44	40351.13
548.64	39830.94
548.84	39828.90
549.04	39800.22
549.24	40347.03
549.45	40228.25
549.65	39810.46
549.85	40439.19
550.05	40572.31
550.25	40211.87
550.45	40514.97
550.66	40502.68
550.86	40164.76
551.06	40566.16
551.26	40764.82
551.46	40768.91
551.66	40621.46
551.87	41166.22
552.07	40668.56
552.27	40899.98
552.47	40846.74
552.67	41198.99
552.87	40949.14
553.07	40695.19
553.28	41328.01
553.48	41340.30
553.68	40934.80
553.88	41559.43
554.08	41418.12
554.28	41489.80
554.48	41545.09
554.69	41121.16
554.89	41465.22
555.09	41835.91
555.29	41395.59
555.49	41844.10
555.69	41608.58
555.89	41489.80
556.10	42112.38
556.30	41536.90
556.50	42024.32
556.70	41860.48
556.90	42296.70
557.10	42251.64
557.30	41751.94
557.50	42534.26
557.70	42067.33
557.91	42509.69
558.11	42337.66
558.31	42564.98
558.51	41969.02
558.71	42452.34
558.91	42653.05
559.11	42411.38
559.31	42730.87
559.51	42247.55
559.72	42202.49
559.92	42696.05
560.12	42534.26
560.32	42622.33
560.52	42648.95
560.72	42704.24
560.92	43228.52
561.12	42698.10
561.32	43267.44
561.52	42870.13
561.72	43193.71
561.93	42849.65
562.13	42995.06
562.33	43036.02
562.53	43165.04
562.73	43185.52
562.93	43298.16
563.13	43294.06
563.33	43330.92
563.53	43068.78
563.73	42800.50
563.93	43509.10
564.13	44117.34
564.33	43455.85
564.53	43570.54
564.74	43636.07
564.94	43801.96
565.14	43615.59
565.34	43238.76
565.54	44107.10
565.74	43490.66
565.94	44021.09
566.14	43820.39
566.34	43208.04
566.54	44240.22
566.74	43734.37
566.94	44008.80
567.14	44129.63
567.34	43697.51
567.54	44148.06
567.74	43967.84
567.94	43615.59
568.14	44162.40
568.34	44434.78
568.54	44129.63
568.74	44914.00
568.94	44295.52
569.14	44578.14
569.34	44602.71
569.54	44447.07
569.75	44035.42
569.95	44350.81
570.15	44940.63
570.35	44356.96
570.55	44539.22
570.75	44488.03
570.95	44565.85
571.15	44727.64
571.35	44711.25
571.55	45118.80
571.75	44756.31
571.95	45229.39
572.15	45079.89
572.35	45219.15
572.55	45100.37
572.75	45159.76
572.95	44950.87
573.15	45129.04
573.35	45198.67
573.55	45276.49
573.75	45389.13
573.95	45419.85
574.15	45290.83
574.35	45425.99
574.55	45264.21
574.75	45552.97
574.95	45802.82
575.15	45413.71
575.34	45927.75
575.54	45790.53
575.74	45866.31
575.94	45923.65
576.14	45655.37
576.34	46036.29
576.54	46333.24
576.74	46085.44
576.94	46136.64
577.14	46570.81
577.34	46470.46
577.54	46210.37
577.74	45966.66
577.94	46187.84
578.14	46363.96
578.34	46431.55
578.54	45856.07
578.74	46048.58
578.94	46593.34
579.14	46329.15
579.34	46523.71
579.54	46445.88
579.74	46931.25
579.94	46589.24
580.13	47207.73
580.33	47269.17
580.53	46906.68
580.73	47299.89
580.93	47416.62
581.13	47070.51
581.33	47109.43
581.53	47555.88
581.73	47535.40
581.93	47293.74
582.13	47494.44
582.33	47457.58
582.53	47789.35
582.73	47555.88
582.92	47457.58
583.12	47932.71
583.32	47664.42
583.52	47263.02
583.72	48139.55
583.92	47983.91
584.12	48035.11
584.32	48186.66
584.52	47940.90
584.72	48092.45
584.92	48186.66
585.11	48303.39
585.31	48205.09
585.51	48532.76
585.71	48129.31
585.91	48698.65
586.11	48358.69
586.31	48581.91
586.51	48667.93
586.71	48829.72
586.91	48862.49
587.10	49161.49
587.30	48686.36
587.50	48823.58
587.70	48891.16
587.90	48932.12
588.10	49302.80
588.30	49145.11
588.50	49141.01
