SpectraSuite Data File
++++++++++++++++++++++++++++++++++++
Date: Fri Jun 02 14:51:06 CEST 2017
User: INFO_000
Dark Spectrum Present: No
Reference Spectrum Present: No
Number of Sampled Component Spectra: 1
Spectrometers: USB4H00879
Integration Time (usec): 80000 (USB4H00879)
Spectra Averaged: 1 (USB4H00879)
Boxcar Smoothing: 0 (USB4H00879)
Correct for Electrical Dark: No (USB4H00879)
Strobe/Lamp Enabled: No (USB4H00879)
Correct for Detector Non-linearity: No (USB4H00879)
Correct for Stray Light: No (USB4H00879)
Number of Pixels in Processed Spectrum: 3648
>>>>>Begin Processed Spectral Data<<<<<
345.13	1279.98
345.34	1279.98
345.56	1279.98
345.78	1251.31
345.99	1239.02
346.21	1708.01
346.42	1656.81
346.64	1673.19
346.86	1794.02
347.07	1652.71
347.29	1732.58
347.50	1648.61
347.72	1658.85
347.94	1771.49
348.15	1591.27
348.37	1583.08
348.59	1716.20
348.80	1607.66
349.02	1708.01
349.23	1767.40
349.45	1736.68
349.67	1871.84
349.88	1732.58
350.10	1880.04
350.31	1734.63
350.53	1697.77
350.75	1910.75
350.96	1777.64
351.18	1751.01
351.39	1779.68
351.61	1720.29
351.82	1918.95
352.04	1834.98
352.26	1822.69
352.47	1722.34
352.69	1855.46
352.90	1646.57
353.12	1800.16
353.34	1736.68
353.55	1884.13
353.77	1826.79
353.98	1738.73
354.20	1755.11
354.41	1806.31
354.63	1812.45
354.85	1990.63
355.06	1828.84
355.28	1626.09
355.49	1818.60
355.71	1753.06
355.92	1779.68
356.14	1834.98
356.35	1714.15
356.57	1761.25
356.79	1871.84
357.00	1724.39
357.22	1900.52
357.43	1697.77
357.65	1871.84
357.86	1755.11
358.08	1777.64
358.29	1763.30
358.51	1834.98
358.72	1845.22
358.94	1847.27
359.16	1834.98
359.37	1779.68
359.59	1738.73
359.80	1867.75
360.02	1884.13
360.23	1867.75
360.45	1859.56
360.66	1851.36
360.88	1738.73
361.09	1841.12
361.31	1863.65
361.52	1804.26
361.74	1890.28
361.95	1957.86
362.17	1812.45
362.38	1982.43
362.60	1814.50
362.81	1789.92
363.03	1857.51
363.24	1861.60
363.46	1910.75
363.67	1841.12
363.89	1785.83
364.10	1925.09
364.32	1802.21
364.53	1859.56
364.75	1773.54
364.96	1841.12
365.18	1943.52
365.39	1886.18
365.61	1822.69
365.82	2021.35
366.04	1949.67
366.25	1718.25
366.47	1927.14
366.68	1923.04
366.90	1859.56
367.11	1920.99
367.33	1900.52
367.54	1953.76
367.76	1863.65
367.97	2019.30
368.19	1974.24
368.40	1943.52
368.62	1843.17
368.83	1765.35
369.05	1880.04
369.26	1794.02
369.48	1806.31
369.69	1869.80
369.91	1890.28
370.12	1781.73
370.33	1896.42
370.55	1720.29
370.76	1869.80
370.98	1955.81
371.19	1976.29
371.41	1818.60
371.62	1925.09
371.84	1832.93
372.05	2011.11
372.27	1925.09
372.48	1939.43
372.69	1964.00
372.91	2054.11
373.12	1972.19
373.34	1841.12
373.55	2019.30
373.77	1937.38
373.98	1910.75
374.20	2086.88
374.41	2150.37
374.62	2002.91
374.84	2058.21
375.05	1976.29
375.27	2045.92
375.48	2023.39
375.70	2041.82
375.91	2086.88
376.12	2148.32
376.34	2025.44
376.55	1923.04
376.77	2131.94
376.98	2043.87
377.19	2068.45
377.41	2054.11
377.62	2156.51
377.84	2174.94
378.05	2156.51
378.27	2127.84
378.48	2095.07
378.69	2224.09
378.91	2238.43
379.12	2170.85
379.34	2011.11
379.55	2129.89
379.76	2129.89
379.98	2197.47
380.19	2146.27
380.41	2138.08
380.62	2183.13
380.83	2121.70
381.05	2007.01
381.26	2256.86
381.47	2041.82
381.69	2136.03
381.90	2295.77
382.12	2154.46
382.33	2142.18
382.54	2183.13
382.76	2217.95
382.97	2174.94
383.19	2119.65
383.40	2295.77
383.61	2150.37
383.83	2168.80
384.04	2187.23
384.25	2230.24
384.47	2220.00
384.68	2226.14
384.89	2232.29
385.11	2267.10
385.32	2244.57
385.54	2240.48
385.75	2222.05
385.96	2355.16
386.18	2254.81
386.39	2316.25
386.60	2306.01
386.82	2387.93
387.03	2289.63
387.24	2443.23
387.46	2367.45
387.67	2445.27
387.88	2439.13
388.10	2392.03
388.31	2410.46
388.52	2478.04
388.74	2486.23
388.95	2492.38
389.16	2342.88
389.38	2412.51
389.59	2461.66
389.80	2523.10
390.02	2492.38
390.23	2535.39
390.44	2428.89
390.66	2510.81
390.87	2353.12
391.08	2521.05
391.30	2613.21
391.51	2496.47
391.72	2584.54
391.94	2512.86
392.15	2607.06
392.36	2494.43
392.58	2488.28
392.79	2574.30
393.00	2662.36
393.22	2645.98
393.43	2641.88
393.64	2650.07
393.85	2697.17
394.07	2543.58
394.28	2580.44
394.49	2717.65
394.71	2594.78
394.92	2717.65
395.13	2588.63
395.35	2639.83
395.56	2605.02
395.77	2678.74
395.98	2764.76
396.20	2783.19
396.41	2871.25
396.62	2824.15
396.84	2826.20
397.05	2752.47
397.26	2752.47
397.47	2836.44
397.69	2746.33
397.90	2897.88
398.11	2842.58
398.32	2758.61
398.54	2836.44
398.75	2908.12
398.96	2889.68
399.18	3004.37
399.39	2856.92
399.60	3006.42
399.81	2846.68
400.03	2879.44
400.24	3190.74
400.45	2930.64
400.66	3016.66
400.88	2926.55
401.09	3168.21
401.30	3028.95
401.51	3094.48
401.73	3086.29
401.94	3049.43
402.15	2957.27
402.36	3006.42
402.58	3063.76
402.79	3108.82
403.00	2994.13
403.21	3123.15
403.43	3092.43
403.64	3127.25
403.85	3059.67
404.06	3215.31
404.27	2957.27
404.49	3033.04
404.70	3010.51
404.91	3246.03
405.12	3182.54
405.34	3094.48
405.55	3436.49
405.76	3088.34
405.97	3112.91
406.19	3313.61
406.40	3145.68
406.61	3188.69
406.82	3215.31
407.03	3139.54
407.25	3278.80
407.46	3405.77
407.67	3397.58
407.88	3297.23
408.09	3272.65
408.31	3246.03
408.52	3452.88
408.73	3311.57
408.94	3282.89
409.15	3362.76
409.37	3485.64
409.58	3436.49
409.79	3456.97
410.00	3463.12
410.21	3456.97
410.43	3395.53
410.64	3248.08
410.85	3485.64
411.06	3452.88
411.27	3499.98
411.48	3442.64
411.70	3485.64
411.91	3375.05
412.12	3565.51
412.33	3512.27
412.54	3381.20
412.76	3721.16
412.97	3657.67
413.18	3487.69
413.39	3633.10
413.60	3645.38
413.81	3465.16
414.03	3561.42
414.24	3604.42
414.45	3674.06
414.66	3514.31
414.87	3680.20
415.08	3512.27
415.30	3655.62
415.51	3749.83
415.72	3690.44
415.93	3590.09
416.14	3710.92
416.35	3733.45
416.56	3719.11
416.78	3792.84
416.99	3755.97
417.20	3788.74
417.41	3856.33
417.62	3909.57
417.83	3839.94
418.04	3762.12
418.26	3854.28
418.47	3723.21
418.68	3940.29
418.89	3770.31
419.10	4005.83
419.31	3919.81
419.52	4005.83
419.73	3854.28
419.95	3940.29
420.16	3854.28
420.37	3917.76
420.58	4007.87
420.79	3868.61
421.00	3975.11
421.21	4001.73
421.42	4024.26
421.63	4202.43
421.85	3919.81
422.06	4073.41
422.27	4022.21
422.48	4114.37
422.69	4177.86
422.90	4212.67
423.11	4102.08
423.32	4169.66
423.53	4114.37
423.75	4181.95
423.96	4313.02
424.17	4413.37
424.38	4274.11
424.59	4358.08
424.80	4427.71
425.01	4298.69
425.22	4249.54
425.43	4237.25
425.64	4513.72
425.85	4444.09
426.06	4528.06
426.28	4462.52
426.49	4501.44
426.70	4431.80
426.91	4478.91
427.12	4554.68
427.33	4501.44
427.54	4466.62
427.75	4671.42
427.96	4511.68
428.17	4671.42
428.38	4677.56
428.59	4816.82
428.80	4483.00
429.01	4706.23
429.23	4609.98
429.44	4786.10
429.65	4863.93
429.86	4927.41
430.07	4722.62
430.28	4829.11
430.49	4681.66
430.70	4898.74
430.91	4915.12
431.12	4745.14
431.33	5029.81
431.54	4990.90
431.75	5046.20
431.96	4880.31
432.17	4829.11
432.38	4888.50
432.59	5197.74
432.80	5130.16
433.01	5124.02
433.22	5105.59
433.43	5076.91
433.64	5162.93
433.85	5091.25
434.06	5232.56
434.27	5087.15
434.49	5232.56
434.70	5341.10
434.91	5259.18
435.12	5306.29
435.33	5314.48
435.54	5414.83
435.75	5148.59
435.96	5304.24
436.17	5132.21
436.38	5480.36
436.59	5642.15
436.80	5322.67
437.01	5689.26
437.22	5625.77
437.43	5463.98
437.64	5353.39
437.85	5588.91
438.06	5459.88
438.27	5414.83
438.48	5488.56
438.69	5552.04
438.90	5627.82
439.11	5509.04
439.32	5738.41
439.53	5586.86
439.74	5621.67
439.95	5730.22
440.16	5699.50
440.37	5711.78
440.57	5554.09
440.78	5756.84
440.99	5992.36
441.20	5742.50
441.41	5574.57
441.62	5722.02
441.83	5654.44
442.04	5959.59
442.25	5812.14
442.46	5803.94
442.67	5988.26
442.88	6305.70
443.09	5758.89
443.30	6010.79
443.51	6002.60
443.72	6102.95
443.93	5973.92
444.14	6258.59
444.35	5842.85
444.56	6176.67
444.77	6104.99
444.98	6229.92
445.19	6295.46
445.40	6281.12
445.61	6191.01
445.81	6252.45
446.02	6379.42
446.23	6168.48
446.44	6139.81
446.65	6311.84
446.86	6342.56
447.07	6416.29
447.28	6451.10
447.49	6414.24
447.70	6469.53
447.91	6500.25
448.12	6354.85
448.33	6657.95
448.54	6625.18
448.74	6504.35
448.95	6561.69
449.16	6473.63
449.37	6752.15
449.58	6549.40
449.79	6739.87
450.00	6600.60
450.21	6717.34
450.42	6840.22
450.63	6938.52
450.84	6782.87
451.05	6586.27
451.25	6721.43
451.46	6664.09
451.67	6918.04
451.88	6883.22
452.09	6924.18
452.30	6809.50
452.51	6973.33
452.72	7053.20
452.93	7194.51
453.13	6952.85
453.34	7116.69
453.55	7075.73
453.76	7223.19
453.97	7376.78
454.18	7126.93
454.39	7354.26
454.60	7118.74
454.81	7296.91
455.01	7403.41
455.22	7260.05
455.43	7317.39
455.64	7526.29
455.85	7829.38
456.06	7722.89
456.27	7518.09
456.48	7778.19
456.68	7636.88
456.89	7735.18
457.10	7692.17
457.31	7864.20
457.52	7769.99
457.73	7745.42
457.94	8118.15
458.14	7745.42
458.35	8079.24
458.56	7980.93
458.77	7872.39
458.98	8130.44
459.19	8054.66
459.39	8216.45
459.60	8232.83
459.81	8310.66
460.02	8505.21
460.23	8126.34
460.44	8548.22
460.65	8501.12
460.85	8505.21
461.06	8589.18
461.27	8275.84
461.48	8744.83
461.69	8658.81
461.89	8185.73
462.10	8619.90
462.31	8396.67
462.52	8683.39
462.73	8839.03
462.94	8966.01
463.14	8787.83
463.35	8685.44
463.56	9283.44
463.77	9199.48
463.98	8814.46
464.18	8935.29
464.39	9215.86
464.60	9269.11
464.81	9119.60
465.02	9146.23
465.23	9629.55
465.43	9379.70
465.64	9582.45
465.85	9621.36
466.06	9551.73
466.27	9736.04
466.47	9545.58
466.68	9805.67
466.89	9523.05
467.10	9856.87
467.30	9523.05
467.51	9760.62
467.72	10110.82
467.93	9766.76
468.14	10039.14
468.34	10096.49
468.55	10100.58
468.76	10241.89
468.97	10073.96
469.17	10403.68
469.38	10430.30
469.59	10602.33
469.80	10274.66
470.01	10305.38
470.21	10522.46
470.42	10727.26
470.63	10714.97
470.84	10774.36
471.04	10919.77
471.25	10917.72
471.46	10837.85
471.67	11233.11
471.87	11212.63
472.08	11138.90
472.29	11491.15
472.50	10874.71
472.70	11241.30
472.91	11259.73
473.12	11595.60
473.33	11452.24
473.53	11513.68
473.74	11716.43
473.95	11820.88
474.16	11937.61
474.36	11736.91
474.57	12203.85
474.78	12240.71
474.99	12017.48
475.19	11978.57
475.40	12316.48
475.61	12367.68
475.81	12496.71
476.02	12683.07
476.23	12482.37
476.44	12707.65
476.64	12953.40
476.85	13098.81
477.06	12990.27
477.27	13190.97
477.47	13283.13
477.68	13078.33
477.89	13285.17
478.09	13266.74
478.30	13418.29
478.51	13352.76
478.71	13549.36
478.92	13676.34
479.13	13993.77
479.34	13797.17
479.54	13831.98
479.75	13944.62
479.96	13893.42
480.16	14073.64
480.37	14122.79
480.58	14339.88
480.78	14536.48
480.99	14487.33
481.20	14618.40
481.41	14524.19
481.61	14847.77
481.82	14868.25
482.03	14862.11
482.23	15087.39
482.44	15109.91
482.65	15359.77
482.85	15267.61
483.06	15464.21
483.27	15574.80
483.47	15376.15
483.68	15585.04
483.89	15757.07
484.09	15763.22
484.30	15709.97
484.51	16107.27
484.71	15931.15
484.92	16119.56
485.13	16373.51
485.33	16324.36
485.54	16297.74
485.75	16344.84
485.95	16688.90
486.16	16963.33
486.37	16699.14
486.57	16721.66
486.78	16842.50
486.98	16795.39
487.19	17147.64
487.40	17153.79
487.60	17450.74
487.81	17452.79
488.02	17016.57
488.22	17491.70
488.43	17516.28
488.64	17667.83
488.84	17725.17
489.05	17972.97
489.25	17833.71
489.46	18095.85
489.67	18040.56
489.87	18331.37
490.08	18194.15
490.29	18613.99
490.49	18740.96
490.70	18722.53
490.90	18710.24
491.11	18912.99
491.32	18751.20
491.52	18884.32
491.73	18869.98
491.94	19003.10
492.14	19029.73
492.35	19572.44
492.55	19607.25
492.76	19349.21
492.97	19556.05
493.17	19574.49
493.38	19883.73
493.58	19924.69
493.79	20086.48
494.00	19771.09
494.20	19953.36
494.41	20352.71
494.61	20235.98
494.82	20391.62
495.02	20207.31
495.23	20262.60
495.44	20569.80
495.64	20651.72
495.85	20717.25
496.05	20848.32
496.26	20704.96
496.47	20872.90
496.67	21141.18
496.88	21202.62
497.08	21055.17
497.29	21429.94
497.49	21046.97
497.70	21300.92
497.91	21520.06
498.11	21677.75
498.32	21706.42
498.52	22118.06
498.73	21946.03
498.93	22097.58
499.14	21905.07
499.34	22044.34
499.55	22460.07
499.76	22185.65
499.96	22269.61
500.17	22400.68
500.37	22445.74
500.58	22380.20
500.78	22554.28
500.99	22935.20
501.19	22916.77
501.40	22769.32
501.60	22642.34
501.81	22984.35
502.02	23088.80
502.22	22742.69
502.43	23291.55
502.63	23367.32
502.84	23426.71
503.04	23342.75
503.25	23142.05
503.45	23627.42
503.66	23654.04
503.86	23670.42
504.07	24026.77
504.27	23549.59
504.48	24157.84
504.68	24018.58
504.89	24329.87
505.09	23938.71
505.30	24141.46
505.50	24055.44
505.71	24157.84
505.91	24426.12
506.12	24176.27
506.32	24479.37
506.53	24419.98
506.73	24428.17
506.94	24901.25
507.14	24686.22
507.35	24800.90
507.55	25089.67
507.76	24989.31
507.96	24925.83
508.17	25009.79
508.37	24911.49
508.58	25124.48
508.78	25202.30
508.99	25472.64
509.19	25429.63
509.40	25517.69
509.60	25060.99
509.81	25910.90
510.01	25466.49
510.22	25593.47
510.42	25734.78
510.63	25706.10
510.83	25599.61
511.04	25980.53
511.24	26134.13
511.44	25800.31
511.65	26304.11
511.85	25912.95
512.06	26142.32
512.26	26259.06
512.47	26637.93
512.67	26150.51
512.88	26580.59
513.08	26177.14
513.29	26422.89
513.49	26191.47
513.69	26332.78
513.90	26668.65
514.10	26609.26
514.31	26977.89
514.51	27025.00
514.72	26658.41
514.92	26701.42
515.13	26637.93
515.33	27076.19
515.53	27217.50
515.74	27178.59
515.94	27391.58
516.15	27125.35
516.35	27090.53
516.56	27248.22
516.76	27149.92
516.96	27387.49
517.17	27164.26
517.37	27276.90
517.58	27225.70
517.78	27432.54
517.99	27508.32
518.19	27792.98
518.39	28104.28
518.60	27901.53
518.80	27881.05
519.01	27973.21
519.21	28085.84
519.41	28171.86
519.62	27760.22
519.82	28178.00
520.03	28202.58
520.23	28227.15
520.43	27938.39
520.64	29197.89
520.84	28710.47
521.05	28778.06
521.25	28585.55
521.45	28587.60
521.66	29023.81
521.86	28786.25
522.07	28614.22
522.27	28812.87
522.47	28956.23
522.68	29140.55
522.88	29148.74
523.08	29357.63
523.29	28847.69
523.49	29212.23
523.70	29277.76
523.90	29615.68
524.10	29269.57
524.31	29666.88
524.51	29138.50
524.71	30025.27
524.92	29627.96
525.12	29924.92
525.33	29875.77
525.53	29992.50
525.73	30178.87
525.94	30295.60
526.14	30209.59
526.34	30283.31
526.55	30516.78
526.75	30551.60
526.95	30955.05
527.16	30271.03
527.36	30776.87
527.56	30920.23
527.77	31319.59
527.97	31106.60
528.17	30780.97
528.38	31299.11
528.58	31049.25
528.78	31374.88
528.99	31016.49
529.19	31434.27
529.39	31036.97
529.60	31725.08
529.80	31295.01
530.00	31591.97
530.21	31544.86
530.41	31870.49
530.61	31839.77
530.82	31933.98
531.02	32022.04
531.22	32159.25
531.43	31997.46
531.63	31987.22
531.83	32491.02
532.04	33064.46
532.24	32013.85
532.44	32683.53
532.64	32642.57
532.85	32847.37
533.05	33218.05
533.25	32960.01
533.46	33093.13
533.66	33357.32
533.86	32945.67
534.07	33439.23
534.27	33203.72
534.47	33527.30
534.67	33400.32
534.88	33445.38
535.08	33826.30
535.28	33836.54
535.49	33775.10
535.69	34117.11
535.89	33889.79
536.09	34133.50
536.30	34428.40
536.50	34491.89
536.70	34426.35
536.91	34348.53
537.11	34395.64
537.31	34565.62
537.51	34747.89
537.72	35173.86
537.92	34917.87
538.12	35089.90
538.32	34600.43
538.53	35210.73
538.73	34958.83
538.93	35182.06
539.13	35100.14
539.34	35481.06
539.54	35102.18
539.74	35290.60
539.94	35057.13
540.15	35632.61
540.35	35861.98
540.55	35522.02
540.75	35630.56
540.96	35941.85
541.16	35993.05
541.36	35933.66
541.56	36181.46
541.77	36441.56
541.97	36380.12
542.17	36277.72
542.37	36644.30
542.58	36304.34
542.78	36281.81
542.98	36380.12
543.18	36529.62
543.38	36787.66
543.59	37062.09
543.79	36869.58
543.99	36957.64
544.19	36890.06
544.40	37115.34
544.60	37277.13
544.80	37213.64
545.00	37270.98
545.20	37373.38
545.41	36877.77
545.61	37416.39
545.81	37707.20
546.01	37825.98
546.21	37180.87
546.42	37152.20
546.62	37758.40
546.82	37586.37
547.02	37608.90
547.22	38139.32
547.43	37885.37
547.63	37971.39
547.83	38059.45
548.03	37877.18
548.23	38276.54
548.44	38303.16
548.64	38057.40
548.84	38428.09
549.04	38172.09
549.24	38368.69
549.45	38559.16
549.65	38464.95
549.85	38675.89
550.05	39073.20
550.25	38802.86
550.45	39120.30
550.66	38985.13
550.86	38686.13
551.06	38819.25
551.26	38882.73
551.46	39384.49
551.66	39065.00
551.87	39009.71
552.07	39105.96
552.27	39003.56
552.47	39613.86
552.67	39478.69
552.87	39228.84
553.07	39341.48
553.28	39286.18
553.48	39699.87
553.68	39429.54
553.88	40127.90
554.08	39609.76
554.28	39583.14
554.48	39617.96
554.69	39538.08
554.89	40072.60
555.09	39953.82
555.29	39992.73
555.49	40088.99
555.69	40312.22
555.89	40142.24
556.10	40248.73
556.30	40127.90
556.50	40197.53
556.70	40191.39
556.90	40533.40
557.10	40566.16
557.30	40596.88
557.50	40936.85
557.70	40908.18
557.91	40738.19
558.11	40609.17
558.31	41231.75
558.51	40852.88
558.71	41035.15
558.91	40994.19
559.11	40891.79
559.31	40545.69
559.51	40502.68
559.72	41057.68
559.92	41102.73
560.12	40781.20
560.32	41190.80
560.52	41000.33
560.72	41293.19
560.92	41655.68
561.12	41393.54
561.32	41774.47
561.52	41352.58
561.72	41753.99
561.93	41377.16
562.13	41495.94
562.33	41069.97
562.53	42671.48
562.73	41323.91
562.93	41852.29
563.13	42061.18
563.33	41686.40
563.53	41895.30
563.73	41409.93
563.93	42032.51
564.13	42476.92
564.33	42448.25
564.53	42268.03
564.74	42218.88
564.94	42259.84
565.14	42382.71
565.34	42272.12
565.54	42481.02
565.74	42478.97
565.94	42407.29
566.14	42538.36
566.34	42777.97
566.54	42755.44
566.74	42464.63
566.94	42616.18
567.14	42726.77
567.34	42636.66
567.54	43398.51
567.74	42749.30
567.94	42730.87
568.14	43040.11
568.34	43271.53
568.54	43017.58
568.74	43269.48
568.94	43281.77
569.14	43584.87
569.34	43464.04
569.54	43541.86
569.75	43218.28
569.95	43627.88
570.15	44033.38
570.35	43717.99
570.55	43670.89
570.75	43701.61
570.95	43662.69
571.15	43476.33
571.35	43679.08
571.55	43820.39
571.75	44019.04
571.95	43967.84
572.15	43865.44
572.35	44201.31
572.55	44041.57
572.75	44328.28
572.95	44004.70
573.15	44150.11
573.35	44078.43
573.55	43902.31
573.75	44262.75
573.95	44344.67
574.15	44186.97
574.35	44565.85
574.55	44424.54
574.75	44457.31
574.95	44907.86
575.15	44553.56
575.34	44496.22
575.54	44905.81
575.74	45202.77
575.94	44625.24
576.14	44844.37
576.34	45505.87
576.54	45520.20
576.74	45129.04
576.94	45096.27
577.14	45491.53
577.34	45624.65
577.54	44989.78
577.74	45561.16
577.94	45274.45
578.14	45217.10
578.34	45446.47
578.54	45077.84
578.74	45696.33
578.94	45626.70
579.14	45958.47
579.34	45417.80
579.54	45565.26
579.74	46361.92
579.94	45956.42
580.13	46093.63
580.33	45804.87
580.53	46183.74
580.73	46333.24
580.93	45837.64
581.13	46445.88
581.33	46454.08
581.53	46533.95
581.73	46650.68
581.93	46953.78
582.13	46890.29
582.33	46519.61
582.53	46372.16
582.73	46900.53
582.92	46587.19
583.12	46773.56
583.32	47023.41
583.52	46738.74
583.72	47252.78
583.92	47041.84
584.12	47134.00
584.32	47574.31
584.52	47392.04
584.72	47457.58
584.92	47539.50
585.11	47842.60
585.31	47600.94
585.51	47301.93
585.71	47650.09
585.91	48258.34
586.11	47650.09
586.31	47885.61
586.51	47756.58
586.71	47777.06
586.91	47848.74
587.10	47713.58
587.30	48037.16
587.50	47836.45
587.70	48041.25
587.90	48100.64
588.10	48014.63
588.30	48119.07
588.50	48321.82
588.69	47897.89
