SpectraSuite Data File
++++++++++++++++++++++++++++++++++++
Date: Fri Jun 02 14:51:12 CEST 2017
User: INFO_000
Dark Spectrum Present: No
Reference Spectrum Present: No
Number of Sampled Component Spectra: 1
Spectrometers: USB4H00879
Integration Time (usec): 80000 (USB4H00879)
Spectra Averaged: 1 (USB4H00879)
Boxcar Smoothing: 0 (USB4H00879)
Correct for Electrical Dark: No (USB4H00879)
Strobe/Lamp Enabled: No (USB4H00879)
Correct for Detector Non-linearity: No (USB4H00879)
Correct for Stray Light: No (USB4H00879)
Number of Pixels in Processed Spectrum: 3648
>>>>>Begin Processed Spectral Data<<<<<
345.13	1351.66
345.34	1351.66
345.56	1351.66
345.78	1273.84
345.99	1302.51
346.21	1705.96
346.42	1759.21
346.64	1671.14
346.86	1798.12
347.07	1650.66
347.29	1675.24
347.50	1599.46
347.72	1683.43
347.94	1755.11
348.15	1529.83
348.37	1572.84
348.59	1669.09
348.80	1683.43
349.02	1773.54
349.23	1884.13
349.45	1832.93
349.67	2000.87
349.88	1808.36
350.10	2023.39
350.31	1863.65
350.53	1820.64
350.75	1875.94
350.96	1716.20
351.18	1920.99
351.39	1955.81
351.61	1798.12
351.82	1902.56
352.04	1910.75
352.26	1923.04
352.47	1896.42
352.69	1830.88
352.90	1818.60
353.12	1847.27
353.34	1947.62
353.55	1875.94
353.77	1941.47
353.98	1816.55
354.20	1777.64
354.41	1949.67
354.63	1918.95
354.85	1982.43
355.06	1880.04
355.28	1814.50
355.49	1929.19
355.71	1828.84
355.92	1830.88
356.14	1918.95
356.35	1886.18
356.57	1867.75
356.79	1986.53
357.00	1867.75
357.22	1982.43
357.43	1828.84
357.65	1994.72
357.86	1871.84
358.08	1873.89
358.29	1916.90
358.51	2004.96
358.72	2007.01
358.94	1992.67
359.16	1980.39
359.37	1933.28
359.59	2031.58
359.80	1941.47
360.02	1847.27
360.23	1984.48
360.45	2017.25
360.66	1841.12
360.88	1800.16
361.09	1951.71
361.31	1953.76
361.52	1970.15
361.74	1994.72
361.95	2025.44
362.17	1847.27
362.38	2123.74
362.60	2031.58
362.81	1933.28
363.03	1964.00
363.24	1974.24
363.46	2054.11
363.67	2009.06
363.89	1927.14
364.10	1951.71
364.32	2039.78
364.53	2023.39
364.75	1970.15
364.96	1970.15
365.18	2090.98
365.39	1968.10
365.61	1978.34
365.82	2068.45
366.04	1986.53
366.25	1998.82
366.47	2060.26
366.68	2013.15
366.90	1908.71
367.11	2035.68
367.33	2107.36
367.54	2052.06
367.76	1992.67
367.97	2101.22
368.19	1978.34
368.40	2023.39
368.62	2017.25
368.83	2027.49
369.05	2033.63
369.26	1978.34
369.48	1978.34
369.69	2002.91
369.91	1951.71
370.12	2000.87
370.33	2082.78
370.55	1935.33
370.76	1974.24
370.98	2093.02
371.19	2056.16
371.41	2015.20
371.62	1978.34
371.84	2045.92
372.05	2181.09
372.27	1984.48
372.48	2062.30
372.69	2115.55
372.91	2195.42
373.12	2113.50
373.34	2058.21
373.55	2166.75
373.77	2140.13
373.98	2076.64
374.20	2183.13
374.41	2224.09
374.62	2168.80
374.84	2207.71
375.05	2201.57
375.27	2168.80
375.48	2103.26
375.70	2158.56
375.91	2148.32
376.12	2314.20
376.34	2148.32
376.55	2240.48
376.77	2258.91
376.98	2103.26
377.19	2148.32
377.41	2189.28
377.62	2187.23
377.84	2232.29
378.05	2344.92
378.27	2203.61
378.48	2338.78
378.69	2299.87
378.91	2267.10
379.12	2240.48
379.34	2189.28
379.55	2273.25
379.76	2258.91
379.98	2213.85
380.19	2213.85
380.41	2275.29
380.62	2273.25
380.83	2220.00
381.05	2260.96
381.26	2359.26
381.47	2220.00
381.69	2287.58
381.90	2469.85
382.12	2301.92
382.33	2289.63
382.54	2303.96
382.76	2189.28
382.97	2230.24
383.19	2273.25
383.40	2461.66
383.61	2285.53
383.83	2355.16
384.04	2275.29
384.25	2328.54
384.47	2377.69
384.68	2457.56
384.89	2328.54
385.11	2342.88
385.32	2326.49
385.54	2375.64
385.75	2344.92
385.96	2484.19
386.18	2357.21
386.39	2357.21
386.60	2330.59
386.82	2373.60
387.03	2447.32
387.24	2389.98
387.46	2432.99
387.67	2529.24
387.88	2576.34
388.10	2455.51
388.31	2420.70
388.52	2588.63
388.74	2514.91
388.95	2539.48
389.16	2486.23
389.38	2488.28
389.59	2576.34
389.80	2629.59
390.02	2619.35
390.23	2613.21
390.44	2521.05
390.66	2541.53
390.87	2500.57
391.08	2469.85
391.30	2711.51
391.51	2645.98
391.72	2662.36
391.94	2607.06
392.15	2564.06
392.36	2639.83
392.58	2568.15
392.79	2592.73
393.00	2715.61
393.22	2676.70
393.43	2688.98
393.64	2781.14
393.85	2807.77
394.07	2662.36
394.28	2697.17
394.49	2772.95
394.71	2785.24
394.92	2811.86
395.13	2701.27
395.35	2684.89
395.56	2654.17
395.77	2842.58
395.98	2750.42
396.20	2834.39
396.41	2703.32
396.62	2803.67
396.84	2897.88
397.05	2797.53
397.26	2879.44
397.47	2867.16
397.69	2826.20
397.90	2981.84
398.11	2906.07
398.32	2777.05
398.54	2828.24
398.75	2877.40
398.96	2908.12
399.18	3010.51
399.39	3057.62
399.60	3020.75
399.81	2906.07
400.03	2949.08
400.24	3235.79
400.45	2967.51
400.66	3059.67
400.88	2971.60
401.09	3168.21
401.30	3039.19
401.51	3094.48
401.73	3131.34
401.94	3090.38
402.15	3067.86
402.36	3125.20
402.58	3069.91
402.79	3137.49
403.00	3157.97
403.21	3223.50
403.43	3196.88
403.64	3252.17
403.85	3059.67
404.06	3166.16
404.27	3069.91
404.49	3149.78
404.70	3104.72
404.91	3127.25
405.12	3340.24
405.34	3203.02
405.55	3336.14
405.76	3157.97
405.97	3164.11
406.19	3459.02
406.40	3157.97
406.61	3416.01
406.82	3358.67
407.03	3135.44
407.25	3252.17
407.46	3268.56
407.67	3377.10
407.88	3428.30
408.09	3413.96
408.31	3198.93
408.52	3350.48
408.73	3278.80
408.94	3284.94
409.15	3454.92
409.37	3567.56
409.58	3481.55
409.79	3538.89
410.00	3499.98
410.21	3463.12
410.43	3448.78
410.64	3360.72
410.85	3497.93
411.06	3495.88
411.27	3407.82
411.48	3608.52
411.70	3471.31
411.91	3516.36
412.12	3538.89
412.33	3557.32
412.54	3661.77
412.76	3641.29
412.97	3626.95
413.18	3559.37
413.39	3692.49
413.60	3823.56
413.81	3741.64
414.03	3600.33
414.24	3715.02
414.45	3801.03
414.66	3448.78
414.87	3643.34
415.08	3669.96
415.30	3651.53
415.51	3751.88
415.72	3854.28
415.93	3758.02
416.14	3755.97
416.35	3680.20
416.56	3788.74
416.78	3702.73
416.99	3723.21
417.20	3772.36
417.41	3885.00
417.62	3833.80
417.83	3835.85
418.04	3936.20
418.26	3846.09
418.47	3915.72
418.68	3973.06
418.89	3897.28
419.10	4020.16
419.31	4034.50
419.52	3993.54
419.73	4005.83
419.95	4165.57
420.16	4032.45
420.37	4016.07
420.58	4102.08
420.79	3815.37
421.00	4077.51
421.21	4067.27
421.42	4048.83
421.63	4081.60
421.85	4095.94
422.06	4057.03
422.27	4112.32
422.48	4116.42
422.69	4173.76
422.90	4108.23
423.11	4210.62
423.32	4202.43
423.53	4444.09
423.75	4251.58
423.96	4483.00
424.17	4368.32
424.38	4403.13
424.59	4315.07
424.80	4501.44
425.01	4542.39
425.22	4351.93
425.43	4431.80
425.64	4526.01
425.85	4609.98
426.06	4526.01
426.28	4452.28
426.49	4386.75
426.70	4534.20
426.91	4532.15
427.12	4624.31
427.33	4554.68
427.54	4554.68
427.75	4745.14
427.96	4763.58
428.17	4679.61
428.38	4902.84
428.59	4757.43
428.80	4796.34
429.01	4802.49
429.23	4728.76
429.44	4949.94
429.65	4986.80
429.86	5048.24
430.07	4769.72
430.28	4886.45
430.49	4976.56
430.70	4951.99
430.91	4990.90
431.12	5105.59
431.33	5029.81
431.54	5074.87
431.75	5197.74
431.96	4990.90
432.17	5089.20
432.38	4951.99
432.59	5375.92
432.80	5148.59
433.01	5173.17
433.22	5332.91
433.43	5382.06
433.64	5236.66
433.85	5197.74
434.06	5337.01
434.27	5316.53
434.49	5332.91
434.70	5343.15
434.91	5328.81
435.12	5326.77
435.33	5369.77
435.54	5474.22
435.75	5326.77
435.96	5445.55
436.17	5371.82
436.38	5470.12
436.59	5568.43
436.80	5463.98
437.01	5676.97
437.22	5779.37
437.43	5652.39
437.64	5423.02
437.85	5734.31
438.06	5695.40
438.27	5631.91
438.48	5666.73
438.69	5787.56
438.90	5660.59
439.11	5636.01
439.32	5857.19
439.53	5736.36
439.74	5750.70
439.95	5863.33
440.16	5859.24
440.37	5820.33
440.57	5818.28
440.78	5930.92
440.99	5996.45
441.20	5984.16
441.41	5857.19
441.62	5908.39
441.83	5738.41
442.04	6148.00
442.25	5965.73
442.46	5924.77
442.67	6121.38
442.88	6444.96
443.09	5824.42
443.30	5812.14
443.51	6096.80
443.72	6313.89
443.93	6102.95
444.14	6473.63
444.35	6041.51
444.56	6350.75
444.77	6496.16
444.98	6334.37
445.19	6348.70
445.40	6309.79
445.61	6309.79
445.81	6547.36
446.02	6487.96
446.23	6418.33
446.44	6176.67
446.65	6500.25
446.86	6426.53
447.07	6313.89
447.28	6799.26
447.49	6616.99
447.70	6459.29
447.91	6727.58
448.12	6647.71
448.33	6782.87
448.54	6676.38
448.74	6514.59
448.95	6700.95
449.16	6379.42
449.37	6838.17
449.58	6784.92
449.79	6950.81
450.00	6782.87
450.21	6809.50
450.42	7061.40
450.63	6965.14
450.84	6918.04
451.05	7038.87
451.25	6789.02
451.46	6864.79
451.67	7145.36
451.88	7116.69
452.09	7219.09
452.30	7016.34
452.51	7214.99
452.72	7227.28
452.93	7360.40
453.13	7118.74
453.34	7225.23
453.55	7409.55
453.76	7180.18
453.97	7507.85
454.18	7382.93
454.39	7462.80
454.60	7354.26
454.81	7366.54
455.01	7622.54
455.22	7208.85
455.43	7483.28
455.64	7614.35
455.85	7749.51
456.06	7833.48
456.27	7683.98
456.48	7763.85
456.68	7759.75
456.89	7841.67
457.10	7929.74
457.31	7911.30
457.52	7913.35
457.73	7849.86
457.94	8275.84
458.14	7948.17
458.35	8382.34
458.56	8189.83
458.77	8107.91
458.98	8066.95
459.19	8286.08
459.39	8335.23
459.60	8327.04
459.81	8288.13
460.02	8390.53
460.23	8527.74
460.44	8556.41
460.65	8607.61
460.85	8503.17
461.06	8687.48
461.27	8564.61
461.48	8826.75
461.69	9006.97
461.89	8517.50
462.10	8806.27
462.31	8445.82
462.52	8687.48
462.73	8806.27
462.94	9119.60
463.14	9099.13
463.35	8892.28
463.56	9404.27
463.77	9396.08
463.98	9047.93
464.18	9381.74
464.39	9570.16
464.60	9441.14
464.81	9439.09
465.02	9434.99
465.23	9588.59
465.43	9301.87
465.64	9869.16
465.85	9607.02
466.06	9645.93
466.27	10041.19
466.47	9969.51
466.68	9860.97
466.89	9869.16
467.10	10092.39
467.30	9793.39
467.51	10270.56
467.72	10248.04
467.93	10006.38
468.14	10106.73
468.34	10454.88
468.55	10534.75
468.76	10403.68
468.97	10393.44
469.17	10811.23
469.38	10739.55
469.59	11005.78
469.80	10784.60
470.01	10657.63
470.21	10800.99
470.42	11040.60
470.63	11038.55
470.84	11081.56
471.04	11061.08
471.25	11249.49
471.46	10956.63
471.67	11499.34
471.87	11419.47
472.08	11644.75
472.29	11532.11
472.50	11458.39
472.70	11599.70
472.91	11499.34
473.12	11939.66
473.33	11902.79
473.53	12048.20
473.74	11882.31
473.95	12300.10
474.16	12107.59
474.36	12308.29
474.57	12187.46
474.78	12365.64
474.99	12484.42
475.19	12523.33
475.40	12713.79
475.61	12785.47
475.81	13129.53
476.02	13184.82
476.23	12771.13
476.44	12920.63
476.64	13317.94
476.85	13453.11
477.06	13258.55
477.27	13565.74
477.47	13641.52
477.68	13547.31
477.89	13895.47
478.09	13813.55
478.30	13936.43
478.51	13750.06
478.71	14012.20
478.92	14235.43
479.13	14190.38
479.34	14315.30
479.54	14378.79
479.75	14528.29
479.96	14612.26
480.16	14487.33
480.37	14753.57
480.58	14800.67
480.78	15071.00
480.99	15140.63
481.20	15034.14
481.41	15185.69
481.61	15327.00
481.82	15283.99
482.03	15539.99
482.23	15372.05
482.44	15671.06
482.65	15836.94
482.85	15748.88
483.06	15882.00
483.27	15941.39
483.47	16039.69
483.68	16283.40
483.89	16389.89
484.09	16396.04
484.30	16424.71
484.51	16549.64
484.71	16621.31
484.92	16776.96
485.13	16721.66
485.33	16985.85
485.54	16977.66
485.75	17235.70
485.95	17297.14
486.16	17510.13
486.37	17587.96
486.57	17315.58
486.78	17624.82
486.98	17616.63
487.19	17809.14
487.40	17886.96
487.60	17860.34
487.81	18161.39
488.02	17954.54
488.22	17925.87
488.43	18099.95
488.64	18411.24
488.84	18591.46
489.05	18458.34
489.25	18616.04
489.46	18714.34
489.67	18624.23
489.87	18783.97
490.08	19093.21
490.29	19056.35
490.49	19547.86
490.70	19230.43
490.90	19392.22
491.11	19664.60
491.32	19472.09
491.52	19568.34
491.73	19824.34
491.94	19719.89
492.14	19762.90
492.35	19896.02
492.55	19930.83
492.76	20455.11
492.97	20252.36
493.17	20313.80
493.38	20346.57
493.58	20692.68
493.79	20631.24
494.00	20694.72
494.20	20752.07
494.41	21165.76
494.61	20821.70
494.82	20793.03
495.02	20942.53
495.23	20924.10
495.44	21243.58
495.64	21348.03
495.85	21178.04
496.05	21782.20
496.26	21454.52
496.47	21702.32
496.67	21671.61
496.88	22126.25
497.08	21735.09
497.29	22034.10
497.49	21905.07
497.70	22156.97
497.91	22128.30
498.11	22144.69
498.32	22605.48
498.52	22333.10
498.73	22523.56
498.93	22576.81
499.14	22548.14
499.34	22582.95
499.55	23010.98
499.76	22664.87
499.96	23023.26
500.17	22716.07
500.37	22914.72
500.58	23137.95
500.78	23447.19
500.99	23434.91
501.19	23494.30
501.40	23447.19
501.60	23021.22
501.81	23309.98
502.02	23488.15
502.22	23226.01
502.43	23819.92
502.63	23832.21
502.84	24192.65
503.04	24014.48
503.25	23838.36
503.45	23760.53
503.66	24424.08
503.86	24123.02
504.07	24651.40
504.27	24024.72
504.48	24669.83
504.68	24489.61
504.89	24698.50
505.09	24815.24
505.30	24764.04
505.50	24620.68
505.71	24919.68
505.91	24974.98
506.12	24739.46
506.32	25190.02
506.53	25425.53
506.73	25163.39
506.94	25212.54
507.14	24909.44
507.35	25446.01
507.55	25316.99
507.76	25446.01
507.96	25618.04
508.17	25544.31
508.37	25577.08
508.58	25646.71
508.78	25790.07
508.99	26164.85
509.19	26170.99
509.40	25910.90
509.60	25706.10
509.81	25972.34
510.01	26068.59
510.22	26228.34
510.42	26285.68
510.63	25962.10
510.83	26318.45
511.04	26125.94
511.24	26359.41
511.44	26556.01
511.65	26592.87
511.85	26631.79
512.06	26420.84
512.26	26850.92
512.47	26852.97
512.67	26596.97
512.88	26820.20
513.08	26447.47
513.29	26951.27
513.49	26877.54
513.69	26818.15
513.90	27027.04
514.10	27321.95
514.31	27555.42
514.51	27393.63
514.72	27496.03
514.92	27356.77
515.13	27553.37
515.33	27348.57
515.53	27393.63
515.74	27391.58
515.94	27620.95
516.15	27713.11
516.35	27565.66
516.56	27948.63
516.76	27868.76
516.96	28069.46
517.17	28259.92
517.37	28008.02
517.58	28208.72
517.78	28221.01
517.99	28087.89
518.19	28223.06
518.39	28362.32
518.60	28405.33
518.80	28360.27
519.01	28743.24
519.21	28415.57
519.41	28649.03
519.62	28546.64
519.82	28765.77
520.03	28733.00
520.23	29044.29
520.43	28712.52
520.64	29376.06
520.84	29075.01
521.05	29052.48
521.25	29455.93
521.45	29273.67
521.66	29621.82
521.86	29165.12
522.07	29462.08
522.27	29527.61
522.47	29734.46
522.68	30033.46
522.88	29781.56
523.08	30045.75
523.29	30367.28
523.49	29935.16
523.70	30068.28
523.90	30207.54
524.10	30580.27
524.31	30451.25
524.51	30127.67
524.71	30803.50
524.92	30481.97
525.12	30963.24
525.33	30537.26
525.53	31041.06
525.73	31102.50
525.94	31100.45
526.14	30914.09
526.34	31131.17
526.55	30879.27
526.75	31522.34
526.95	31295.01
527.16	31204.90
527.36	31637.02
527.56	31682.08
527.77	31952.41
527.97	31800.86
528.17	31733.28
528.38	31802.91
528.58	32124.44
528.78	31716.89
528.99	32128.53
529.19	32605.71
529.39	32106.01
529.60	32644.62
529.80	32519.70
530.00	32591.37
530.21	32783.88
530.41	32785.93
530.61	32861.71
530.82	32939.53
531.02	32806.41
531.22	32962.06
531.43	33646.08
531.63	33011.21
531.83	33613.31
532.04	33867.26
532.24	33605.12
532.44	33994.23
532.64	34018.81
532.85	34084.34
533.05	33762.81
533.25	33648.13
533.46	33777.15
533.66	34381.30
533.86	34391.54
534.07	34563.57
534.27	34495.99
534.47	34702.83
534.67	34506.23
534.88	34541.04
535.08	35225.06
535.28	34940.39
535.49	35089.90
535.69	35417.57
535.89	35130.86
536.09	35577.31
536.30	35737.05
536.50	35665.38
536.70	36068.83
536.91	35524.07
537.11	35704.29
537.31	36105.69
537.51	35884.51
537.72	36343.25
537.92	36396.50
538.12	36816.33
538.32	35935.71
538.53	36185.56
538.73	36294.10
538.93	36541.91
539.13	36494.80
539.34	36750.80
539.54	36654.54
539.74	37004.75
539.94	37248.46
540.15	36845.01
540.35	37434.82
540.55	37000.65
540.75	37152.20
540.96	37555.65
541.16	37416.39
541.36	37492.16
541.56	37830.08
541.77	37774.78
541.97	37830.08
542.17	37993.92
542.37	37993.92
542.58	37825.98
542.78	37588.42
542.98	37846.46
543.18	38430.13
543.38	38679.99
543.59	38350.26
543.79	38389.17
543.99	38096.31
544.19	38327.74
544.40	38385.08
544.60	38274.49
544.80	38774.19
545.00	38944.17
545.20	39013.80
545.41	38671.79
545.61	38618.55
545.81	38903.21
546.01	39312.81
546.21	38794.67
546.42	39265.70
546.62	39523.75
546.82	39261.61
547.02	39409.06
547.22	39685.54
547.43	39458.21
547.63	39509.41
547.83	39816.61
548.03	39908.77
548.23	39529.89
548.44	40027.55
548.64	40080.80
548.84	40164.76
549.04	39757.22
549.24	40404.38
549.45	40291.74
549.65	40156.57
549.85	40197.53
550.05	40498.58
550.25	39929.25
550.45	40902.03
550.66	40373.66
550.86	40445.33
551.06	40576.40
551.26	41024.91
551.46	40955.28
551.66	40877.46
551.87	40734.10
552.07	40740.24
552.27	40637.84
552.47	41051.53
552.67	40945.04
552.87	41092.49
553.07	40770.96
553.28	40879.50
553.48	41131.40
553.68	41006.48
553.88	41495.94
554.08	41487.75
554.28	41450.89
554.48	41397.64
554.69	41809.28
554.89	41549.19
555.09	41477.51
555.29	41033.10
555.49	41840.00
555.69	41803.14
555.89	41809.28
556.10	42247.55
556.30	41584.01
556.50	41807.23
556.70	41661.83
556.90	41969.02
557.10	42429.82
557.30	41932.16
557.50	42061.18
557.70	42311.03
557.91	42706.29
558.11	42380.67
558.31	42515.83
558.51	42405.24
558.71	42341.75
558.91	42700.15
559.11	42372.47
559.31	42519.93
559.51	41983.36
559.72	42421.62
559.92	42820.98
560.12	42589.56
560.32	42704.24
560.52	42802.55
560.72	42618.23
560.92	42962.29
561.12	42947.95
561.32	43177.33
561.52	42362.23
561.72	43449.70
561.93	43033.97
562.13	42839.41
562.33	42503.54
562.53	43472.23
562.73	43066.73
562.93	42917.23
563.13	43175.28
563.33	42694.00
563.53	43472.23
563.73	42806.64
563.93	43707.75
564.13	43709.80
564.33	43574.63
564.53	43156.85
564.74	43699.56
564.94	43224.43
565.14	43445.61
565.34	43238.76
565.54	43267.44
565.74	43740.52
565.94	43584.87
566.14	43339.11
566.34	43629.93
566.54	44064.10
566.74	43427.18
566.94	43738.47
567.14	43664.74
567.34	43781.48
567.54	44176.73
567.74	44084.58
567.94	44131.68
568.14	44285.28
568.34	44498.26
568.54	44088.67
568.74	44225.89
568.94	44608.86
569.14	44748.12
569.34	44588.38
569.54	44524.89
569.75	44195.17
569.95	44684.63
570.15	45210.96
570.35	44756.31
570.55	44670.29
570.75	44725.59
570.95	44561.75
571.15	44957.01
571.35	44721.49
571.55	44981.59
571.75	44639.57
571.95	44997.97
572.15	44836.18
572.35	45004.11
572.55	44860.76
572.75	45184.33
572.95	45141.33
573.15	44967.25
573.35	45417.80
573.55	44819.80
573.75	44842.32
573.95	45180.24
574.15	45372.75
574.35	45483.34
574.55	45514.06
574.75	45552.97
574.95	45542.73
575.15	45872.45
575.34	45679.94
575.54	45874.50
575.74	45651.27
575.94	45980.99
576.14	45696.33
576.34	46173.50
576.54	45876.55
576.74	45942.08
576.94	46136.64
577.14	46320.96
577.34	46570.81
577.54	46013.76
577.74	45935.94
577.94	46320.96
578.14	46708.02
578.34	46535.99
578.54	46011.71
578.74	46024.00
578.94	46890.29
579.14	46595.38
579.34	46697.78
579.54	46662.97
579.74	47195.44
579.94	46693.69
580.13	47134.00
580.33	46822.71
580.53	46855.48
580.73	47602.99
580.93	47050.03
581.13	46959.92
581.33	47465.77
581.53	47099.19
581.73	47351.09
581.93	47361.33
582.13	46984.50
582.33	47428.91
582.53	47357.23
582.73	47408.43
582.92	47617.32
583.12	47951.14
583.32	47732.01
583.52	47707.43
583.72	47713.58
583.92	47283.50
584.12	47715.62
584.32	48665.88
584.52	47756.58
584.72	47959.33
584.92	47955.24
585.11	48309.53
585.31	48264.48
585.51	48149.79
585.71	48051.49
585.91	48764.18
586.11	47926.56
586.31	48682.27
586.51	48407.84
586.71	48882.97
586.91	48925.97
587.10	48577.82
587.30	48897.30
587.50	49014.04
587.70	48977.17
587.90	48674.07
588.10	49157.39
588.30	48817.43
588.50	49401.10
