SpectraSuite Data File
++++++++++++++++++++++++++++++++++++
Date: Fri Jun 02 14:51:06 CEST 2017
User: INFO_000
Dark Spectrum Present: No
Reference Spectrum Present: No
Number of Sampled Component Spectra: 1
Spectrometers: USB4H00879
Integration Time (usec): 80000 (USB4H00879)
Spectra Averaged: 1 (USB4H00879)
Boxcar Smoothing: 0 (USB4H00879)
Correct for Electrical Dark: No (USB4H00879)
Strobe/Lamp Enabled: No (USB4H00879)
Correct for Detector Non-linearity: No (USB4H00879)
Correct for Stray Light: No (USB4H00879)
Number of Pixels in Processed Spectrum: 3648
>>>>>Begin Processed Spectral Data<<<<<
345.13	1191.92
345.34	1191.92
345.56	1191.92
345.78	1257.45
345.99	1241.07
346.21	1738.73
346.42	1699.81
346.64	1617.90
346.86	1785.83
347.07	1634.28
347.29	1757.16
347.50	1630.18
347.72	1654.76
347.94	1761.25
348.15	1642.47
348.37	1605.61
348.59	1730.53
348.80	1628.14
349.02	1755.11
349.23	1761.25
349.45	1777.64
349.67	1791.97
349.88	1601.51
350.10	1890.28
350.31	1738.73
350.53	1736.68
350.75	1873.89
350.96	1695.72
351.18	1820.64
351.39	1718.25
351.61	1714.15
351.82	1744.87
352.04	1742.82
352.26	1683.43
352.47	1812.45
352.69	1796.07
352.90	1683.43
353.12	1773.54
353.34	1716.20
353.55	1839.08
353.77	1726.44
353.98	1697.77
354.20	1718.25
354.41	1884.13
354.63	1777.64
354.85	1953.76
355.06	1845.22
355.28	1624.04
355.49	1732.58
355.71	1808.36
355.92	1712.10
356.14	1867.75
356.35	1714.15
356.57	1677.29
356.79	1765.35
357.00	1671.14
357.22	1808.36
357.43	1728.49
357.65	1867.75
357.86	1742.82
358.08	1775.59
358.29	1730.53
358.51	1851.36
358.72	1880.04
358.94	1843.17
359.16	1814.50
359.37	1779.68
359.59	1849.32
359.80	1843.17
360.02	1796.07
360.23	1875.94
360.45	1892.32
360.66	1708.01
360.88	1667.05
361.09	1810.40
361.31	1923.04
361.52	1744.87
361.74	1894.37
361.95	1933.28
362.17	1783.78
362.38	1908.71
362.60	1882.08
362.81	1843.17
363.03	1771.49
363.24	1853.41
363.46	1978.34
363.67	1849.32
363.89	1787.88
364.10	1775.59
364.32	1765.35
364.53	1873.89
364.75	1683.43
364.96	1800.16
365.18	1916.90
365.39	1884.13
365.61	1904.61
365.82	1955.81
366.04	1830.88
366.25	1746.92
366.47	1863.65
366.68	1898.47
366.90	1789.92
367.11	1892.32
367.33	1851.36
367.54	1949.67
367.76	1830.88
367.97	1918.95
368.19	1871.84
368.40	1884.13
368.62	1773.54
368.83	1806.31
369.05	1837.03
369.26	1738.73
369.48	1800.16
369.69	1812.45
369.91	1898.47
370.12	1851.36
370.33	1910.75
370.55	1695.72
370.76	1859.56
370.98	2013.15
371.19	1834.98
371.41	1857.51
371.62	1875.94
371.84	1728.49
372.05	1894.37
372.27	1828.84
372.48	1929.19
372.69	1925.09
372.91	1966.05
373.12	1925.09
373.34	1843.17
373.55	1923.04
373.77	1994.72
373.98	1896.42
374.20	2039.78
374.41	2052.06
374.62	1916.90
374.84	2080.74
375.05	1902.56
375.27	1976.29
375.48	2047.97
375.70	1910.75
375.91	1988.58
376.12	2099.17
376.34	1843.17
376.55	2017.25
376.77	1953.76
376.98	1916.90
377.19	1830.88
377.41	1964.00
377.62	2023.39
377.84	2072.54
378.05	2170.85
378.27	2037.73
378.48	2168.80
378.69	2150.37
378.91	2191.33
379.12	2047.97
379.34	1990.63
379.55	2002.91
379.76	2109.41
379.98	2029.54
380.19	2101.22
380.41	2035.68
380.62	2125.79
380.83	2043.87
381.05	1998.82
381.26	2195.42
381.47	2011.11
381.69	2129.89
381.90	2228.19
382.12	1964.00
382.33	2021.35
382.54	2109.41
382.76	2125.79
382.97	2084.83
383.19	1888.23
383.40	2295.77
383.61	2113.50
383.83	2131.94
384.04	2138.08
384.25	2111.46
384.47	2244.57
384.68	2050.02
384.89	2138.08
385.11	2160.61
385.32	2131.94
385.54	2140.13
385.75	2086.88
385.96	2170.85
386.18	2260.96
386.39	2185.18
386.60	2150.37
386.82	2222.05
387.03	2254.81
387.24	2287.58
387.46	2256.86
387.67	2316.25
387.88	2357.21
388.10	2316.25
388.31	2367.45
388.52	2435.03
388.74	2447.32
388.95	2426.84
389.16	2289.63
389.38	2293.72
389.59	2392.03
389.80	2432.99
390.02	2385.88
390.23	2473.95
390.44	2357.21
390.66	2385.88
390.87	2183.13
391.08	2461.66
391.30	2543.58
391.51	2467.80
391.72	2588.63
391.94	2414.56
392.15	2471.90
392.36	2541.53
392.58	2428.89
392.79	2508.76
393.00	2596.82
393.22	2582.49
393.43	2680.79
393.64	2680.79
393.85	2793.43
394.07	2613.21
394.28	2623.45
394.49	2652.12
394.71	2648.02
394.92	2705.37
395.13	2615.26
395.35	2592.73
395.56	2492.38
395.77	2684.89
395.98	2672.60
396.20	2697.17
396.41	2705.37
396.62	2797.53
396.84	2672.60
397.05	2670.55
397.26	2764.76
397.47	2938.84
397.69	2734.04
397.90	2985.94
398.11	2858.96
398.32	2699.22
398.54	2785.24
398.75	2869.20
398.96	2846.68
399.18	2877.40
399.39	2863.06
399.60	2899.92
399.81	2895.83
400.03	2777.05
400.24	3151.82
400.45	2881.49
400.66	3022.80
400.88	2797.53
401.09	3092.43
401.30	2822.10
401.51	3119.06
401.73	2957.27
401.94	3090.38
402.15	3002.32
402.36	2996.18
402.58	3041.23
402.79	3035.09
403.00	3090.38
403.21	3112.91
403.43	3186.64
403.64	3190.74
403.85	3065.81
404.06	3125.20
404.27	3006.42
404.49	2967.51
404.70	3049.43
404.91	3162.06
405.12	3149.78
405.34	3119.06
405.55	3172.30
405.76	3133.39
405.97	3164.11
406.19	3391.44
406.40	3086.29
406.61	3182.54
406.82	3258.32
407.03	3327.95
407.25	3100.62
407.46	3276.75
407.67	3286.99
407.88	3248.08
408.09	3221.45
408.31	3219.41
408.52	3276.75
408.73	3243.98
408.94	3168.21
409.15	3299.28
409.37	3399.63
409.58	3405.77
409.79	3373.00
410.00	3434.44
410.21	3379.15
410.43	3352.52
410.64	3364.81
410.85	3311.57
411.06	3426.25
411.27	3469.26
411.48	3385.29
411.70	3459.02
411.91	3532.75
412.12	3485.64
412.33	3434.44
412.54	3422.16
412.76	3581.90
412.97	3594.19
413.18	3495.88
413.39	3542.99
413.60	3575.75
413.81	3608.52
414.03	3497.93
414.24	3436.49
414.45	3604.42
414.66	3483.59
414.87	3751.88
415.08	3698.63
415.30	3588.04
415.51	3698.63
415.72	3534.79
415.93	3655.62
416.14	3698.63
416.35	3817.41
416.56	3717.06
416.78	3684.30
416.99	3694.54
417.20	3596.23
417.41	3776.45
417.62	3715.02
417.83	3862.47
418.04	3817.41
418.26	3821.51
418.47	3837.89
418.68	3809.22
418.89	3885.00
419.10	3956.68
419.31	3852.23
419.52	3968.96
419.73	3860.42
419.95	4001.73
420.16	3776.45
420.37	3878.85
420.58	3862.47
420.79	3936.20
421.00	3928.00
421.21	3956.68
421.42	3954.63
421.63	4124.61
421.85	4063.17
422.06	4186.05
422.27	4210.62
422.48	4075.46
422.69	4083.65
422.90	4177.86
423.11	4128.70
423.32	4196.29
423.53	4286.40
423.75	4220.86
423.96	4499.39
424.17	4333.50
424.38	4483.00
424.59	4241.34
424.80	4550.59
425.01	4454.33
425.22	4317.12
425.43	4294.59
425.64	4499.39
425.85	4480.96
426.06	4470.72
426.28	4491.20
426.49	4337.60
426.70	4392.89
426.91	4454.33
427.12	4532.15
427.33	4501.44
427.54	4472.76
427.75	4509.63
427.96	4640.70
428.17	4550.59
428.38	4698.04
428.59	4822.97
428.80	4726.71
429.01	4683.70
429.23	4622.27
429.44	5005.24
429.65	4759.48
429.86	4851.64
430.07	4736.95
430.28	4665.27
430.49	5019.57
430.70	5025.72
430.91	5136.31
431.12	4894.65
431.33	4990.90
431.54	5050.29
431.75	4999.09
431.96	5111.73
432.17	5081.01
432.38	5025.72
432.59	4999.09
432.80	5040.05
433.01	5257.14
433.22	5271.47
433.43	5316.53
433.64	5121.97
433.85	5218.22
434.06	5384.11
434.27	5224.37
434.49	5402.54
434.70	5320.62
434.91	5347.25
435.12	5373.87
435.33	5382.06
435.54	5349.29
435.75	5277.62
435.96	5308.34
436.17	5205.94
436.38	5400.49
436.59	5494.70
436.80	5343.15
437.01	5734.31
437.22	5629.87
437.43	5494.70
437.64	5287.86
437.85	5660.59
438.06	5726.12
438.27	5427.12
438.48	5679.02
438.69	5566.38
438.90	5463.98
439.11	5533.61
439.32	5799.85
439.53	5705.64
439.74	5742.50
439.95	5752.74
440.16	5660.59
440.37	5756.84
440.57	5681.07
440.78	5746.60
440.99	5722.02
441.20	5793.70
441.41	5842.85
441.62	5742.50
441.83	5623.72
442.04	5906.34
442.25	5769.13
442.46	5928.87
442.67	6014.88
442.88	6244.26
443.09	5900.20
443.30	5932.97
443.51	5947.30
443.72	6107.04
443.93	5992.36
444.14	6268.83
444.35	5963.68
444.56	6197.15
444.77	6082.47
444.98	6115.23
445.19	6174.63
445.40	6074.28
445.61	6064.04
445.81	6195.11
446.02	6344.61
446.23	6229.92
446.44	6119.33
446.65	6334.37
446.86	6377.37
447.07	6354.85
447.28	6473.63
447.49	6592.41
447.70	6410.14
447.91	6449.05
448.12	6332.32
448.33	6313.89
448.54	6391.71
448.74	6291.36
448.95	6487.96
449.16	6330.27
449.37	6557.60
449.58	6686.62
449.79	6639.51
450.00	6514.59
450.21	6676.38
450.42	6758.30
450.63	6653.85
450.84	6729.63
451.05	6762.39
451.25	6686.62
451.46	6598.56
451.67	6954.90
451.88	7077.78
452.09	6877.08
452.30	6848.41
452.51	6907.80
452.72	6944.66
452.93	7389.07
453.13	6721.43
453.34	6942.61
453.55	6991.77
453.76	6938.52
453.97	7307.15
454.18	7116.69
454.39	7212.95
454.60	7040.92
454.81	7262.10
455.01	7298.96
455.22	7020.44
455.43	7282.58
455.64	7411.60
455.85	7616.40
456.06	7683.98
456.27	7573.39
456.48	7360.40
456.68	7485.33
456.89	7581.58
457.10	7724.94
457.31	7620.49
457.52	7634.83
457.73	7907.21
457.94	7894.92
458.14	7694.22
458.35	8097.67
458.56	7747.47
458.77	7909.26
458.98	7808.90
459.19	8003.46
459.39	8208.26
459.60	8095.62
459.81	7892.87
460.02	8222.59
460.23	8060.80
460.44	8320.90
460.65	8204.16
460.85	8351.62
461.06	8265.60
461.27	8136.58
461.48	8544.13
461.69	8634.24
461.89	8347.52
462.10	8372.10
462.31	8486.78
462.52	8523.65
462.73	8796.03
462.94	8894.33
463.14	8773.50
463.35	8783.74
463.56	9078.65
463.77	9232.24
463.98	8888.18
464.18	9078.65
464.39	9002.87
464.60	9146.23
464.81	9250.67
465.02	9211.76
465.23	9330.55
465.43	9183.09
465.64	9553.77
465.85	9373.55
466.06	9432.94
466.27	9705.32
466.47	9703.28
466.68	9623.41
466.89	9678.70
467.10	9832.30
467.30	9547.63
467.51	9897.83
467.72	10008.42
467.93	9752.43
468.14	10012.52
468.34	10010.47
468.55	10227.56
468.76	10336.10
468.97	10059.62
469.17	10588.00
469.38	10436.45
469.59	10616.67
469.80	10538.85
470.01	10475.36
470.21	10583.90
470.42	10766.17
470.63	10870.62
470.84	10575.71
471.04	11005.78
471.25	11126.61
471.46	10964.82
471.67	11419.47
471.87	11169.62
472.08	11353.94
472.29	11732.81
472.50	11124.57
472.70	11392.85
472.91	11364.18
473.12	11779.92
473.33	11571.02
473.53	11865.93
473.74	11798.35
473.95	11859.79
474.16	11888.46
474.36	11872.07
474.57	12193.61
474.78	12367.68
474.99	12291.91
475.19	12246.85
475.40	12689.21
475.61	12560.19
475.81	12801.85
476.02	12885.82
476.23	12717.89
476.44	12750.65
476.64	13090.62
476.85	13346.61
477.06	13039.42
477.27	13213.49
477.47	13330.23
477.68	13446.96
477.89	13752.11
478.09	13569.84
478.30	13762.35
478.51	13725.49
478.71	13883.18
478.92	13879.08
479.13	14262.05
479.34	14022.44
479.54	14282.53
479.75	14305.06
479.96	14343.97
480.16	14473.00
480.37	14436.13
480.58	14622.50
480.78	14909.21
480.99	14972.70
481.20	15085.34
481.41	15023.90
481.61	15085.34
481.82	15445.78
482.03	15240.98
482.23	15265.56
482.44	15595.28
482.65	15767.31
482.85	15589.14
483.06	15726.35
483.27	15838.99
483.47	15828.75
483.68	15920.91
483.89	15882.00
484.09	15855.37
484.30	16224.01
484.51	16574.21
484.71	16549.64
484.92	16457.48
485.13	16828.16
485.33	16606.98
485.54	16783.10
485.75	17018.62
485.95	17125.11
486.16	16944.89
486.37	17035.00
486.57	17000.19
486.78	17153.79
486.98	17110.78
487.19	17360.63
487.40	17424.12
487.60	17647.35
487.81	17835.76
488.02	17725.17
488.22	17876.72
488.43	17905.39
488.64	17868.53
488.84	18089.71
489.05	18435.81
489.25	18030.32
489.46	18460.39
489.67	18411.24
489.87	18663.14
490.08	18554.60
490.29	18634.47
490.49	18933.47
490.70	18994.91
490.90	19232.47
491.11	19035.87
491.32	19003.10
491.52	19259.10
491.73	19093.21
491.94	19125.98
492.14	19279.58
492.35	19470.04
492.55	19623.64
492.76	19607.25
492.97	19656.40
493.17	19621.59
493.38	19881.68
493.58	20432.58
493.79	20072.14
494.00	20102.86
494.20	20094.67
494.41	20252.36
494.61	20367.05
494.82	20268.75
495.02	20401.86
495.23	20551.37
495.44	20768.45
495.64	20668.10
495.85	20731.59
496.05	21200.57
496.26	20977.34
496.47	21104.32
496.67	21063.36
496.88	21380.79
497.08	21104.32
497.29	21438.14
497.49	21132.99
497.70	21661.37
497.91	21499.58
498.11	21761.72
498.32	21526.20
498.52	21976.75
498.73	22021.81
498.93	21925.55
499.14	22075.06
499.34	22089.39
499.55	22251.18
499.76	21937.84
499.96	22054.58
500.17	22294.19
500.37	22472.36
500.58	22093.49
500.78	22378.15
500.99	22544.04
501.19	22720.17
501.40	22595.24
501.60	22226.60
501.81	22759.08
502.02	22449.83
502.22	22582.95
502.43	23004.83
502.63	22916.77
502.84	23117.47
503.04	22875.81
503.25	23002.78
503.45	22978.21
503.66	23258.78
503.86	23332.51
504.07	23352.99
504.27	23133.86
504.48	23584.41
504.68	23557.78
504.89	23889.56
505.09	23955.09
505.30	23690.90
505.50	23617.18
505.71	23836.31
505.91	24008.34
506.12	23971.47
506.32	23852.69
506.53	23969.43
506.73	23916.18
506.94	24077.97
507.14	24512.14
507.35	24256.14
507.55	24000.15
507.76	24639.11
507.96	24225.42
508.17	24448.65
508.37	24438.41
508.58	24655.50
508.78	24657.54
508.99	24968.84
509.19	24776.33
509.40	24639.11
509.60	24653.45
509.81	24884.87
510.01	24680.07
510.22	25020.03
510.42	25165.44
510.63	24862.34
510.83	24997.51
511.04	25167.49
511.24	25554.55
511.44	25323.13
511.65	25185.92
511.85	25112.19
512.06	25253.50
512.26	25470.59
512.47	25456.25
512.67	25372.28
512.88	25532.03
513.08	25396.86
513.29	25644.66
513.49	25763.45
513.69	25865.85
513.90	26021.49
514.10	25749.11
514.31	25763.45
514.51	25970.29
514.72	25679.48
514.92	25833.08
515.13	25988.72
515.33	26154.61
515.53	26263.15
515.74	26691.18
515.94	26343.02
516.15	26361.45
516.35	26508.91
516.56	26705.51
516.76	26461.80
516.96	26707.56
517.17	27037.28
517.37	26871.40
517.58	26703.46
517.78	26857.06
517.99	27078.24
518.19	27258.46
518.39	27315.81
518.60	27254.37
518.80	27178.59
519.01	27379.29
519.21	27317.86
519.41	27207.26
519.62	27272.80
519.82	27872.85
520.03	27807.32
520.23	27778.65
520.43	27459.16
520.64	28075.60
520.84	28032.60
521.05	27942.49
521.25	28098.13
521.45	28020.31
521.66	28227.15
521.86	28429.90
522.07	28335.70
522.27	28442.19
522.47	28628.56
522.68	28874.31
522.88	28415.57
523.08	29228.61
523.29	28909.13
523.49	28896.84
523.70	28767.82
523.90	29128.26
524.10	28831.30
524.31	29566.52
524.51	29161.03
524.71	29759.03
524.92	29408.83
525.12	29748.79
525.33	29464.13
525.53	29457.98
525.73	30051.89
525.94	29836.86
526.14	30101.04
526.34	30027.32
526.55	30144.05
526.75	30107.19
526.95	30230.07
527.16	30332.47
527.36	30617.13
527.56	30715.44
527.77	30877.22
527.97	30731.82
528.17	30590.51
528.38	30998.06
528.58	31209.00
528.78	30998.06
528.99	30920.23
529.19	31424.03
529.39	31127.08
529.60	31690.27
529.80	31614.49
530.00	31565.34
530.21	32052.76
530.41	31981.08
530.61	31856.15
530.82	31972.89
531.02	32101.91
531.22	32488.98
531.43	32265.75
531.63	32599.57
531.83	32581.13
532.04	33072.65
532.24	32431.63
532.44	32847.37
532.64	32722.44
532.85	33099.27
533.05	33396.23
533.25	33398.27
533.46	33086.98
533.66	33560.06
533.86	33463.81
534.07	33848.83
534.27	33809.92
534.47	33994.23
534.67	34127.35
534.88	33840.64
535.08	33992.19
535.28	34205.17
535.49	34293.24
535.69	34700.78
535.89	34559.47
536.09	34672.11
536.30	34727.41
536.50	34803.18
536.70	35063.27
536.91	34696.69
537.11	34665.97
537.31	35106.28
537.51	35319.27
537.72	35780.06
537.92	35792.35
538.12	35958.24
538.32	35853.79
538.53	36072.92
538.73	35636.70
538.93	35749.34
539.13	36134.36
539.34	36230.62
539.54	35933.66
539.74	36625.87
539.94	36160.98
540.15	36257.24
540.35	36802.00
540.55	36468.18
540.75	36679.12
540.96	36787.66
541.16	36824.53
541.36	37453.25
541.56	36961.74
541.77	37418.44
541.97	37406.15
542.17	37502.40
542.37	37574.08
542.58	37465.54
542.78	37324.23
542.98	37301.70
543.18	37701.06
543.38	37721.54
543.59	38374.84
543.79	37690.82
543.99	38010.30
544.19	38018.49
544.40	38163.90
544.60	38340.02
544.80	38417.85
545.00	38464.95
545.20	38577.59
545.41	38524.34
545.61	38450.61
545.81	38727.09
546.01	38548.92
546.21	38831.54
546.42	38768.05
546.62	38927.79
546.82	38696.37
547.02	39218.60
547.22	39157.16
547.43	38796.72
547.63	38944.17
547.83	39607.72
548.03	39067.05
548.23	39263.66
548.44	39325.10
548.64	39314.86
548.84	39570.85
549.04	39308.71
549.24	39321.00
549.45	39488.93
549.65	39454.12
549.85	39529.89
550.05	40142.24
550.25	39697.83
550.45	40275.35
550.66	40168.86
550.86	39843.23
551.06	40428.95
551.26	40301.98
551.46	40568.21
551.66	39826.85
551.87	40062.36
552.07	40416.66
552.27	40465.81
552.47	40469.91
552.67	40349.08
552.87	40183.19
553.07	40582.55
553.28	40428.95
553.48	40420.76
553.68	40576.40
553.88	41276.81
554.08	40476.05
554.28	40887.70
554.48	41108.88
554.69	40721.81
554.89	40787.35
555.09	41010.57
555.29	40687.00
555.49	40967.57
555.69	40967.57
555.89	41344.39
556.10	41278.86
556.30	40775.06
556.50	41164.17
556.70	41182.60
556.90	41317.77
557.10	41448.84
557.30	40922.51
557.50	41739.65
557.70	41629.06
557.91	41670.02
558.11	41534.85
558.31	41706.88
558.51	41366.92
558.71	41524.61
558.91	41520.52
559.11	41440.65
559.31	41502.09
559.51	41463.18
559.72	41584.01
559.92	41780.61
560.12	41878.91
560.32	41954.69
560.52	41348.49
560.72	41833.86
560.92	41655.68
561.12	41639.30
561.32	41799.04
561.52	41790.85
561.72	42032.51
561.93	41719.17
562.13	42034.56
562.33	41665.92
562.53	42575.22
562.73	42061.18
562.93	42032.51
563.13	42366.33
563.33	42268.03
563.53	42538.36
563.73	41895.30
563.93	42399.10
564.13	42521.98
564.33	42435.96
564.53	41895.30
564.74	42151.29
564.94	41719.17
565.14	42317.18
565.34	42341.75
565.54	42546.55
565.74	42640.76
565.94	42311.03
566.14	42898.80
566.34	42702.20
566.54	42902.90
566.74	42392.95
566.94	43199.85
567.14	42745.20
567.34	42440.06
567.54	42902.90
567.74	42745.20
567.94	42173.82
568.14	42993.01
568.34	43156.85
568.54	42517.88
568.74	43253.10
568.94	42628.47
569.14	43005.30
569.34	43101.55
569.54	42538.36
569.75	42915.19
569.95	43083.12
570.15	43285.87
570.35	43394.41
570.55	43203.95
570.75	43132.27
570.95	43431.27
571.15	43353.45
571.35	43582.82
571.55	43607.40
571.75	42720.63
571.95	43429.23
572.15	43378.03
572.35	43277.68
572.55	43459.94
572.75	42972.53
572.95	43554.15
573.15	43337.07
573.35	43822.44
573.55	43496.81
573.75	43634.02
573.95	43642.21
574.15	43486.57
574.35	43754.85
574.55	43556.20
574.75	43752.80
574.95	43492.71
575.15	43763.04
575.34	43883.87
575.54	44109.15
575.74	44131.68
575.94	43879.78
576.14	43896.16
576.34	44680.53
576.54	44363.10
576.74	44168.54
576.94	44123.49
577.14	44531.03
577.34	44563.80
577.54	43990.37
577.74	44318.04
577.94	44373.34
578.14	44369.24
578.34	44270.94
578.54	44019.04
578.74	44363.10
578.94	44674.39
579.14	44029.28
579.34	44459.35
579.54	44717.40
579.74	44696.92
579.94	44485.98
580.13	44967.25
580.33	44266.84
580.53	45088.08
580.73	45020.50
580.93	44838.23
581.13	44778.84
581.33	45393.23
581.53	45114.70
581.73	45313.36
581.93	45688.13
582.13	45301.07
582.33	45176.14
582.53	45077.84
582.73	45129.04
582.92	45266.25
583.12	45346.12
583.32	45569.35
583.52	45268.30
583.72	45512.01
583.92	45585.74
584.12	45389.13
584.32	46095.68
584.52	45686.09
584.72	45806.92
584.92	45641.03
585.11	46218.56
585.31	45671.75
585.51	46216.51
585.71	45706.57
585.91	46159.17
586.11	45774.15
586.31	46138.69
586.51	45716.81
586.71	46204.22
586.91	46232.89
587.10	46134.59
587.30	46767.41
587.50	46406.97
587.70	46570.81
587.90	46341.44
588.10	46961.97
588.30	46544.19
588.50	46851.38
588.69	46581.05
