SpectraSuite Data File
++++++++++++++++++++++++++++++++++++
Date: Fri Jun 02 14:51:06 CEST 2017
User: INFO_000
Dark Spectrum Present: No
Reference Spectrum Present: No
Number of Sampled Component Spectra: 1
Spectrometers: USB4H00879
Integration Time (usec): 80000 (USB4H00879)
Spectra Averaged: 1 (USB4H00879)
Boxcar Smoothing: 0 (USB4H00879)
Correct for Electrical Dark: No (USB4H00879)
Strobe/Lamp Enabled: No (USB4H00879)
Correct for Detector Non-linearity: No (USB4H00879)
Correct for Stray Light: No (USB4H00879)
Number of Pixels in Processed Spectrum: 3648
>>>>>Begin Processed Spectral Data<<<<<
345.13	1255.40
345.34	1255.40
345.56	1255.40
345.78	1247.21
345.99	1318.89
346.21	1759.21
346.42	1636.33
346.64	1624.04
346.86	1839.08
347.07	1683.43
347.29	1705.96
347.50	1630.18
347.72	1654.76
347.94	1775.59
348.15	1550.31
348.37	1597.42
348.59	1724.39
348.80	1757.16
349.02	1660.90
349.23	1769.44
349.45	1703.91
349.67	1804.26
349.88	1710.05
350.10	1857.51
350.31	1722.34
350.53	1732.58
350.75	1828.84
350.96	1601.51
351.18	1722.34
351.39	1759.21
351.61	1712.10
351.82	1753.06
352.04	1726.44
352.26	1683.43
352.47	1800.16
352.69	1761.25
352.90	1626.09
353.12	1730.53
353.34	1740.77
353.55	1755.11
353.77	1736.68
353.98	1712.10
354.20	1646.57
354.41	1824.74
354.63	1765.35
354.85	1822.69
355.06	1769.44
355.28	1617.90
355.49	1693.67
355.71	1710.05
355.92	1652.71
356.14	1712.10
356.35	1746.92
356.57	1681.38
356.79	1765.35
357.00	1699.81
357.22	1710.05
357.43	1681.38
357.65	1781.73
357.86	1665.00
358.08	1656.81
358.29	1728.49
358.51	1679.33
358.72	1736.68
358.94	1730.53
359.16	1718.25
359.37	1685.48
359.59	1722.34
359.80	1724.39
360.02	1800.16
360.23	1736.68
360.45	1726.44
360.66	1748.97
360.88	1646.57
361.09	1695.72
361.31	1767.40
361.52	1701.86
361.74	1820.64
361.95	1832.93
362.17	1726.44
362.38	1810.40
362.60	1658.85
362.81	1757.16
363.03	1652.71
363.24	1636.33
363.46	1841.12
363.67	1718.25
363.89	1759.21
364.10	1687.53
364.32	1648.61
364.53	1800.16
364.75	1650.66
364.96	1822.69
365.18	1703.91
365.39	1744.87
365.61	1650.66
365.82	1859.56
366.04	1740.77
366.25	1671.14
366.47	1744.87
366.68	1648.61
366.90	1624.04
367.11	1773.54
367.33	1808.36
367.54	1736.68
367.76	1656.81
367.97	1771.49
368.19	1665.00
368.40	1740.77
368.62	1679.33
368.83	1630.18
369.05	1777.64
369.26	1697.77
369.48	1677.29
369.69	1716.20
369.91	1728.49
370.12	1732.58
370.33	1773.54
370.55	1703.91
370.76	1669.09
370.98	1773.54
371.19	1662.95
371.41	1640.42
371.62	1656.81
371.84	1646.57
372.05	1761.25
372.27	1660.90
372.48	1732.58
372.69	1710.05
372.91	1765.35
373.12	1728.49
373.34	1685.48
373.55	1753.06
373.77	1798.12
373.98	1665.00
374.20	1705.96
374.41	1816.55
374.62	1716.20
374.84	1642.47
375.05	1732.58
375.27	1763.30
375.48	1724.39
375.70	1609.70
375.91	1734.63
376.12	1722.34
376.34	1697.77
376.55	1677.29
376.77	1728.49
376.98	1675.24
377.19	1601.51
377.41	1677.29
377.62	1691.62
377.84	1732.58
378.05	1810.40
378.27	1673.19
378.48	1757.16
378.69	1851.36
378.91	1765.35
379.12	1650.66
379.34	1687.53
379.55	1777.64
379.76	1740.77
379.98	1689.57
380.19	1662.95
380.41	1718.25
380.62	1716.20
380.83	1714.15
381.05	1591.27
381.26	1822.69
381.47	1708.01
381.69	1705.96
381.90	1763.30
382.12	1763.30
382.33	1648.61
382.54	1755.11
382.76	1757.16
382.97	1748.97
383.19	1611.75
383.40	1705.96
383.61	1734.63
383.83	1685.48
384.04	1603.56
384.25	1748.97
384.47	1748.97
384.68	1726.44
384.89	1621.99
385.11	1640.42
385.32	1714.15
385.54	1665.00
385.75	1677.29
385.96	1648.61
386.18	1679.33
386.39	1726.44
386.60	1671.14
386.82	1705.96
387.03	1675.24
387.24	1765.35
387.46	1693.67
387.67	1726.44
387.88	1804.26
388.10	1646.57
388.31	1701.86
388.52	1742.82
388.74	1753.06
388.95	1630.18
389.16	1712.10
389.38	1642.47
389.59	1769.44
389.80	1804.26
390.02	1699.81
390.23	1771.49
390.44	1673.19
390.66	1662.95
390.87	1613.80
391.08	1720.29
391.30	1771.49
391.51	1669.09
391.72	1787.88
391.94	1695.72
392.15	1685.48
392.36	1687.53
392.58	1679.33
392.79	1798.12
393.00	1662.95
393.22	1695.72
393.43	1769.44
393.64	1890.28
393.85	1787.88
394.07	1695.72
394.28	1703.91
394.49	1736.68
394.71	1753.06
394.92	1765.35
395.13	1589.22
395.35	1701.86
395.56	1714.15
395.77	1724.39
395.98	1669.09
396.20	1738.73
396.41	1683.43
396.62	1714.15
396.84	1703.91
397.05	1632.23
397.26	1658.85
397.47	1744.87
397.69	1665.00
397.90	1849.32
398.11	1775.59
398.32	1624.04
398.54	1708.01
398.75	1699.81
398.96	1650.66
399.18	1794.02
399.39	1683.43
399.60	1710.05
399.81	1658.85
400.03	1568.74
400.24	1929.19
400.45	1736.68
400.66	1697.77
400.88	1697.77
401.09	1912.80
401.30	1695.72
401.51	1855.46
401.73	1796.07
401.94	1794.02
402.15	1687.53
402.36	1740.77
402.58	1789.92
402.79	1753.06
403.00	1624.04
403.21	1781.73
403.43	1798.12
403.64	1740.77
403.85	1761.25
404.06	1814.50
404.27	1738.73
404.49	1691.62
404.70	1667.05
404.91	1800.16
405.12	1796.07
405.34	1822.69
405.55	1814.50
405.76	1644.52
405.97	1699.81
406.19	1769.44
406.40	1662.95
406.61	1765.35
406.82	1609.70
407.03	1724.39
407.25	1601.51
407.46	1773.54
407.67	1773.54
407.88	1781.73
408.09	1753.06
408.31	1722.34
408.52	1665.00
408.73	1636.33
408.94	1679.33
409.15	1738.73
409.37	1703.91
409.58	1722.34
409.79	1703.91
410.00	1800.16
410.21	1722.34
410.43	1781.73
410.64	1685.48
410.85	1775.59
411.06	1718.25
411.27	1691.62
411.48	1800.16
411.70	1679.33
411.91	1705.96
412.12	1746.92
412.33	1775.59
412.54	1601.51
412.76	1787.88
412.97	1753.06
413.18	1652.71
413.39	1812.45
413.60	1785.83
413.81	1650.66
414.03	1667.05
414.24	1697.77
414.45	1814.50
414.66	1599.46
414.87	1673.19
415.08	1746.92
415.30	1728.49
415.51	1781.73
415.72	1691.62
415.93	1652.71
416.14	1708.01
416.35	1708.01
416.56	1744.87
416.78	1708.01
416.99	1671.14
417.20	1834.98
417.41	1771.49
417.62	1730.53
417.83	1781.73
418.04	1673.19
418.26	1730.53
418.47	1722.34
418.68	1673.19
418.89	1837.03
419.10	1832.93
419.31	1689.57
419.52	1738.73
419.73	1650.66
419.95	1785.83
420.16	1683.43
420.37	1632.23
420.58	1839.08
420.79	1689.57
421.00	1632.23
421.21	1691.62
421.42	1652.71
421.63	1675.24
421.85	1677.29
422.06	1667.05
422.27	1726.44
422.48	1728.49
422.69	1726.44
422.90	1660.90
423.11	1656.81
423.32	1703.91
423.53	1808.36
423.75	1730.53
423.96	1761.25
424.17	1843.17
424.38	1763.30
424.59	1636.33
424.80	1714.15
425.01	1693.67
425.22	1546.22
425.43	1765.35
425.64	1822.69
425.85	1802.21
426.06	1796.07
426.28	1660.90
426.49	1640.42
426.70	1613.80
426.91	1705.96
427.12	1708.01
427.33	1753.06
427.54	1652.71
427.75	1667.05
427.96	1755.11
428.17	1810.40
428.38	1697.77
428.59	1777.64
428.80	1730.53
429.01	1744.87
429.23	1648.61
429.44	1722.34
429.65	1748.97
429.86	1722.34
430.07	1591.27
430.28	1708.01
430.49	1757.16
430.70	1761.25
430.91	1748.97
431.12	1648.61
431.33	1716.20
431.54	1789.92
431.75	1773.54
431.96	1689.57
432.17	1677.29
432.38	1742.82
432.59	1804.26
432.80	1828.84
433.01	1697.77
433.22	1648.61
433.43	1759.21
433.64	1734.63
433.85	1691.62
434.06	1703.91
434.27	1630.18
434.49	1609.70
434.70	1748.97
434.91	1662.95
435.12	1687.53
435.33	1665.00
435.54	1634.28
435.75	1599.46
435.96	1613.80
436.17	1742.82
436.38	1730.53
436.59	1640.42
436.80	1619.94
437.01	1773.54
437.22	1753.06
437.43	1695.72
437.64	1621.99
437.85	1740.77
438.06	1763.30
438.27	1779.68
438.48	1675.24
438.69	1720.29
438.90	1669.09
439.11	1665.00
439.32	1763.30
439.53	1634.28
439.74	1675.24
439.95	1691.62
440.16	1675.24
440.37	1687.53
440.57	1679.33
440.78	1806.31
440.99	1650.66
441.20	1712.10
441.41	1665.00
441.62	1626.09
441.83	1714.15
442.04	1652.71
442.25	1667.05
442.46	1662.95
442.67	1654.76
442.88	1812.45
443.09	1683.43
443.30	1601.51
443.51	1646.57
443.72	1695.72
443.93	1662.95
444.14	1755.11
444.35	1648.61
444.56	1691.62
444.77	1708.01
444.98	1763.30
445.19	1763.30
445.40	1738.73
445.61	1652.71
445.81	1681.38
446.02	1783.78
446.23	1675.24
446.44	1665.00
446.65	1697.77
446.86	1695.72
447.07	1865.70
447.28	1621.99
447.49	1738.73
447.70	1652.71
447.91	1806.31
448.12	1671.14
448.33	1734.63
448.54	1654.76
448.74	1685.48
448.95	1669.09
449.16	1837.03
449.37	1744.87
449.58	1710.05
449.79	1773.54
450.00	1685.48
450.21	1648.61
450.42	1691.62
450.63	1705.96
450.84	1716.20
451.05	1644.52
451.25	1693.67
451.46	1646.57
451.67	1832.93
451.88	1705.96
452.09	1638.38
452.30	1621.99
452.51	1654.76
452.72	1736.68
452.93	1810.40
453.13	1753.06
453.34	1646.57
453.55	1679.33
453.76	1656.81
453.97	1726.44
454.18	1591.27
454.39	1761.25
454.60	1689.57
454.81	1744.87
455.01	1667.05
455.22	1607.66
455.43	1628.14
455.64	1724.39
455.85	1683.43
456.06	1728.49
456.27	1716.20
456.48	1748.97
456.68	1783.78
456.89	1779.68
457.10	1636.33
457.31	1712.10
457.52	1759.21
457.73	1710.05
457.94	1699.81
458.14	1619.94
458.35	1734.63
458.56	1728.49
458.77	1732.58
458.98	1660.90
459.19	1714.15
459.39	1732.58
459.60	1665.00
459.81	1740.77
460.02	1640.42
460.23	1726.44
460.44	1689.57
460.65	1734.63
460.85	1761.25
461.06	1628.14
461.27	1732.58
461.48	1681.38
461.69	1753.06
461.89	1671.14
462.10	1687.53
462.31	1585.13
462.52	1570.79
462.73	1648.61
462.94	1654.76
463.14	1658.85
463.35	1654.76
463.56	1761.25
463.77	1730.53
463.98	1605.61
464.18	1628.14
464.39	1779.68
464.60	1673.19
464.81	1656.81
465.02	1708.01
465.23	1722.34
465.43	1738.73
465.64	1607.66
465.85	1621.99
466.06	1689.57
466.27	1675.24
466.47	1679.33
466.68	1701.86
466.89	1630.18
467.10	1562.60
467.30	1642.47
467.51	1662.95
467.72	1757.16
467.93	1535.98
468.14	1693.67
468.34	1783.78
468.55	1724.39
468.76	1769.44
468.97	1712.10
469.17	1730.53
469.38	1820.64
469.59	1804.26
469.80	1695.72
470.01	1701.86
470.21	1570.79
470.42	1656.81
470.63	1699.81
470.84	1830.88
471.04	1714.15
471.25	1808.36
471.46	1761.25
471.67	1726.44
471.87	1683.43
472.08	1679.33
472.29	1611.75
472.50	1773.54
472.70	1691.62
472.91	1568.74
473.12	1624.04
473.33	1628.14
473.53	1708.01
473.74	1587.18
473.95	1667.05
474.16	1703.91
474.36	1630.18
474.57	1742.82
474.78	1712.10
474.99	1746.92
475.19	1687.53
475.40	1693.67
475.61	1757.16
475.81	1712.10
476.02	1687.53
476.23	1716.20
476.44	1632.23
476.64	1744.87
476.85	1705.96
477.06	1679.33
477.27	1654.76
477.47	1736.68
477.68	1665.00
477.89	1667.05
478.09	1746.92
478.30	1662.95
478.51	1689.57
478.71	1591.27
478.92	1630.18
479.13	1683.43
479.34	1570.79
479.54	1703.91
479.75	1740.77
479.96	1722.34
480.16	1662.95
480.37	1656.81
480.58	1724.39
480.78	1794.02
480.99	1683.43
481.20	1740.77
481.41	1726.44
481.61	1742.82
481.82	1785.83
482.03	1652.71
482.23	1646.57
482.44	1789.92
482.65	1937.38
482.85	1681.38
483.06	1621.99
483.27	1787.88
483.47	1714.15
483.68	1705.96
483.89	1710.05
484.09	1748.97
484.30	1710.05
484.51	1814.50
484.71	1646.57
484.92	1705.96
485.13	1667.05
485.33	1697.77
485.54	1609.70
485.75	1681.38
485.95	1746.92
486.16	1695.72
486.37	1705.96
486.57	1617.90
486.78	1710.05
486.98	1740.77
487.19	1716.20
487.40	1755.11
487.60	1665.00
487.81	1724.39
488.02	1589.22
488.22	1671.14
488.43	1769.44
488.64	1714.15
488.84	1726.44
489.05	1724.39
489.25	1683.43
489.46	1701.86
489.67	1691.62
489.87	1714.15
490.08	1742.82
490.29	1599.46
490.49	1787.88
490.70	1757.16
490.90	1695.72
491.11	1691.62
491.32	1648.61
491.52	1705.96
491.73	1691.62
491.94	1675.24
492.14	1613.80
492.35	1716.20
492.55	1748.97
492.76	1621.99
492.97	1581.03
493.17	1703.91
493.38	1701.86
493.58	1808.36
493.79	1714.15
494.00	1630.18
494.20	1642.47
494.41	1748.97
494.61	1685.48
494.82	1683.43
495.02	1642.47
495.23	1724.39
495.44	1691.62
495.64	1789.92
495.85	1681.38
496.05	1751.01
496.26	1773.54
496.47	1796.07
496.67	1677.29
496.88	1816.55
497.08	1675.24
497.29	1703.91
497.49	1736.68
497.70	1732.58
497.91	1626.09
498.11	1806.31
498.32	1708.01
498.52	1773.54
498.73	1728.49
498.93	1732.58
499.14	1757.16
499.34	1701.86
499.55	1751.01
499.76	1634.28
499.96	1718.25
500.17	1730.53
500.37	1728.49
500.58	1695.72
500.78	1654.76
500.99	1691.62
501.19	1662.95
501.40	1761.25
501.60	1619.94
501.81	1607.66
502.02	1726.44
502.22	1703.91
502.43	1687.53
502.63	1869.80
502.84	1791.97
503.04	1681.38
503.25	1654.76
503.45	1751.01
503.66	1714.15
503.86	1810.40
504.07	1736.68
504.27	1644.52
504.48	1660.90
504.68	1685.48
504.89	1855.46
505.09	1673.19
505.30	1726.44
505.50	1728.49
505.71	1685.48
505.91	1695.72
506.12	1705.96
506.32	1679.33
506.53	1638.38
506.73	1710.05
506.94	1691.62
507.14	1718.25
507.35	1691.62
507.55	1781.73
507.76	1701.86
507.96	1660.90
508.17	1761.25
508.37	1650.66
508.58	1728.49
508.78	1710.05
508.99	1822.69
509.19	1822.69
509.40	1638.38
509.60	1654.76
509.81	1751.01
510.01	1734.63
510.22	1773.54
510.42	1761.25
510.63	1837.03
510.83	1699.81
511.04	1691.62
511.24	1785.83
511.44	1632.23
511.65	1646.57
511.85	1716.20
512.06	1716.20
512.26	1732.58
512.47	1716.20
512.67	1630.18
512.88	1746.92
513.08	1669.09
513.29	1742.82
513.49	1646.57
513.69	1673.19
513.90	1667.05
514.10	1697.77
514.31	1728.49
514.51	1675.24
514.72	1648.61
514.92	1738.73
515.13	1617.90
515.33	1703.91
515.53	1665.00
515.74	1757.16
515.94	1763.30
516.15	1812.45
516.35	1673.19
516.56	1673.19
516.76	1601.51
516.96	1585.13
517.17	1732.58
517.37	1753.06
517.58	1652.71
517.78	1683.43
517.99	1720.29
518.19	1767.40
518.39	1777.64
518.60	1773.54
518.80	1679.33
519.01	1769.44
519.21	1660.90
519.41	1710.05
519.62	1644.52
519.82	1738.73
520.03	1677.29
520.23	1630.18
520.43	1609.70
520.64	1785.83
520.84	1781.73
521.05	1652.71
521.25	1751.01
521.45	1767.40
521.66	1681.38
521.86	1759.21
522.07	1712.10
522.27	1757.16
522.47	1615.85
522.68	1650.66
522.88	1699.81
523.08	1732.58
523.29	1646.57
523.49	1689.57
523.70	1619.94
523.90	1677.29
524.10	1789.92
524.31	1687.53
524.51	1513.45
524.71	1789.92
524.92	1683.43
525.12	1611.75
525.33	1728.49
525.53	1652.71
525.73	1744.87
525.94	1667.05
526.14	1699.81
526.34	1638.38
526.55	1716.20
526.75	1679.33
526.95	1806.31
527.16	1652.71
527.36	1710.05
527.56	1740.77
527.77	1669.09
527.97	1775.59
528.17	1740.77
528.38	1677.29
528.58	1654.76
528.78	1673.19
528.99	1675.24
529.19	1724.39
529.39	1628.14
529.60	1626.09
529.80	1667.05
530.00	1679.33
530.21	1748.97
530.41	1634.28
530.61	1722.34
530.82	1705.96
531.02	1662.95
531.22	1679.33
531.43	1640.42
531.63	1675.24
531.83	1761.25
532.04	1736.68
532.24	1640.42
532.44	1642.47
532.64	1816.55
532.85	1720.29
533.05	1611.75
533.25	1638.38
533.46	1689.57
533.66	1753.06
533.86	1665.00
534.07	1691.62
534.27	1632.23
534.47	1767.40
534.67	1685.48
534.88	1703.91
535.08	1757.16
535.28	1712.10
535.49	1626.09
535.69	1798.12
535.89	1732.58
536.09	1785.83
536.30	1765.35
536.50	1626.09
536.70	1781.73
536.91	1667.05
537.11	1798.12
537.31	1712.10
537.51	1673.19
537.72	1673.19
537.92	1722.34
538.12	1681.38
538.32	1748.97
538.53	1621.99
538.73	1642.47
538.93	1757.16
539.13	1667.05
539.34	1777.64
539.54	1699.81
539.74	1775.59
539.94	1695.72
540.15	1785.83
540.35	1681.38
540.55	1675.24
540.75	1642.47
540.96	1665.00
541.16	1712.10
541.36	1779.68
541.56	1652.71
541.77	1800.16
541.97	1779.68
542.17	1621.99
542.37	1804.26
542.58	1722.34
542.78	1789.92
542.98	1726.44
543.18	1722.34
543.38	1722.34
543.59	1681.38
543.79	1679.33
543.99	1617.90
544.19	1695.72
544.40	1787.88
544.60	1705.96
544.80	1679.33
545.00	1613.80
545.20	1777.64
545.41	1697.77
545.61	1591.27
545.81	1734.63
546.01	1714.15
546.21	1658.85
546.42	1779.68
546.62	1771.49
546.82	1638.38
547.02	1591.27
547.22	1736.68
547.43	1767.40
547.63	1753.06
547.83	1701.86
548.03	1654.76
548.23	1759.21
548.44	1691.62
548.64	1662.95
548.84	1736.68
549.04	1613.80
549.24	1900.52
549.45	1806.31
549.65	1603.56
549.85	1740.77
550.05	1683.43
550.25	1626.09
550.45	1775.59
550.66	1755.11
550.86	1613.80
551.06	1718.25
551.26	1658.85
551.46	1689.57
551.66	1722.34
551.87	1693.67
552.07	1619.94
552.27	1726.44
552.47	1812.45
552.67	1665.00
552.87	1716.20
553.07	1673.19
553.28	1734.63
553.48	1757.16
553.68	1675.24
553.88	1798.12
554.08	1665.00
554.28	1656.81
554.48	1658.85
554.69	1677.29
554.89	1761.25
555.09	1673.19
555.29	1658.85
555.49	1662.95
555.69	1697.77
555.89	1658.85
556.10	1748.97
556.30	1683.43
556.50	1765.35
556.70	1701.86
556.90	1712.10
557.10	1775.59
557.30	1687.53
557.50	1667.05
557.70	1689.57
557.91	1583.08
558.11	1699.81
558.31	1804.26
558.51	1687.53
558.71	1802.21
558.91	1714.15
559.11	1662.95
559.31	1587.18
559.51	1759.21
559.72	1716.20
559.92	1634.28
560.12	1687.53
560.32	1761.25
560.52	1769.44
560.72	1744.87
560.92	1845.22
561.12	1742.82
561.32	1695.72
561.52	1638.38
561.72	1918.95
561.93	1736.68
562.13	1683.43
562.33	1646.57
562.53	1777.64
562.73	1691.62
562.93	1681.38
563.13	1810.40
563.33	1785.83
563.53	1757.16
563.73	1736.68
563.93	1818.60
564.13	1824.74
564.33	1736.68
564.53	1728.49
564.74	1691.62
564.94	1720.29
565.14	1736.68
565.34	1769.44
565.54	1724.39
565.74	1652.71
565.94	1679.33
566.14	1728.49
566.34	1757.16
566.54	1796.07
566.74	1781.73
566.94	1697.77
567.14	1665.00
567.34	1734.63
567.54	1710.05
567.74	1742.82
567.94	1714.15
568.14	1671.14
568.34	1808.36
568.54	1628.14
568.74	1675.24
568.94	1728.49
569.14	1781.73
569.34	1744.87
569.54	1697.77
569.75	1652.71
569.95	1685.48
570.15	1738.73
570.35	1736.68
570.55	1603.56
570.75	1708.01
570.95	1705.96
571.15	1693.67
571.35	1699.81
571.55	1716.20
571.75	1683.43
571.95	1681.38
572.15	1695.72
572.35	1726.44
572.55	1667.05
572.75	1667.05
572.95	1599.46
573.15	1751.01
573.35	1775.59
573.55	1738.73
573.75	1736.68
573.95	1869.80
574.15	1771.49
574.35	1716.20
574.55	1681.38
574.75	1689.57
574.95	1703.91
575.15	1697.77
575.34	1638.38
575.54	1603.56
575.74	1669.09
575.94	1712.10
576.14	1613.80
576.34	1730.53
576.54	1632.23
576.74	1718.25
576.94	1599.46
577.14	1744.87
577.34	1757.16
577.54	1660.90
577.74	1691.62
577.94	1695.72
578.14	1607.66
578.34	1783.78
578.54	1621.99
578.74	1726.44
578.94	1677.29
579.14	1689.57
579.34	1689.57
579.54	1703.91
579.74	1736.68
579.94	1650.66
580.13	1726.44
580.33	1638.38
580.53	1710.05
580.73	1626.09
580.93	1753.06
581.13	1689.57
581.33	1636.33
581.53	1763.30
581.73	1665.00
581.93	1671.14
582.13	1742.82
582.33	1765.35
582.53	1597.42
582.73	1748.97
582.92	1687.53
583.12	1722.34
583.32	1597.42
583.52	1734.63
583.72	1814.50
583.92	1712.10
584.12	1728.49
584.32	1705.96
584.52	1626.09
584.72	1605.61
584.92	1667.05
585.11	1716.20
585.31	1732.58
585.51	1648.61
585.71	1714.15
585.91	1834.98
586.11	1669.09
586.31	1720.29
586.51	1667.05
586.71	1761.25
586.91	1654.76
587.10	1765.35
587.30	1841.12
587.50	1683.43
587.70	1646.57
587.90	1724.39
588.10	1740.77
588.30	1714.15
588.50	1683.43
588.69	1710.05
588.89	1771.49
589.09	1830.88
589.29	1630.18
589.49	1658.85
589.69	1576.94
589.89	1746.92
590.08	1691.62
590.28	1753.06
590.48	1705.96
590.68	1761.25
590.88	1683.43
591.08	1687.53
591.28	1687.53
591.47	1720.29
591.67	1603.56
591.87	1683.43
592.07	1798.12
592.27	1669.09
592.47	1728.49
592.67	1755.11
592.86	1703.91
593.06	1703.91
593.26	1763.30
593.46	1703.91
593.66	1609.70
593.86	1773.54
594.05	1814.50
594.25	1736.68
594.45	1705.96
594.65	1910.75
594.85	1787.88
595.05	1693.67
595.24	1712.10
595.44	1703.91
595.64	1634.28
595.84	1746.92
596.04	1744.87
