SpectraSuite Data File
++++++++++++++++++++++++++++++++++++
Date: Fri Jun 02 14:51:07 CEST 2017
User: INFO_000
Dark Spectrum Present: No
Reference Spectrum Present: No
Number of Sampled Component Spectra: 1
Spectrometers: USB4H00879
Integration Time (usec): 80000 (USB4H00879)
Spectra Averaged: 1 (USB4H00879)
Boxcar Smoothing: 0 (USB4H00879)
Correct for Electrical Dark: No (USB4H00879)
Strobe/Lamp Enabled: No (USB4H00879)
Correct for Detector Non-linearity: No (USB4H00879)
Correct for Stray Light: No (USB4H00879)
Number of Pixels in Processed Spectrum: 3648
>>>>>Begin Processed Spectral Data<<<<<
345.13	1273.84
345.34	1273.84
345.56	1273.84
345.78	1273.84
345.99	1322.99
346.21	1728.49
346.42	1744.87
346.64	1695.72
346.86	1834.98
347.07	1695.72
347.29	1650.66
347.50	1589.22
347.72	1675.24
347.94	1738.73
348.15	1599.46
348.37	1632.23
348.59	1712.10
348.80	1626.09
349.02	1732.58
349.23	1812.45
349.45	1763.30
349.67	1785.83
349.88	1781.73
350.10	1875.94
350.31	1794.02
350.53	1800.16
350.75	1984.48
350.96	1699.81
351.18	1824.74
351.39	1839.08
351.61	1753.06
351.82	1855.46
352.04	1863.65
352.26	1736.68
352.47	1875.94
352.69	1906.66
352.90	1718.25
353.12	1773.54
353.34	1853.41
353.55	1810.40
353.77	1802.21
353.98	1791.97
354.20	1781.73
354.41	1918.95
354.63	1896.42
354.85	2027.49
355.06	1824.74
355.28	1787.88
355.49	1894.37
355.71	1859.56
355.92	1853.41
356.14	1902.56
356.35	1855.46
356.57	1771.49
356.79	1968.10
357.00	1796.07
357.22	1875.94
357.43	1794.02
357.65	1875.94
357.86	1839.08
358.08	1861.60
358.29	1861.60
358.51	1916.90
358.72	1931.23
358.94	1877.99
359.16	1931.23
359.37	1898.47
359.59	1957.86
359.80	1990.63
360.02	1896.42
360.23	1931.23
360.45	1937.38
360.66	1880.04
360.88	1773.54
361.09	1851.36
361.31	2015.20
361.52	1857.51
361.74	2039.78
361.95	1943.52
362.17	1908.71
362.38	1994.72
362.60	2023.39
362.81	1916.90
363.03	1896.42
363.24	1886.18
363.46	1980.39
363.67	2021.35
363.89	1970.15
364.10	1916.90
364.32	1925.09
364.53	2029.54
364.75	1927.14
364.96	1861.60
365.18	2011.11
365.39	1998.82
365.61	2011.11
365.82	2060.26
366.04	1978.34
366.25	2007.01
366.47	2088.93
366.68	1957.86
366.90	1955.81
367.11	1990.63
367.33	2002.91
367.54	2084.83
367.76	2060.26
367.97	2086.88
368.19	2017.25
368.40	2088.93
368.62	1869.80
368.83	1906.66
369.05	1976.29
369.26	1914.85
369.48	2011.11
369.69	1961.95
369.91	2033.63
370.12	1904.61
370.33	2105.31
370.55	1949.67
370.76	2043.87
370.98	2123.74
371.19	1947.62
371.41	1920.99
371.62	2070.50
371.84	1925.09
372.05	2146.27
372.27	2078.69
372.48	2097.12
372.69	2035.68
372.91	2133.98
373.12	2107.36
373.34	2076.64
373.55	2054.11
373.77	2166.75
373.98	2090.98
374.20	2133.98
374.41	2176.99
374.62	2093.02
374.84	2064.35
375.05	2056.16
375.27	2103.26
375.48	2234.33
375.70	2166.75
375.91	2211.81
376.12	2209.76
376.34	2150.37
376.55	2170.85
376.77	2187.23
376.98	2129.89
377.19	2140.13
377.41	2140.13
377.62	2205.66
377.84	2240.48
378.05	2308.06
378.27	2140.13
378.48	2207.71
378.69	2318.30
378.91	2260.96
379.12	2252.77
379.34	2187.23
379.55	2308.06
379.76	2207.71
379.98	2209.76
380.19	2191.33
380.41	2228.19
380.62	2289.63
380.83	2277.34
381.05	2224.09
381.26	2260.96
381.47	2224.09
381.69	2240.48
381.90	2424.80
382.12	2265.05
382.33	2328.54
382.54	2301.92
382.76	2314.20
382.97	2377.69
383.19	2252.77
383.40	2332.64
383.61	2346.97
383.83	2289.63
384.04	2344.92
384.25	2338.78
384.47	2367.45
384.68	2332.64
384.89	2295.77
385.11	2346.97
385.32	2342.88
385.54	2332.64
385.75	2299.87
385.96	2379.74
386.18	2320.35
386.39	2363.36
386.60	2373.60
386.82	2398.17
387.03	2310.11
387.24	2475.99
387.46	2394.08
387.67	2371.55
387.88	2488.28
388.10	2316.25
388.31	2502.62
388.52	2568.15
388.74	2510.81
388.95	2471.90
389.16	2414.56
389.38	2394.08
389.59	2510.81
389.80	2566.10
390.02	2551.77
390.23	2613.21
390.44	2521.05
390.66	2531.29
390.87	2418.65
391.08	2533.34
391.30	2592.73
391.51	2572.25
391.72	2713.56
391.94	2586.58
392.15	2633.69
392.36	2607.06
392.58	2631.64
392.79	2514.91
393.00	2602.97
393.22	2643.93
393.43	2746.33
393.64	2731.99
393.85	2725.85
394.07	2629.59
394.28	2643.93
394.49	2658.26
394.71	2725.85
394.92	2828.24
395.13	2678.74
395.35	2650.07
395.56	2746.33
395.77	2682.84
395.98	2699.22
396.20	2750.42
396.41	2815.96
396.62	2797.53
396.84	2754.52
397.05	2854.87
397.26	2830.29
397.47	2963.41
397.69	2758.61
397.90	3041.23
398.11	2848.72
398.32	2830.29
398.54	2807.77
398.75	2869.20
398.96	2854.87
399.18	3014.61
399.39	2906.07
399.60	2957.27
399.81	2858.96
400.03	2985.94
400.24	3178.45
400.45	2990.03
400.66	3080.14
400.88	2985.94
401.09	3145.68
401.30	2910.16
401.51	3151.82
401.73	3119.06
401.94	3055.57
402.15	3022.80
402.36	3030.99
402.58	3088.34
402.79	3078.10
403.00	3174.35
403.21	3147.73
403.43	3219.41
403.64	3141.58
403.85	3082.19
404.06	3184.59
404.27	3090.38
404.49	3074.00
404.70	3096.53
404.91	3155.92
405.12	3223.50
405.34	3174.35
405.55	3291.09
405.76	3006.42
405.97	3166.16
406.19	3403.72
406.40	3278.80
406.61	3325.90
406.82	3237.84
407.03	3286.99
407.25	3231.69
407.46	3405.77
407.67	3477.45
407.88	3323.85
408.09	3254.22
408.31	3368.91
408.52	3479.50
408.73	3276.75
408.94	3334.09
409.15	3422.16
409.37	3551.18
409.58	3424.20
409.79	3477.45
410.00	3514.31
410.21	3330.00
410.43	3493.83
410.64	3317.71
410.85	3469.26
411.06	3323.85
411.27	3475.40
411.48	3534.79
411.70	3561.42
411.91	3485.64
412.12	3614.66
412.33	3442.64
412.54	3585.99
412.76	3629.00
412.97	3561.42
413.18	3444.68
413.39	3504.07
413.60	3620.81
413.81	3600.33
414.03	3602.38
414.24	3534.79
414.45	3686.34
414.66	3559.37
414.87	3608.52
415.08	3565.51
415.30	3755.97
415.51	3629.00
415.72	3745.73
415.93	3583.95
416.14	3725.26
416.35	3706.82
416.56	3637.19
416.78	3794.89
416.99	3745.73
417.20	3657.67
417.41	3774.41
417.62	3708.87
417.83	3733.45
418.04	3649.48
418.26	3846.09
418.47	3737.54
418.68	3852.23
418.89	3719.11
419.10	3895.24
419.31	3815.37
419.52	3923.91
419.73	3868.61
419.95	3907.52
420.16	3846.09
420.37	3844.04
420.58	3975.11
420.79	3719.11
421.00	3973.06
421.21	4065.22
421.42	3911.62
421.63	3946.44
421.85	3975.11
422.06	3932.10
422.27	4069.31
422.48	4130.75
422.69	4011.97
422.90	4073.41
423.11	4114.37
423.32	4054.98
423.53	4253.63
423.75	4190.14
423.96	4198.34
424.17	4089.79
424.38	4360.13
424.59	4290.49
424.80	4300.73
425.01	4276.16
425.22	4138.94
425.43	4288.45
425.64	4394.94
425.85	4386.75
426.06	4505.53
426.28	4302.78
426.49	4196.29
426.70	4388.80
426.91	4294.59
427.12	4487.10
427.33	4386.75
427.54	4376.51
427.75	4614.07
427.96	4526.01
428.17	4466.62
428.38	4548.54
428.59	4612.03
428.80	4579.26
429.01	4605.88
429.23	4679.61
429.44	4837.30
429.65	4853.69
429.86	4634.55
430.07	4669.37
430.28	4802.49
430.49	4831.16
430.70	4911.03
430.91	4841.40
431.12	4771.77
431.33	4982.71
431.54	4958.13
431.75	5005.24
431.96	4890.55
432.17	4902.84
432.38	4990.90
432.59	5103.54
432.80	5091.25
433.01	5042.10
433.22	5162.93
433.43	4995.00
433.64	5162.93
433.85	5017.52
434.06	5248.94
434.27	5193.65
434.49	5285.81
434.70	5310.38
434.91	5341.10
435.12	5357.49
435.33	5250.99
435.54	5402.54
435.75	5187.50
435.96	5443.50
436.17	5121.97
436.38	5306.29
436.59	5439.40
436.80	5451.69
437.01	5787.56
437.22	5627.82
437.43	5484.46
437.64	5277.62
437.85	5781.42
438.06	5599.15
438.27	5590.95
438.48	5601.19
438.69	5734.31
438.90	5599.15
439.11	5547.95
439.32	5762.98
439.53	5719.98
439.74	5773.22
439.95	5849.00
440.16	5685.16
440.37	5756.84
440.57	5693.35
440.78	6066.08
440.99	5875.62
441.20	5908.39
441.41	5822.38
441.62	5959.59
441.83	5658.54
442.04	6006.69
442.25	6096.80
442.46	6000.55
442.67	6029.22
442.88	6387.61
443.09	5904.29
443.30	6213.54
443.51	6086.56
443.72	6295.46
443.93	6018.98
444.14	6234.02
444.35	6029.22
444.56	6123.43
444.77	6184.87
444.98	6225.82
445.19	6256.54
445.40	6348.70
445.61	6180.77
445.81	6487.96
446.02	6330.27
446.23	6424.48
446.44	6227.87
446.65	6262.69
446.86	6463.39
447.07	6576.03
447.28	6674.33
447.49	6582.17
447.70	6492.06
447.91	6420.38
448.12	6371.23
448.33	6629.27
448.54	6604.70
448.74	6614.94
448.95	6598.56
449.16	6645.66
449.37	6809.50
449.58	6588.32
449.79	6926.23
450.00	6514.59
450.21	6909.85
450.42	6821.78
450.63	6879.13
450.84	6793.11
451.05	6795.16
451.25	6954.90
451.46	6733.72
451.67	7085.97
451.88	6936.47
452.09	6895.51
452.30	6797.21
452.51	6959.00
452.72	7131.03
452.93	7397.26
453.13	6938.52
453.34	7049.11
453.55	7036.82
453.76	7083.92
453.97	7436.17
454.18	7057.30
454.39	7327.63
454.60	7292.82
454.81	7212.95
455.01	7409.55
455.22	7034.77
455.43	7460.75
455.64	7483.28
455.85	7520.14
456.06	7655.31
456.27	7589.77
456.48	7575.44
456.68	7380.88
456.89	7557.00
457.10	7604.11
457.31	7567.24
457.52	7686.03
457.73	7622.54
457.94	7944.07
458.14	7741.32
458.35	8124.29
458.56	7976.84
458.77	7802.76
458.98	7946.12
459.19	7804.81
459.39	7890.82
459.60	8146.82
459.81	7968.65
460.02	8261.51
460.23	8179.59
460.44	8079.24
460.65	8159.11
460.85	8345.47
461.06	8112.00
461.27	8058.76
461.48	8363.90
461.69	8318.85
461.89	8120.20
462.10	8406.91
462.31	8265.60
462.52	8359.81
462.73	8417.15
462.94	8615.80
463.14	8759.16
463.35	8454.02
463.56	8900.47
463.77	8824.70
463.98	8654.72
464.18	8675.20
464.39	8884.09
464.60	9187.19
464.81	8886.14
465.02	8916.86
465.23	9252.72
465.43	8920.95
465.64	9238.39
465.85	9291.63
466.06	9099.13
466.27	9508.72
466.47	9330.55
466.68	9441.14
466.89	9529.20
467.10	9744.24
467.30	9357.17
467.51	9615.21
467.72	9725.80
467.93	9471.86
468.14	9705.32
468.34	9807.72
468.55	9883.50
468.76	10030.95
468.97	9826.15
469.17	10024.81
469.38	10014.57
469.59	10172.26
469.80	10094.44
470.01	10252.13
470.21	10272.61
470.42	10477.41
470.63	10522.46
470.84	10452.83
471.04	10700.64
471.25	10678.11
471.46	10669.92
471.67	10809.18
471.87	10860.38
472.08	10936.15
472.29	11216.72
472.50	10876.76
472.70	11009.88
472.91	11188.05
473.12	11401.04
473.33	11331.41
473.53	11442.00
473.74	11298.64
473.95	11644.75
474.16	11861.84
474.36	11730.76
474.57	11861.84
474.78	12228.42
474.99	11982.67
475.19	12021.58
475.40	12263.24
475.61	12269.38
475.81	12552.00
476.02	12619.58
476.23	12488.51
476.44	12838.72
476.64	12783.42
476.85	13027.13
477.06	12881.72
477.27	13219.64
477.47	13221.69
477.68	13100.86
477.89	13338.42
478.09	13399.86
478.30	13569.84
478.51	13530.93
478.71	13649.71
478.92	13811.50
479.13	14065.45
479.34	14079.79
479.54	14231.33
479.75	14155.56
479.96	13883.18
480.16	14227.24
480.37	14343.97
480.58	14360.36
480.78	14890.78
480.99	14559.01
481.20	14653.22
481.41	15007.52
481.61	15169.30
481.82	15251.22
482.03	15136.54
482.23	15267.61
482.44	15564.56
482.65	15707.92
482.85	15582.99
483.06	15886.09
483.27	15732.50
483.47	15922.96
483.68	15994.64
483.89	16172.81
484.09	16346.89
484.30	16301.83
484.51	16477.96
484.71	16606.98
484.92	16396.04
485.13	16854.78
485.33	16844.54
485.54	16695.04
485.75	17215.23
485.95	17372.92
486.16	17430.26
486.37	17166.07
486.57	17121.02
486.78	17297.14
486.98	17446.65
487.19	17526.52
487.40	17616.63
487.60	17635.06
487.81	17919.73
488.02	17880.82
488.22	18140.91
488.43	18284.26
488.64	18306.79
488.84	18585.32
489.05	18505.45
489.25	18241.26
489.46	18716.39
489.67	18714.34
489.87	18986.72
490.08	18824.93
490.29	18654.95
490.49	19271.39
490.70	19482.33
490.90	19359.45
491.11	19408.60
491.32	19285.72
491.52	19310.30
491.73	19531.48
491.94	19697.36
492.14	19750.61
492.35	19832.53
492.55	19775.19
492.76	19906.26
492.97	20242.12
493.17	20045.52
493.38	20274.89
493.58	20887.23
493.79	20618.95
494.00	20399.82
494.20	20616.90
494.41	20756.16
494.61	20907.71
494.82	20907.71
495.02	20963.01
495.23	20799.17
495.44	21034.69
495.64	21106.37
495.85	21214.91
496.05	21493.43
496.26	21190.33
496.47	21581.49
496.67	21292.73
496.88	21802.68
497.08	21292.73
497.29	21620.41
497.49	21675.70
497.70	21726.90
497.91	21745.33
498.11	22023.86
498.32	22173.36
498.52	22232.75
498.73	22345.39
498.93	22257.32
499.14	22290.09
499.34	22380.20
499.55	22324.91
499.76	22302.38
499.96	22460.07
500.17	22427.31
500.37	22544.04
500.58	22550.18
500.78	22855.33
500.99	22734.50
501.19	23062.18
501.40	23076.51
501.60	22728.36
501.81	22922.91
502.02	23176.86
502.22	22836.90
502.43	23363.23
502.63	22931.11
502.84	23522.97
503.04	23297.69
503.25	23312.03
503.45	23258.78
503.66	23361.18
503.86	23537.30
504.07	23928.47
504.27	23447.19
504.48	23983.76
504.68	23553.69
504.89	24143.50
505.09	23973.52
505.30	24084.11
505.50	23805.59
505.71	23928.47
505.91	24219.28
506.12	23910.04
506.32	23965.33
506.53	23907.99
506.73	24069.78
506.94	24168.08
507.14	24110.74
507.35	24331.92
507.55	24712.84
507.76	24395.40
507.96	24168.08
508.17	24708.74
508.37	24592.01
508.58	24542.86
508.78	24782.47
508.99	24903.30
509.19	24553.10
509.40	24702.60
509.60	24653.45
509.81	24950.40
510.01	24792.71
510.22	24827.53
510.42	24780.42
510.63	25155.20
510.83	24954.50
511.04	24643.21
511.24	25175.68
511.44	25181.82
511.65	25386.62
511.85	25263.74
512.06	25308.80
512.26	25360.00
512.47	25489.02
512.67	25611.90
512.88	25575.03
513.08	25237.12
513.29	25763.45
513.49	25628.28
513.69	25536.12
513.90	25712.25
514.10	25730.68
514.31	25769.59
514.51	25886.32
514.72	25689.72
514.92	25841.27
515.13	25978.48
515.33	25871.99
515.53	26089.07
515.74	26052.21
515.94	25939.57
516.15	26101.36
516.35	26226.29
516.56	26392.17
516.76	26482.28
516.96	26664.55
517.17	26445.42
517.37	26576.49
517.58	26461.80
517.78	26701.42
517.99	26474.09
518.19	26629.74
518.39	26715.75
518.60	26764.90
518.80	26719.85
519.01	26803.82
519.21	26975.84
519.41	27090.53
519.62	26654.31
519.82	27291.23
520.03	27473.50
520.23	27291.23
520.43	27131.49
520.64	27647.58
520.84	27483.74
521.05	27450.97
521.25	27356.77
521.45	27831.90
521.66	27844.18
521.86	27663.96
522.07	28192.34
522.27	28323.41
522.47	28134.99
522.68	28401.23
522.88	28511.82
523.08	28493.39
523.29	28272.21
523.49	28567.12
523.70	28517.96
523.90	28743.24
524.10	28524.11
524.31	28864.07
524.51	28589.64
524.71	29359.68
524.92	29161.03
525.12	29247.04
525.33	29118.02
525.53	29126.21
525.73	29519.42
525.94	29523.52
526.14	29367.87
526.34	29814.33
526.55	29726.27
526.75	29681.21
526.95	30283.31
527.16	29976.12
527.36	29988.41
527.56	30299.70
527.77	30248.50
527.97	30371.38
528.17	30709.29
528.38	30664.24
528.58	30944.81
528.78	30907.94
528.99	30459.44
529.19	31247.91
529.39	30787.11
529.60	31153.70
529.80	31032.87
530.00	31178.28
530.21	31483.42
530.41	31600.16
530.61	31553.05
530.82	31684.12
531.02	31751.71
531.22	31737.37
531.43	31786.52
531.63	32251.41
531.83	32343.57
532.04	32454.16
532.24	32445.97
532.44	32882.19
532.64	32761.36
532.85	33019.40
533.05	33109.51
533.25	32910.86
533.46	32757.26
533.66	33146.37
533.86	33234.44
534.07	33617.41
534.27	33459.71
534.47	33510.91
534.67	33822.20
534.88	33883.64
535.08	34006.52
535.28	33717.76
535.49	34131.45
535.69	34319.86
535.89	34231.80
536.09	34995.69
536.30	34715.12
536.50	34760.17
536.70	34655.73
536.91	34944.49
537.11	35184.10
537.31	35386.85
537.51	35395.04
537.72	35575.27
537.92	35341.80
538.12	35823.07
538.32	35724.77
538.53	35915.23
538.73	35749.34
538.93	35866.08
539.13	35923.42
539.34	36287.96
539.54	35771.87
539.74	36373.97
539.94	36214.23
540.15	36111.83
540.35	36756.94
540.55	36730.32
540.75	36617.68
540.96	36978.12
541.16	36316.63
541.36	37023.18
541.56	37074.38
541.77	37189.06
541.97	36965.84
542.17	37688.77
542.37	37477.83
542.58	37283.27
542.78	37348.81
542.98	37885.37
543.18	37770.69
543.38	38276.54
543.59	37993.92
543.79	37615.04
543.99	38022.59
544.19	38055.36
544.40	38077.88
544.60	38596.02
544.80	38503.86
545.00	38137.27
545.20	38903.21
545.41	38835.63
545.61	38516.15
545.81	38749.62
546.01	38809.01
546.21	38884.78
546.42	38792.62
546.62	38983.09
546.82	38987.18
547.02	39280.04
547.22	39357.86
547.43	39194.03
547.63	39321.00
547.83	39441.83
548.03	39341.48
548.23	39904.67
548.44	39421.35
548.64	39810.46
548.84	39740.83
549.04	39495.08
549.24	39832.99
549.45	39601.57
549.65	39812.51
549.85	40091.04
550.05	40060.32
550.25	39626.15
550.45	40664.47
550.66	40416.66
550.86	39902.62
551.06	40156.57
551.26	40058.27
551.46	40674.71
551.66	40891.79
551.87	40607.12
552.07	40457.62
552.27	40664.47
552.47	40734.10
552.67	40701.33
552.87	40811.92
553.07	40906.13
553.28	40787.35
553.48	40932.75
553.68	40850.83
553.88	41307.53
554.08	40975.76
554.28	40603.03
554.48	41135.50
554.69	41325.96
554.89	41078.16
555.09	40994.19
555.29	41172.36
555.49	41573.77
555.69	41194.89
555.89	41311.63
556.10	41684.36
556.30	41088.40
556.50	41753.99
556.70	41231.75
556.90	41457.03
557.10	41774.47
557.30	41850.24
557.50	41379.21
557.70	41788.80
557.91	41858.43
558.11	41792.90
558.31	41665.92
558.51	41635.20
558.71	41954.69
558.91	41717.12
559.11	41430.41
559.31	41405.83
559.51	41702.79
559.72	41520.52
559.92	41629.06
560.12	41706.88
560.32	41962.88
560.52	41876.86
560.72	42341.75
560.92	42130.81
561.12	42042.75
561.32	42032.51
561.52	41907.58
561.72	42388.86
561.93	41801.09
562.13	42120.57
562.33	41930.11
562.53	42577.27
562.73	41817.47
562.93	42048.89
563.13	42173.82
563.33	41821.57
563.53	42440.06
563.73	42057.09
563.93	42132.86
564.13	42517.88
564.33	42145.15
564.53	42229.12
564.74	42308.99
564.94	42052.99
565.14	42462.58
565.34	42130.81
565.54	42505.59
565.74	42481.02
565.94	42476.92
566.14	42474.87
566.34	42200.44
566.54	42929.52
566.74	42182.01
566.94	42081.66
567.14	42667.38
567.34	42763.64
567.54	42567.03
567.74	42343.80
567.94	42472.82
568.14	42581.37
568.34	42997.10
568.54	42642.81
568.74	42607.99
568.94	42245.50
569.14	43046.26
569.34	42591.61
569.54	42982.77
569.75	42646.90
569.95	42593.65
570.15	42925.42
570.35	42997.10
570.55	42900.85
570.75	43011.44
570.95	42792.31
571.15	42999.15
571.35	42845.55
571.55	43210.09
571.75	43255.15
571.95	43033.97
572.15	42859.89
572.35	42972.53
572.55	42941.81
572.75	42857.84
572.95	42984.82
573.15	42999.15
573.35	43427.18
573.55	42980.72
573.75	43195.76
573.95	43498.86
574.15	42773.88
574.35	42929.52
574.55	43214.19
574.75	43169.13
574.95	43466.09
575.15	42788.21
575.34	43337.07
575.54	43500.90
575.74	43804.00
575.94	43545.96
576.14	42997.10
576.34	43881.83
576.54	43797.86
576.74	43681.13
576.94	43625.83
577.14	43335.02
577.34	43906.40
577.54	43373.93
577.74	43578.73
577.94	43867.49
578.14	43695.46
578.34	44148.06
578.54	43398.51
578.74	44160.35
578.94	43959.65
579.14	43652.45
579.34	44000.61
579.54	43939.17
579.74	44225.89
579.94	43971.94
580.13	44062.05
580.33	44418.39
580.53	44629.34
580.73	44492.12
580.93	44459.35
581.13	44293.47
581.33	45020.50
581.53	45067.60
581.73	44334.43
581.93	44520.79
582.13	44862.80
582.33	44737.88
582.53	44402.01
582.73	44490.07
582.92	44770.64
583.12	44971.35
583.32	45012.31
583.52	44959.06
583.72	44985.68
583.92	45249.87
584.12	44711.25
584.32	45532.49
584.52	45094.22
584.72	45213.01
584.92	45503.82
585.11	45937.99
585.31	45417.80
585.51	45401.42
585.71	45055.31
585.91	45622.60
586.11	44944.72
586.31	45716.81
586.51	45653.32
586.71	45952.32
586.91	45763.91
587.10	46114.11
587.30	46167.36
587.50	46226.75
587.70	45800.77
587.90	46060.87
588.10	46101.82
588.30	46347.58
588.50	46210.37
588.69	45976.90
