SpectraSuite Data File
++++++++++++++++++++++++++++++++++++
Date: Fri Jun 02 14:51:06 CEST 2017
User: INFO_000
Dark Spectrum Present: No
Reference Spectrum Present: No
Number of Sampled Component Spectra: 1
Spectrometers: USB4H00879
Integration Time (usec): 80000 (USB4H00879)
Spectra Averaged: 1 (USB4H00879)
Boxcar Smoothing: 0 (USB4H00879)
Correct for Electrical Dark: No (USB4H00879)
Strobe/Lamp Enabled: No (USB4H00879)
Correct for Detector Non-linearity: No (USB4H00879)
Correct for Stray Light: No (USB4H00879)
Number of Pixels in Processed Spectrum: 3648
>>>>>Begin Processed Spectral Data<<<<<
345.13	1273.84
345.34	1273.84
345.56	1273.84
345.78	1234.93
345.99	1359.85
346.21	1791.97
346.42	1736.68
346.64	1679.33
346.86	1773.54
347.07	1644.52
347.29	1757.16
347.50	1662.95
347.72	1634.28
347.94	1773.54
348.15	1521.64
348.37	1650.66
348.59	1691.62
348.80	1621.99
349.02	1662.95
349.23	1755.11
349.45	1714.15
349.67	1783.78
349.88	1667.05
350.10	1859.56
350.31	1667.05
350.53	1746.92
350.75	1830.88
350.96	1566.70
351.18	1712.10
351.39	1785.83
351.61	1681.38
351.82	1716.20
352.04	1761.25
352.26	1732.58
352.47	1757.16
352.69	1785.83
352.90	1605.61
353.12	1708.01
353.34	1761.25
353.55	1804.26
353.77	1761.25
353.98	1687.53
354.20	1679.33
354.41	1759.21
354.63	1720.29
354.85	1867.75
355.06	1773.54
355.28	1527.78
355.49	1646.57
355.71	1763.30
355.92	1712.10
356.14	1759.21
356.35	1765.35
356.57	1722.34
356.79	1683.43
357.00	1662.95
357.22	1789.92
357.43	1634.28
357.65	1826.79
357.86	1634.28
358.08	1683.43
358.29	1744.87
358.51	1675.24
358.72	1779.68
358.94	1716.20
359.16	1691.62
359.37	1652.71
359.59	1714.15
359.80	1716.20
360.02	1791.97
360.23	1703.91
360.45	1781.73
360.66	1699.81
360.88	1585.13
361.09	1781.73
361.31	1712.10
361.52	1748.97
361.74	1857.51
361.95	1794.02
362.17	1685.48
362.38	1765.35
362.60	1736.68
362.81	1746.92
363.03	1669.09
363.24	1654.76
363.46	1712.10
363.67	1697.77
363.89	1679.33
364.10	1740.77
364.32	1677.29
364.53	1759.21
364.75	1619.94
364.96	1777.64
365.18	1748.97
365.39	1681.38
365.61	1578.98
365.82	1755.11
366.04	1701.86
366.25	1634.28
366.47	1800.16
366.68	1685.48
366.90	1642.47
367.11	1755.11
367.33	1796.07
367.54	1734.63
367.76	1689.57
367.97	1845.22
368.19	1710.05
368.40	1736.68
368.62	1630.18
368.83	1574.89
369.05	1665.00
369.26	1669.09
369.48	1665.00
369.69	1660.90
369.91	1722.34
370.12	1718.25
370.33	1816.55
370.55	1656.81
370.76	1687.53
370.98	1757.16
371.19	1687.53
371.41	1714.15
371.62	1732.58
371.84	1677.29
372.05	1740.77
372.27	1738.73
372.48	1705.96
372.69	1742.82
372.91	1773.54
373.12	1751.01
373.34	1728.49
373.55	1763.30
373.77	1732.58
373.98	1671.14
374.20	1748.97
374.41	1738.73
374.62	1730.53
374.84	1726.44
375.05	1662.95
375.27	1689.57
375.48	1693.67
375.70	1705.96
375.91	1744.87
376.12	1800.16
376.34	1685.48
376.55	1712.10
376.77	1759.21
376.98	1617.90
377.19	1671.14
377.41	1638.38
377.62	1697.77
377.84	1765.35
378.05	1869.80
378.27	1714.15
378.48	1804.26
378.69	1886.18
378.91	1751.01
379.12	1744.87
379.34	1683.43
379.55	1734.63
379.76	1753.06
379.98	1644.52
380.19	1773.54
380.41	1726.44
380.62	1712.10
380.83	1703.91
381.05	1644.52
381.26	1859.56
381.47	1665.00
381.69	1675.24
381.90	1728.49
382.12	1658.85
382.33	1689.57
382.54	1689.57
382.76	1685.48
382.97	1677.29
383.19	1630.18
383.40	1824.74
383.61	1695.72
383.83	1642.47
384.04	1564.65
384.25	1701.86
384.47	1740.77
384.68	1781.73
384.89	1605.61
385.11	1560.55
385.32	1679.33
385.54	1667.05
385.75	1634.28
385.96	1753.06
386.18	1705.96
386.39	1732.58
386.60	1654.76
386.82	1644.52
387.03	1658.85
387.24	1699.81
387.46	1740.77
387.67	1726.44
387.88	1708.01
388.10	1656.81
388.31	1689.57
388.52	1787.88
388.74	1734.63
388.95	1638.38
389.16	1775.59
389.38	1607.66
389.59	1693.67
389.80	1744.87
390.02	1705.96
390.23	1728.49
390.44	1679.33
390.66	1720.29
390.87	1632.23
391.08	1673.19
391.30	1769.44
391.51	1710.05
391.72	1730.53
391.94	1759.21
392.15	1693.67
392.36	1642.47
392.58	1642.47
392.79	1748.97
393.00	1708.01
393.22	1740.77
393.43	1748.97
393.64	1712.10
393.85	1804.26
394.07	1642.47
394.28	1730.53
394.49	1701.86
394.71	1738.73
394.92	1734.63
395.13	1624.04
395.35	1693.67
395.56	1683.43
395.77	1705.96
395.98	1699.81
396.20	1712.10
396.41	1691.62
396.62	1748.97
396.84	1636.33
397.05	1613.80
397.26	1722.34
397.47	1746.92
397.69	1718.25
397.90	1867.75
398.11	1769.44
398.32	1650.66
398.54	1722.34
398.75	1671.14
398.96	1669.09
399.18	1830.88
399.39	1677.29
399.60	1667.05
399.81	1701.86
400.03	1589.22
400.24	2004.96
400.45	1716.20
400.66	1746.92
400.88	1632.23
401.09	1830.88
401.30	1591.27
401.51	1771.49
401.73	1773.54
401.94	1722.34
402.15	1712.10
402.36	1714.15
402.58	1728.49
402.79	1781.73
403.00	1648.61
403.21	1814.50
403.43	1779.68
403.64	1773.54
403.85	1669.09
404.06	1796.07
404.27	1621.99
404.49	1695.72
404.70	1714.15
404.91	1769.44
405.12	1718.25
405.34	1732.58
405.55	1779.68
405.76	1591.27
405.97	1667.05
406.19	1753.06
406.40	1669.09
406.61	1691.62
406.82	1714.15
407.03	1708.01
407.25	1665.00
407.46	1765.35
407.67	1753.06
407.88	1771.49
408.09	1781.73
408.31	1679.33
408.52	1716.20
408.73	1656.81
408.94	1636.33
409.15	1599.46
409.37	1689.57
409.58	1738.73
409.79	1734.63
410.00	1873.89
410.21	1712.10
410.43	1767.40
410.64	1718.25
410.85	1761.25
411.06	1738.73
411.27	1693.67
411.48	1753.06
411.70	1736.68
411.91	1671.14
412.12	1781.73
412.33	1732.58
412.54	1675.24
412.76	1712.10
412.97	1751.01
413.18	1667.05
413.39	1732.58
413.60	1720.29
413.81	1769.44
414.03	1646.57
414.24	1671.14
414.45	1773.54
414.66	1656.81
414.87	1699.81
415.08	1695.72
415.30	1724.39
415.51	1683.43
415.72	1763.30
415.93	1673.19
416.14	1744.87
416.35	1710.05
416.56	1703.91
416.78	1648.61
416.99	1679.33
417.20	1744.87
417.41	1724.39
417.62	1765.35
417.83	1734.63
418.04	1617.90
418.26	1751.01
418.47	1716.20
418.68	1634.28
418.89	1789.92
419.10	1902.56
419.31	1708.01
419.52	1744.87
419.73	1712.10
419.95	1757.16
420.16	1697.77
420.37	1689.57
420.58	1759.21
420.79	1593.32
421.00	1705.96
421.21	1708.01
421.42	1722.34
421.63	1693.67
421.85	1693.67
422.06	1687.53
422.27	1609.70
422.48	1687.53
422.69	1720.29
422.90	1656.81
423.11	1593.32
423.32	1806.31
423.53	1779.68
423.75	1722.34
423.96	1691.62
424.17	1740.77
424.38	1812.45
424.59	1683.43
424.80	1662.95
425.01	1720.29
425.22	1619.94
425.43	1767.40
425.64	1791.97
425.85	1732.58
426.06	1726.44
426.28	1699.81
426.49	1646.57
426.70	1652.71
426.91	1642.47
427.12	1708.01
427.33	1699.81
427.54	1705.96
427.75	1740.77
427.96	1738.73
428.17	1728.49
428.38	1656.81
428.59	1708.01
428.80	1763.30
429.01	1650.66
429.23	1658.85
429.44	1712.10
429.65	1757.16
429.86	1613.80
430.07	1658.85
430.28	1630.18
430.49	1779.68
430.70	1732.58
430.91	1828.84
431.12	1644.52
431.33	1708.01
431.54	1738.73
431.75	1697.77
431.96	1740.77
432.17	1689.57
432.38	1755.11
432.59	1798.12
432.80	1818.60
433.01	1718.25
433.22	1773.54
433.43	1650.66
433.64	1656.81
433.85	1765.35
434.06	1712.10
434.27	1683.43
434.49	1697.77
434.70	1724.39
434.91	1714.15
435.12	1695.72
435.33	1699.81
435.54	1683.43
435.75	1603.56
435.96	1646.57
436.17	1712.10
436.38	1699.81
436.59	1681.38
436.80	1630.18
437.01	1785.83
437.22	1771.49
437.43	1722.34
437.64	1734.63
437.85	1675.24
438.06	1812.45
438.27	1617.90
438.48	1675.24
438.69	1685.48
438.90	1648.61
439.11	1634.28
439.32	1787.88
439.53	1574.89
439.74	1671.14
439.95	1658.85
440.16	1644.52
440.37	1722.34
440.57	1607.66
440.78	1662.95
440.99	1677.29
441.20	1722.34
441.41	1597.42
441.62	1701.86
441.83	1722.34
442.04	1648.61
442.25	1710.05
442.46	1597.42
442.67	1667.05
442.88	1828.84
443.09	1681.38
443.30	1599.46
443.51	1705.96
443.72	1683.43
443.93	1662.95
444.14	1785.83
444.35	1658.85
444.56	1621.99
444.77	1624.04
444.98	1771.49
445.19	1708.01
445.40	1656.81
445.61	1689.57
445.81	1628.14
446.02	1822.69
446.23	1765.35
446.44	1675.24
446.65	1710.05
446.86	1796.07
447.07	1888.23
447.28	1728.49
447.49	1638.38
447.70	1695.72
447.91	1755.11
448.12	1705.96
448.33	1777.64
448.54	1632.23
448.74	1699.81
448.95	1708.01
449.16	1705.96
449.37	1757.16
449.58	1695.72
449.79	1771.49
450.00	1662.95
450.21	1708.01
450.42	1652.71
450.63	1673.19
450.84	1638.38
451.05	1748.97
451.25	1624.04
451.46	1671.14
451.67	1734.63
451.88	1748.97
452.09	1658.85
452.30	1630.18
452.51	1632.23
452.72	1738.73
452.93	1734.63
453.13	1677.29
453.34	1587.18
453.55	1748.97
453.76	1693.67
453.97	1695.72
454.18	1597.42
454.39	1734.63
454.60	1716.20
454.81	1691.62
455.01	1687.53
455.22	1595.37
455.43	1642.47
455.64	1789.92
455.85	1767.40
456.06	1800.16
456.27	1730.53
456.48	1722.34
456.68	1652.71
456.89	1806.31
457.10	1654.76
457.31	1722.34
457.52	1777.64
457.73	1697.77
457.94	1734.63
458.14	1591.27
458.35	1751.01
458.56	1681.38
458.77	1654.76
458.98	1673.19
459.19	1728.49
459.39	1714.15
459.60	1609.70
459.81	1728.49
460.02	1658.85
460.23	1753.06
460.44	1652.71
460.65	1652.71
460.85	1632.23
461.06	1708.01
461.27	1712.10
461.48	1650.66
461.69	1650.66
461.89	1603.56
462.10	1617.90
462.31	1595.37
462.52	1593.32
462.73	1701.86
462.94	1742.82
463.14	1724.39
463.35	1742.82
463.56	1798.12
463.77	1814.50
463.98	1638.38
464.18	1662.95
464.39	1730.53
464.60	1781.73
464.81	1546.22
465.02	1667.05
465.23	1722.34
465.43	1703.91
465.64	1705.96
465.85	1591.27
466.06	1714.15
466.27	1687.53
466.47	1658.85
466.68	1699.81
466.89	1605.61
467.10	1523.69
467.30	1593.32
467.51	1720.29
467.72	1708.01
467.93	1628.14
468.14	1585.13
468.34	1732.58
468.55	1734.63
468.76	1785.83
468.97	1658.85
469.17	1746.92
469.38	1765.35
469.59	1724.39
469.80	1665.00
470.01	1722.34
470.21	1781.73
470.42	1654.76
470.63	1720.29
470.84	1822.69
471.04	1695.72
471.25	1804.26
471.46	1794.02
471.67	1820.64
471.87	1585.13
472.08	1714.15
472.29	1724.39
472.50	1687.53
472.70	1656.81
472.91	1617.90
473.12	1767.40
473.33	1722.34
473.53	1699.81
473.74	1593.32
473.95	1699.81
474.16	1615.85
474.36	1615.85
474.57	1769.44
474.78	1638.38
474.99	1730.53
475.19	1816.55
475.40	1773.54
475.61	1748.97
475.81	1744.87
476.02	1675.24
476.23	1738.73
476.44	1644.52
476.64	1714.15
476.85	1720.29
477.06	1695.72
477.27	1654.76
477.47	1779.68
477.68	1687.53
477.89	1640.42
478.09	1716.20
478.30	1693.67
478.51	1667.05
478.71	1697.77
478.92	1771.49
479.13	1708.01
479.34	1619.94
479.54	1683.43
479.75	1687.53
479.96	1695.72
480.16	1628.14
480.37	1687.53
480.58	1724.39
480.78	1822.69
480.99	1613.80
481.20	1703.91
481.41	1757.16
481.61	1701.86
481.82	1740.77
482.03	1638.38
482.23	1581.03
482.44	1806.31
482.65	1796.07
482.85	1830.88
483.06	1703.91
483.27	1748.97
483.47	1710.05
483.68	1675.24
483.89	1720.29
484.09	1691.62
484.30	1748.97
484.51	1761.25
484.71	1669.09
484.92	1634.28
485.13	1685.48
485.33	1720.29
485.54	1675.24
485.75	1701.86
485.95	1757.16
486.16	1671.14
486.37	1712.10
486.57	1656.81
486.78	1724.39
486.98	1703.91
487.19	1695.72
487.40	1712.10
487.60	1740.77
487.81	1699.81
488.02	1634.28
488.22	1722.34
488.43	1736.68
488.64	1667.05
488.84	1636.33
489.05	1732.58
489.25	1644.52
489.46	1656.81
489.67	1679.33
489.87	1796.07
490.08	1763.30
490.29	1658.85
490.49	1808.36
490.70	1730.53
490.90	1640.42
491.11	1665.00
491.32	1703.91
491.52	1710.05
491.73	1685.48
491.94	1693.67
492.14	1617.90
492.35	1671.14
492.55	1755.11
492.76	1628.14
492.97	1646.57
493.17	1755.11
493.38	1763.30
493.58	1763.30
493.79	1708.01
494.00	1687.53
494.20	1615.85
494.41	1751.01
494.61	1818.60
494.82	1703.91
495.02	1697.77
495.23	1830.88
495.44	1701.86
495.64	1667.05
495.85	1628.14
496.05	1767.40
496.26	1761.25
496.47	1691.62
496.67	1642.47
496.88	1767.40
497.08	1585.13
497.29	1693.67
497.49	1708.01
497.70	1708.01
497.91	1646.57
498.11	1771.49
498.32	1656.81
498.52	1746.92
498.73	1732.58
498.93	1724.39
499.14	1716.20
499.34	1724.39
499.55	1777.64
499.76	1658.85
499.96	1667.05
500.17	1744.87
500.37	1791.97
500.58	1683.43
500.78	1777.64
500.99	1650.66
501.19	1697.77
501.40	1769.44
501.60	1568.74
501.81	1667.05
502.02	1763.30
502.22	1736.68
502.43	1687.53
502.63	1837.03
502.84	1736.68
503.04	1724.39
503.25	1642.47
503.45	1746.92
503.66	1660.90
503.86	1775.59
504.07	1757.16
504.27	1636.33
504.48	1748.97
504.68	1705.96
504.89	1820.64
505.09	1656.81
505.30	1667.05
505.50	1712.10
505.71	1679.33
505.91	1757.16
506.12	1712.10
506.32	1773.54
506.53	1677.29
506.73	1703.91
506.94	1656.81
507.14	1642.47
507.35	1789.92
507.55	1779.68
507.76	1728.49
507.96	1597.42
508.17	1808.36
508.37	1597.42
508.58	1818.60
508.78	1798.12
508.99	1736.68
509.19	1777.64
509.40	1652.71
509.60	1697.77
509.81	1769.44
510.01	1734.63
510.22	1691.62
510.42	1763.30
510.63	1755.11
510.83	1660.90
511.04	1695.72
511.24	1742.82
511.44	1746.92
511.65	1724.39
511.85	1724.39
512.06	1720.29
512.26	1693.67
512.47	1798.12
512.67	1617.90
512.88	1740.77
513.08	1646.57
513.29	1806.31
513.49	1578.98
513.69	1748.97
513.90	1621.99
514.10	1769.44
514.31	1718.25
514.51	1603.56
514.72	1714.15
514.92	1773.54
515.13	1634.28
515.33	1677.29
515.53	1568.74
515.74	1748.97
515.94	1755.11
516.15	1847.27
516.35	1613.80
516.56	1681.38
516.76	1652.71
516.96	1697.77
517.17	1695.72
517.37	1714.15
517.58	1624.04
517.78	1703.91
517.99	1716.20
518.19	1837.03
518.39	1697.77
518.60	1732.58
518.80	1665.00
519.01	1787.88
519.21	1675.24
519.41	1708.01
519.62	1615.85
519.82	1773.54
520.03	1679.33
520.23	1642.47
520.43	1710.05
520.64	1753.06
520.84	1748.97
521.05	1650.66
521.25	1777.64
521.45	1710.05
521.66	1683.43
521.86	1728.49
522.07	1669.09
522.27	1714.15
522.47	1646.57
522.68	1765.35
522.88	1763.30
523.08	1820.64
523.29	1599.46
523.49	1726.44
523.70	1708.01
523.90	1683.43
524.10	1603.56
524.31	1650.66
524.51	1628.14
524.71	1779.68
524.92	1720.29
525.12	1607.66
525.33	1787.88
525.53	1740.77
525.73	1763.30
525.94	1626.09
526.14	1656.81
526.34	1675.24
526.55	1753.06
526.75	1675.24
526.95	1771.49
527.16	1718.25
527.36	1716.20
527.56	1734.63
527.77	1644.52
527.97	1695.72
528.17	1699.81
528.38	1714.15
528.58	1708.01
528.78	1656.81
528.99	1669.09
529.19	1671.14
529.39	1601.51
529.60	1640.42
529.80	1679.33
530.00	1638.38
530.21	1703.91
530.41	1718.25
530.61	1806.31
530.82	1714.15
531.02	1675.24
531.22	1720.29
531.43	1689.57
531.63	1681.38
531.83	1708.01
532.04	1794.02
532.24	1650.66
532.44	1658.85
532.64	1800.16
532.85	1634.28
533.05	1646.57
533.25	1636.33
533.46	1730.53
533.66	1658.85
533.86	1699.81
534.07	1775.59
534.27	1712.10
534.47	1697.77
534.67	1763.30
534.88	1658.85
535.08	1759.21
535.28	1730.53
535.49	1671.14
535.69	1720.29
535.89	1720.29
536.09	1812.45
536.30	1681.38
536.50	1648.61
536.70	1779.68
536.91	1673.19
537.11	1689.57
537.31	1687.53
537.51	1677.29
537.72	1673.19
537.92	1734.63
538.12	1671.14
538.32	1757.16
538.53	1673.19
538.73	1687.53
538.93	1683.43
539.13	1689.57
539.34	1691.62
539.54	1667.05
539.74	1730.53
539.94	1695.72
540.15	1736.68
540.35	1701.86
540.55	1642.47
540.75	1632.23
540.96	1693.67
541.16	1736.68
541.36	1699.81
541.56	1716.20
541.77	1812.45
541.97	1646.57
542.17	1638.38
542.37	1785.83
542.58	1757.16
542.78	1814.50
542.98	1736.68
543.18	1734.63
543.38	1765.35
543.59	1779.68
543.79	1681.38
543.99	1601.51
544.19	1724.39
544.40	1685.48
544.60	1708.01
544.80	1703.91
545.00	1628.14
545.20	1757.16
545.41	1740.77
545.61	1642.47
545.81	1701.86
546.01	1757.16
546.21	1687.53
546.42	1607.66
546.62	1701.86
546.82	1671.14
547.02	1578.98
547.22	1695.72
547.43	1757.16
547.63	1695.72
547.83	1675.24
548.03	1695.72
548.23	1783.78
548.44	1689.57
548.64	1665.00
548.84	1748.97
549.04	1634.28
549.24	1830.88
549.45	1804.26
549.65	1705.96
549.85	1779.68
550.05	1697.77
550.25	1564.65
550.45	1855.46
550.66	1652.71
550.86	1630.18
551.06	1685.48
551.26	1712.10
551.46	1708.01
551.66	1683.43
551.87	1714.15
552.07	1675.24
552.27	1638.38
552.47	1744.87
552.67	1726.44
552.87	1691.62
553.07	1744.87
553.28	1732.58
553.48	1693.67
553.68	1619.94
553.88	1765.35
554.08	1724.39
554.28	1591.27
554.48	1648.61
554.69	1763.30
554.89	1697.77
555.09	1665.00
555.29	1648.61
555.49	1785.83
555.69	1691.62
555.89	1734.63
556.10	1705.96
556.30	1687.53
556.50	1691.62
556.70	1751.01
556.90	1708.01
557.10	1667.05
557.30	1708.01
557.50	1638.38
557.70	1701.86
557.91	1705.96
558.11	1744.87
558.31	1796.07
558.51	1716.20
558.71	1763.30
558.91	1675.24
559.11	1640.42
559.31	1632.23
559.51	1593.32
559.72	1759.21
559.92	1630.18
560.12	1619.94
560.32	1755.11
560.52	1798.12
560.72	1691.62
560.92	1759.21
561.12	1689.57
561.32	1648.61
561.52	1665.00
561.72	1906.66
561.93	1791.97
562.13	1695.72
562.33	1705.96
562.53	1683.43
562.73	1669.09
562.93	1675.24
563.13	1679.33
563.33	1748.97
563.53	1718.25
563.73	1777.64
563.93	1837.03
564.13	1761.25
564.33	1687.53
564.53	1718.25
564.74	1669.09
564.94	1652.71
565.14	1730.53
565.34	1773.54
565.54	1726.44
565.74	1687.53
565.94	1744.87
566.14	1673.19
566.34	1683.43
566.54	1744.87
566.74	1740.77
566.94	1755.11
567.14	1714.15
567.34	1755.11
567.54	1773.54
567.74	1626.09
567.94	1742.82
568.14	1763.30
568.34	1771.49
568.54	1703.91
568.74	1748.97
568.94	1748.97
569.14	1798.12
569.34	1757.16
569.54	1732.58
569.75	1714.15
569.95	1720.29
570.15	1857.51
570.35	1746.92
570.55	1617.90
570.75	1746.92
570.95	1699.81
571.15	1728.49
571.35	1720.29
571.55	1650.66
571.75	1720.29
571.95	1624.04
572.15	1765.35
572.35	1722.34
572.55	1755.11
572.75	1710.05
572.95	1691.62
573.15	1675.24
573.35	1751.01
573.55	1724.39
573.75	1736.68
573.95	1877.99
574.15	1712.10
574.35	1673.19
574.55	1701.86
574.75	1658.85
574.95	1572.84
575.15	1669.09
575.34	1675.24
575.54	1662.95
575.74	1693.67
575.94	1669.09
576.14	1689.57
576.34	1767.40
576.54	1685.48
576.74	1822.69
576.94	1648.61
577.14	1748.97
577.34	1701.86
577.54	1642.47
577.74	1654.76
577.94	1632.23
578.14	1626.09
578.34	1697.77
578.54	1626.09
578.74	1697.77
578.94	1765.35
579.14	1712.10
579.34	1538.02
579.54	1759.21
579.74	1691.62
579.94	1630.18
580.13	1787.88
580.33	1720.29
580.53	1634.28
580.73	1681.38
580.93	1769.44
581.13	1642.47
581.33	1703.91
581.53	1736.68
581.73	1681.38
581.93	1658.85
582.13	1624.04
582.33	1642.47
582.53	1675.24
582.73	1761.25
582.92	1632.23
583.12	1683.43
583.32	1683.43
583.52	1705.96
583.72	1798.12
583.92	1777.64
584.12	1746.92
584.32	1681.38
584.52	1607.66
584.72	1724.39
584.92	1712.10
585.11	1755.11
585.31	1769.44
585.51	1574.89
585.71	1712.10
585.91	1794.02
586.11	1658.85
586.31	1757.16
586.51	1658.85
586.71	1765.35
586.91	1669.09
587.10	1718.25
587.30	1753.06
587.50	1716.20
587.70	1673.19
587.90	1656.81
588.10	1638.38
588.30	1787.88
588.50	1697.77
588.69	1687.53
588.89	1736.68
589.09	1738.73
589.29	1611.75
589.49	1728.49
589.69	1744.87
589.89	1708.01
590.08	1722.34
590.28	1648.61
590.48	1677.29
590.68	1736.68
590.88	1667.05
591.08	1738.73
591.28	1726.44
591.47	1748.97
591.67	1644.52
591.87	1773.54
592.07	1816.55
592.27	1675.24
592.47	1648.61
592.67	1751.01
592.86	1710.05
593.06	1748.97
593.26	1773.54
593.46	1753.06
593.66	1646.57
593.86	1800.16
594.05	1744.87
594.25	1734.63
594.45	1673.19
594.65	1787.88
594.85	1761.25
595.05	1656.81
595.24	1720.29
595.44	1767.40
595.64	1718.25
595.84	1691.62
596.04	1724.39
