SpectraSuite Data File
++++++++++++++++++++++++++++++++++++
Date: Fri Jun 02 14:51:10 CEST 2017
User: INFO_000
Dark Spectrum Present: No
Reference Spectrum Present: No
Number of Sampled Component Spectra: 1
Spectrometers: USB4H00879
Integration Time (usec): 80000 (USB4H00879)
Spectra Averaged: 1 (USB4H00879)
Boxcar Smoothing: 0 (USB4H00879)
Correct for Electrical Dark: No (USB4H00879)
Strobe/Lamp Enabled: No (USB4H00879)
Correct for Detector Non-linearity: No (USB4H00879)
Correct for Stray Light: No (USB4H00879)
Number of Pixels in Processed Spectrum: 3648
>>>>>Begin Processed Spectral Data<<<<<
345.13	1296.36
345.34	1296.36
345.56	1296.36
345.78	1306.60
345.99	1245.16
346.21	1626.09
346.42	1652.71
346.64	1671.14
346.86	1820.64
347.07	1683.43
347.29	1736.68
347.50	1632.23
347.72	1642.47
347.94	1699.81
348.15	1472.49
348.37	1689.57
348.59	1697.77
348.80	1681.38
349.02	1791.97
349.23	1828.84
349.45	1804.26
349.67	1884.13
349.88	1773.54
350.10	1910.75
350.31	1863.65
350.53	1849.32
350.75	2064.35
350.96	1802.21
351.18	1871.84
351.39	1853.41
351.61	1804.26
351.82	1841.12
352.04	1937.38
352.26	1824.74
352.47	1845.22
352.69	1888.23
352.90	1806.31
353.12	1798.12
353.34	1810.40
353.55	1920.99
353.77	1912.80
353.98	1798.12
354.20	1857.51
354.41	1935.33
354.63	1884.13
354.85	2011.11
355.06	1908.71
355.28	1730.53
355.49	1863.65
355.71	1886.18
355.92	1841.12
356.14	1953.76
356.35	1904.61
356.57	1853.41
356.79	1859.56
357.00	1869.80
357.22	1882.08
357.43	1886.18
357.65	1945.57
357.86	1765.35
358.08	1945.57
358.29	1910.75
358.51	1959.91
358.72	1959.91
358.94	1984.48
359.16	1882.08
359.37	1931.23
359.59	1892.32
359.80	1875.94
360.02	2002.91
360.23	1945.57
360.45	1966.05
360.66	1826.79
360.88	1863.65
361.09	2000.87
361.31	1941.47
361.52	2021.35
361.74	2045.92
361.95	2088.93
362.17	1918.95
362.38	2047.97
362.60	2009.06
362.81	1961.95
363.03	1929.19
363.24	1953.76
363.46	2021.35
363.67	2019.30
363.89	1972.19
364.10	2025.44
364.32	1953.76
364.53	2082.78
364.75	1964.00
364.96	2078.69
365.18	2105.31
365.39	1990.63
365.61	1941.47
365.82	2164.70
366.04	2062.30
366.25	2000.87
366.47	2019.30
366.68	2047.97
366.90	1871.84
367.11	2039.78
367.33	2093.02
367.54	2043.87
367.76	2002.91
367.97	2064.35
368.19	2015.20
368.40	2045.92
368.62	2023.39
368.83	1941.47
369.05	2043.87
369.26	2011.11
369.48	1951.71
369.69	1990.63
369.91	2099.17
370.12	1984.48
370.33	2062.30
370.55	2000.87
370.76	2025.44
370.98	2082.78
371.19	1949.67
371.41	1986.53
371.62	2107.36
371.84	1982.43
372.05	2197.47
372.27	2090.98
372.48	2070.50
372.69	2066.40
372.91	2215.90
373.12	2095.07
373.34	2099.17
373.55	2109.41
373.77	2228.19
373.98	2166.75
374.20	2174.94
374.41	2115.55
374.62	2093.02
374.84	2142.18
375.05	2123.74
375.27	2185.18
375.48	2093.02
375.70	2103.26
375.91	2185.18
376.12	2220.00
376.34	2160.61
376.55	2168.80
376.77	2140.13
376.98	2093.02
377.19	2170.85
377.41	2195.42
377.62	2195.42
377.84	2203.61
378.05	2275.29
378.27	2148.32
378.48	2328.54
378.69	2351.07
378.91	2232.29
379.12	2248.67
379.34	2144.22
379.55	2269.15
379.76	2248.67
379.98	2195.42
380.19	2191.33
380.41	2176.99
380.62	2232.29
380.83	2142.18
381.05	2203.61
381.26	2383.84
381.47	2164.70
381.69	2291.68
381.90	2334.68
382.12	2318.30
382.33	2203.61
382.54	2236.38
382.76	2267.10
382.97	2248.67
383.19	2295.77
383.40	2351.07
383.61	2314.20
383.83	2215.90
384.04	2222.05
384.25	2363.36
384.47	2326.49
384.68	2336.73
384.89	2267.10
385.11	2271.20
385.32	2230.24
385.54	2326.49
385.75	2242.53
385.96	2426.84
386.18	2342.88
386.39	2338.78
386.60	2207.71
386.82	2398.17
387.03	2379.74
387.24	2351.07
387.46	2383.84
387.67	2383.84
387.88	2435.03
388.10	2371.55
388.31	2410.46
388.52	2514.91
388.74	2482.14
388.95	2373.60
389.16	2531.29
389.38	2418.65
389.59	2426.84
389.80	2566.10
390.02	2510.81
390.23	2545.63
390.44	2519.00
390.66	2570.20
390.87	2469.85
391.08	2566.10
391.30	2555.86
391.51	2609.11
391.72	2699.22
391.94	2598.87
392.15	2625.50
392.36	2576.34
392.58	2488.28
392.79	2584.54
393.00	2656.22
393.22	2705.37
393.43	2660.31
393.64	2777.05
393.85	2695.13
394.07	2555.86
394.28	2625.50
394.49	2686.94
394.71	2672.60
394.92	2772.95
395.13	2641.88
395.35	2697.17
395.56	2711.51
395.77	2789.33
395.98	2723.80
396.20	2811.86
396.41	2885.59
396.62	2877.40
396.84	2695.13
397.05	2772.95
397.26	2861.01
397.47	2934.74
397.69	2813.91
397.90	2928.60
398.11	2906.07
398.32	2799.57
398.54	2854.87
398.75	2789.33
398.96	2887.64
399.18	3039.19
399.39	2871.25
399.60	3018.71
399.81	2912.21
400.03	2947.03
400.24	3207.12
400.45	3010.51
400.66	2971.60
400.88	2934.74
401.09	3168.21
401.30	3030.99
401.51	3180.50
401.73	3022.80
401.94	3104.72
402.15	3139.54
402.36	3127.25
402.58	3037.14
402.79	3045.33
403.00	3117.01
403.21	3194.83
403.43	3184.59
403.64	3223.50
403.85	3147.73
404.06	3272.65
404.27	3094.48
404.49	3045.33
404.70	3022.80
404.91	3215.31
405.12	3174.35
405.34	3180.50
405.55	3434.44
405.76	3137.49
405.97	3176.40
406.19	3268.56
406.40	3205.07
406.61	3246.03
406.82	3362.76
407.03	3231.69
407.25	3203.02
407.46	3227.60
407.67	3319.76
407.88	3370.96
408.09	3239.89
408.31	3317.71
408.52	3403.72
408.73	3248.08
408.94	3264.46
409.15	3383.24
409.37	3377.10
409.58	3399.63
409.79	3381.20
410.00	3487.69
410.21	3381.20
410.43	3399.63
410.64	3403.72
410.85	3409.87
411.06	3397.58
411.27	3428.30
411.48	3393.48
411.70	3520.46
411.91	3383.24
412.12	3622.86
412.33	3444.68
412.54	3479.50
412.76	3559.37
412.97	3633.10
413.18	3461.07
413.39	3592.14
413.60	3641.29
413.81	3549.13
414.03	3471.31
414.24	3450.83
414.45	3665.86
414.66	3428.30
414.87	3571.66
415.08	3614.66
415.30	3559.37
415.51	3729.35
415.72	3651.53
415.93	3719.11
416.14	3676.10
416.35	3766.21
416.56	3684.30
416.78	3725.26
416.99	3837.89
417.20	3733.45
417.41	3721.16
417.62	3694.54
417.83	3823.56
418.04	3633.10
418.26	3784.65
418.47	3712.97
418.68	3809.22
418.89	3780.55
419.10	3948.48
419.31	3911.62
419.52	3930.05
419.73	3819.46
419.95	4030.40
420.16	3841.99
420.37	3831.75
420.58	3846.09
420.79	3733.45
421.00	3819.46
421.21	4024.26
421.42	3733.45
421.63	3952.58
421.85	3928.00
422.06	3993.54
422.27	3846.09
422.48	4026.31
422.69	4106.18
422.90	4155.33
423.11	4083.65
423.32	4071.36
423.53	4179.90
423.75	4034.50
423.96	4321.21
424.17	4126.66
424.38	4335.55
424.59	4140.99
424.80	4288.45
425.01	4280.25
425.22	4270.01
425.43	4317.12
425.64	4456.38
425.85	4489.15
426.06	4384.70
426.28	4200.38
426.49	4362.17
426.70	4278.21
426.91	4427.71
427.12	4362.17
427.33	4394.94
427.54	4536.25
427.75	4521.92
427.96	4722.62
428.17	4487.10
428.38	4663.22
428.59	4648.89
428.80	4564.92
429.01	4700.09
429.23	4618.17
429.44	4884.41
429.65	4784.06
429.86	4693.94
430.07	4659.13
430.28	4607.93
430.49	4943.80
430.70	5015.48
430.91	4837.30
431.12	4829.11
431.33	5050.29
431.54	4925.36
431.75	4868.02
431.96	4923.32
432.17	4835.25
432.38	4943.80
432.59	5148.59
432.80	5046.20
433.01	5113.78
433.22	5099.44
433.43	5087.15
433.64	5277.62
433.85	5156.79
434.06	5169.07
434.27	5072.82
434.49	5105.59
434.70	5463.98
434.91	5322.67
435.12	5339.05
435.33	5224.37
435.54	5162.93
435.75	5253.04
435.96	5240.75
436.17	5212.08
436.38	5543.85
436.59	5519.28
436.80	5322.67
437.01	5719.98
437.22	5545.90
437.43	5480.36
437.64	5310.38
437.85	5644.20
438.06	5623.72
438.27	5490.60
438.48	5578.67
438.69	5535.66
438.90	5746.60
439.11	5623.72
439.32	5799.85
439.53	5625.77
439.74	5685.16
439.95	5849.00
440.16	5775.27
440.37	5715.88
440.57	5652.39
440.78	5932.97
440.99	5803.94
441.20	5920.68
441.41	5652.39
441.62	5820.33
441.83	5808.04
442.04	5816.23
442.25	5992.36
442.46	5849.00
442.67	6107.04
442.88	6475.68
443.09	6070.18
443.30	5941.16
443.51	6043.56
443.72	6408.09
443.93	6074.28
444.14	6313.89
444.35	5922.73
444.56	6268.83
444.77	6006.69
444.98	6231.97
445.19	6178.72
445.40	6320.03
445.61	6211.49
445.81	6401.95
446.02	6348.70
446.23	6332.32
446.44	6156.19
446.65	6299.55
446.86	6459.29
447.07	6418.33
447.28	6700.95
447.49	6649.75
447.70	6375.33
447.91	6451.10
448.12	6432.67
448.33	6582.17
448.54	6729.63
448.74	6541.21
448.95	6516.64
449.16	6635.42
449.37	6918.04
449.58	6664.09
449.79	6893.46
450.00	6676.38
450.21	6686.62
450.42	6768.54
450.63	6801.30
450.84	6717.34
451.05	6950.81
451.25	6948.76
451.46	6823.83
451.67	6903.70
451.88	6944.66
452.09	7032.72
452.30	6846.36
452.51	6905.75
452.72	7165.84
452.93	7249.81
453.13	7045.01
453.34	6897.56
453.55	7200.66
453.76	6926.23
453.97	7325.58
454.18	7309.20
454.39	7350.16
454.60	7135.12
454.81	7225.23
455.01	7368.59
455.22	7153.55
455.43	7298.96
455.64	7612.30
455.85	7597.96
456.06	7542.67
456.27	7477.13
456.48	7524.24
456.68	7614.35
456.89	7511.95
457.10	7694.22
457.31	7604.11
457.52	7591.82
457.73	7776.14
457.94	7966.60
458.14	7638.92
458.35	7958.41
458.56	7784.33
458.77	7808.90
458.98	7888.78
459.19	7884.68
459.39	7991.17
459.60	7995.27
459.81	7950.21
460.02	8171.40
460.23	8132.48
460.44	8423.30
460.65	8216.45
460.85	8273.79
461.06	8474.49
461.27	8087.43
461.48	8568.70
461.69	8507.26
461.89	8212.35
462.10	8570.75
462.31	8249.22
462.52	8284.03
462.73	8548.22
462.94	8857.46
463.14	8501.12
463.35	8564.61
463.56	8841.08
463.77	8955.77
463.98	8701.82
464.18	8775.55
464.39	8824.70
464.60	9035.64
464.81	9095.03
465.02	8923.00
465.23	9258.87
465.43	9115.51
465.64	9351.03
465.85	9168.76
466.06	9146.23
466.27	9645.93
466.47	9478.00
466.68	9570.16
466.89	9445.23
467.10	9465.71
467.30	9217.91
467.51	9478.00
467.72	9871.21
467.93	9709.42
468.14	9797.48
468.34	10041.19
468.55	9965.42
468.76	9822.06
468.97	9858.92
469.17	10043.24
469.38	10237.80
469.59	10399.59
469.80	10069.86
470.01	10135.40
470.21	10370.91
470.42	10465.12
470.63	10561.37
470.84	10536.80
471.04	10743.64
471.25	10583.90
471.46	10729.31
471.67	10805.08
471.87	10708.83
472.08	10749.79
472.29	11159.38
472.50	10714.97
472.70	10919.77
472.91	10927.96
473.12	11099.99
473.33	11503.44
473.53	11411.28
473.74	11282.26
473.95	11646.80
474.16	11712.33
474.36	11632.46
474.57	11843.40
474.78	12160.84
474.99	11935.56
475.19	11534.16
475.40	12322.63
475.61	12107.59
475.81	12480.32
476.02	12791.61
476.23	12324.68
476.44	12695.36
476.64	12736.32
476.85	12797.76
477.06	12730.17
477.27	12891.96
477.47	12965.69
477.68	13123.38
477.89	13221.69
478.09	13135.67
478.30	13475.63
478.51	13201.21
478.71	13444.91
478.92	13354.80
479.13	13764.40
479.34	13709.10
479.54	13815.60
479.75	14006.06
479.96	14018.35
480.16	13946.67
480.37	14122.79
480.58	14346.02
480.78	14634.78
480.99	14446.37
481.20	14653.22
481.41	14587.68
481.61	14810.91
481.82	15150.87
482.03	15011.61
482.23	14974.75
482.44	15222.55
482.65	15570.71
482.85	15445.78
483.06	15304.47
483.27	15617.81
483.47	15585.04
483.68	15773.46
483.89	15671.06
484.09	15920.91
484.30	16144.14
484.51	16137.99
484.71	16152.33
484.92	16279.30
485.13	16457.48
485.33	16525.06
485.54	16328.45
485.75	16699.14
485.95	16660.23
486.16	16846.59
486.37	16946.94
486.57	16951.04
486.78	16846.59
486.98	17237.75
487.19	17094.40
487.40	17346.30
487.60	17297.14
487.81	17592.05
488.02	17624.82
488.22	17600.24
488.43	17991.41
488.64	17833.71
488.84	18018.03
489.05	18312.94
489.25	18042.60
489.46	18243.31
489.67	18198.25
489.87	18558.69
490.08	18595.56
490.29	18648.80
490.49	19070.68
490.70	19070.68
490.90	19019.49
491.11	19027.68
491.32	19201.76
491.52	19025.63
491.73	19431.13
491.94	19357.40
492.14	19476.18
492.35	19781.33
492.55	19715.80
492.76	19812.05
492.97	19896.02
493.17	19740.37
493.38	20070.09
493.58	20264.65
493.79	20229.84
494.00	20352.71
494.20	20403.91
494.41	20672.20
494.61	20678.34
494.82	20651.72
495.02	20592.33
495.23	20842.18
495.44	21114.56
495.64	20956.86
495.85	21237.44
496.05	21016.26
496.26	21229.24
496.47	21444.28
496.67	21278.40
496.88	21415.61
497.08	21393.08
497.29	21743.28
497.49	21712.56
497.70	21866.16
497.91	22032.05
498.11	22146.73
498.32	22087.34
498.52	21980.85
498.73	22046.38
498.93	22376.11
499.14	22322.86
499.34	22361.77
499.55	22664.87
499.76	22402.73
499.96	22511.27
500.17	22541.99
500.37	22642.34
500.58	22814.37
500.78	22967.97
500.99	23033.50
501.19	22855.33
501.40	23137.95
501.60	22957.73
501.81	23178.91
502.02	22906.53
502.22	22982.31
502.43	23404.19
502.63	23522.97
502.84	23332.51
503.04	23469.72
503.25	23563.93
503.45	23672.47
503.66	23772.82
503.86	23484.06
504.07	23944.85
504.27	23608.98
504.48	24014.48
504.68	23975.57
504.89	24166.03
505.09	24118.93
505.30	24198.80
505.50	24069.78
505.71	24415.88
505.91	24219.28
506.12	24395.40
506.32	24430.22
506.53	24413.84
506.73	24678.02
506.94	24555.15
507.14	24180.37
507.35	24721.03
507.55	24610.44
507.76	24974.98
507.96	24297.10
508.17	25079.43
508.37	25087.62
508.58	25190.02
508.78	25095.81
508.99	25017.99
509.19	25079.43
509.40	25382.52
509.60	25175.68
509.81	25333.37
510.01	25147.01
510.22	25120.38
510.42	25196.16
510.63	25267.84
510.83	25382.52
511.04	25376.38
511.24	25644.66
511.44	25503.35
511.65	25603.71
511.85	25710.20
512.06	25790.07
512.26	25966.20
512.47	25925.24
512.67	25843.32
512.88	25904.76
513.08	25771.64
513.29	25882.23
513.49	25939.57
513.69	26232.43
513.90	26080.88
514.10	26058.35
514.31	26281.58
514.51	25480.83
514.72	26138.23
514.92	26263.15
515.13	26177.14
515.33	26302.06
515.53	26500.72
515.74	26146.42
515.94	26273.39
516.15	26566.25
516.35	26297.97
516.56	26633.83
516.76	26703.46
516.96	26617.45
517.17	26891.88
517.37	26881.64
517.58	26760.81
517.78	26754.66
517.99	26902.12
518.19	26981.99
518.39	27192.93
518.60	27096.67
518.80	27020.90
519.01	26887.78
519.21	27211.36
519.41	27414.11
519.62	27266.66
519.82	27774.55
520.03	27266.66
520.23	27414.11
520.43	27590.24
520.64	27719.26
520.84	27905.62
521.05	27604.57
521.25	27723.35
521.45	27653.72
521.66	28196.43
521.86	28128.85
522.07	27891.29
522.27	27928.15
522.47	27952.73
522.68	28214.87
522.88	27993.68
523.08	28472.91
523.29	28366.42
523.49	28407.37
523.70	28388.94
523.90	28548.68
524.10	28438.09
524.31	28915.27
524.51	28763.72
524.71	29062.72
524.92	28839.50
525.12	28917.32
525.33	28976.71
525.53	29177.41
525.73	29206.08
525.94	29410.88
526.14	29384.26
526.34	29376.06
526.55	29224.51
526.75	29517.37
526.95	29636.16
527.16	29679.16
527.36	29797.95
527.56	29961.78
527.77	29900.34
527.97	30248.50
528.17	29986.36
528.38	30471.73
528.58	29955.64
528.78	30580.27
528.99	30486.06
529.19	30572.08
529.39	30316.08
529.60	31002.15
529.80	30930.47
530.00	30621.23
530.21	31120.93
530.41	30924.33
530.61	30983.72
530.82	31039.01
531.02	31039.01
531.22	31366.69
531.43	31335.97
531.63	31665.69
531.83	31850.01
532.04	31757.85
532.24	31702.56
532.44	31925.78
532.64	32032.28
532.85	32253.46
533.05	32003.61
533.25	32316.95
533.46	32443.92
533.66	32484.88
533.86	32546.32
534.07	32822.80
534.27	32646.67
534.47	32562.70
534.67	33043.98
534.88	33046.02
535.08	32896.52
535.28	33488.38
535.49	33254.92
535.69	33684.99
535.89	33545.73
536.09	33619.46
536.30	34143.74
536.50	33566.21
536.70	33867.26
536.91	33938.94
537.11	34061.82
537.31	34424.31
537.51	34201.08
537.72	34627.06
537.92	34665.97
538.12	34995.69
538.32	34422.26
538.53	35298.79
538.73	34547.18
538.93	34889.20
539.13	34868.72
539.34	34807.28
539.54	34579.95
539.74	35085.80
539.94	35272.17
540.15	34983.40
540.35	35472.87
540.55	35110.38
540.75	35689.95
540.96	35687.90
541.16	35718.62
541.36	35941.85
541.56	36031.96
541.77	36103.64
541.97	36199.90
542.17	36185.56
542.37	36294.10
542.58	36615.63
542.78	36304.34
542.98	36275.67
543.18	36427.22
543.38	36867.53
543.59	36724.18
543.79	36910.54
543.99	36861.39
544.19	36773.33
544.40	36523.47
544.60	37170.63
544.80	37363.14
545.00	37512.64
545.20	37680.58
545.41	37543.36
545.61	37526.98
545.81	37516.74
546.01	37961.15
546.21	37936.57
546.42	37819.84
546.62	37879.23
546.82	37639.62
547.02	37901.76
547.22	38147.51
547.43	37916.09
547.63	38467.00
547.83	38487.48
548.03	38434.23
548.23	38540.72
548.44	38622.64
548.64	38643.12
548.84	38786.48
549.04	38548.92
549.24	38782.38
549.45	39009.71
549.65	39036.33
549.85	38983.09
550.05	39302.57
550.25	38909.36
550.45	39493.03
550.66	38964.65
550.86	39142.83
551.06	39478.69
551.26	39472.55
551.46	39523.75
551.66	39767.46
551.87	39341.48
552.07	39718.31
552.27	40052.12
552.47	40097.18
552.67	39998.88
552.87	40007.07
553.07	40134.04
553.28	39941.53
553.48	40179.10
553.68	40615.32
553.88	40777.11
554.08	40555.93
554.28	40625.56
554.48	40125.85
554.69	40660.37
554.89	40574.36
555.09	40744.34
555.29	40498.58
555.49	40969.61
555.69	41313.67
555.89	40717.71
556.10	41235.85
556.30	40879.50
556.50	40789.39
556.70	41153.93
556.90	41201.04
557.10	41065.87
557.30	40887.70
557.50	41635.20
557.70	41383.30
557.91	41385.35
558.11	41657.73
558.31	41760.13
558.51	41495.94
558.71	41641.35
558.91	41579.91
559.11	41440.65
559.31	41606.53
559.51	41850.24
559.72	41975.17
559.92	41821.57
560.12	41653.64
560.32	42212.73
560.52	41301.39
560.72	42159.48
560.92	42300.79
561.12	42096.00
561.32	42734.96
561.52	41923.97
561.72	42280.31
561.93	42415.48
562.13	42399.10
562.33	42366.33
562.53	42792.31
562.73	42431.86
562.93	42290.55
563.13	42761.59
563.33	42710.39
563.53	42456.44
563.73	42474.87
563.93	42974.58
564.13	43355.50
564.33	42763.64
564.53	42739.06
564.74	42587.51
564.94	42866.03
565.14	43085.17
565.34	42554.74
565.54	42939.76
565.74	42972.53
565.94	43101.55
566.14	42804.59
566.34	42661.24
566.54	43390.31
566.74	43013.49
566.94	43003.25
567.14	43486.57
567.34	43003.25
567.54	43447.66
567.74	43267.44
567.94	43142.51
568.14	43650.41
568.34	43699.56
568.54	43685.22
568.74	43431.27
568.94	43343.21
569.14	43982.18
569.34	43984.22
569.54	43507.05
569.75	43298.16
569.95	43795.81
570.15	43916.64
570.35	43492.71
570.55	43830.63
570.75	43545.96
570.95	43787.62
571.15	44098.91
571.35	44170.59
571.55	44234.08
571.75	44170.59
571.95	44324.19
572.15	44066.14
572.35	44041.57
572.55	44260.70
572.75	44191.07
572.95	44219.74
573.15	44344.67
573.35	44383.58
573.55	44338.52
573.75	44293.47
573.95	44209.50
574.15	44418.39
574.35	44514.65
574.55	44250.46
574.75	44377.43
574.95	45006.16
575.15	44389.72
575.34	44703.06
575.54	44940.63
575.74	44877.14
575.94	44635.48
576.14	44971.35
576.34	45258.06
576.54	45213.01
576.74	45237.58
576.94	44924.24
577.14	45032.78
577.34	45184.33
577.54	44924.24
577.74	44825.94
577.94	44952.91
578.14	45217.10
578.34	45303.12
578.54	44993.87
578.74	44590.42
578.94	45118.80
579.14	44817.75
579.34	45167.95
579.54	45075.79
579.74	45763.91
579.94	45342.03
580.13	45471.05
580.33	45526.35
580.53	45264.21
580.73	45446.47
580.93	45495.63
581.13	45823.30
581.33	46118.21
581.53	46028.10
581.73	45622.60
581.93	45888.84
582.13	45851.97
582.33	45847.88
582.53	45894.98
582.73	46312.77
582.92	46103.87
583.12	46196.03
583.32	45542.73
583.52	45931.84
583.72	46191.94
583.92	46097.73
584.12	45954.37
584.32	46597.43
584.52	46382.40
584.72	45983.04
584.92	46607.67
585.11	46697.78
585.31	46363.96
585.51	46841.14
585.71	46282.05
585.91	47056.18
586.11	46728.50
586.31	46708.02
586.51	46595.38
586.71	46372.16
586.91	46728.50
587.10	46660.92
587.30	46912.82
587.50	46513.47
587.70	46511.42
587.90	47144.24
588.10	47451.44
588.30	46630.20
588.50	46855.48
588.69	46875.96
