SpectraSuite Data File
++++++++++++++++++++++++++++++++++++
Date: Fri Jun 02 14:47:54 CEST 2017
User: INFO_000
Dark Spectrum Present: No
Reference Spectrum Present: No
Number of Sampled Component Spectra: 1
Spectrometers: USB4H00879
Integration Time (usec): 80000 (USB4H00879)
Spectra Averaged: 1 (USB4H00879)
Boxcar Smoothing: 0 (USB4H00879)
Correct for Electrical Dark: No (USB4H00879)
Strobe/Lamp Enabled: No (USB4H00879)
Correct for Detector Non-linearity: No (USB4H00879)
Correct for Stray Light: No (USB4H00879)
Number of Pixels in Processed Spectrum: 3648
>>>>>Begin Processed Spectral Data<<<<<
345.13	1245.16
345.34	1245.16
345.56	1245.16
345.78	1265.64
345.99	1304.56
346.21	1730.53
346.42	1685.48
346.64	1732.58
346.86	1818.60
347.07	1656.81
347.29	1736.68
347.50	1679.33
347.72	1695.72
347.94	1761.25
348.15	1654.76
348.37	1617.90
348.59	1685.48
348.80	1572.84
349.02	1683.43
349.23	1837.03
349.45	1744.87
349.67	1837.03
349.88	1808.36
350.10	1896.42
350.31	1783.78
350.53	1775.59
350.75	1982.43
350.96	1771.49
351.18	1765.35
351.39	1804.26
351.61	1781.73
351.82	1894.37
352.04	1865.70
352.26	1820.64
352.47	1902.56
352.69	1880.04
352.90	1724.39
353.12	1847.27
353.34	1880.04
353.55	1923.04
353.77	1884.13
353.98	1847.27
354.20	1820.64
354.41	1896.42
354.63	1880.04
354.85	1966.05
355.06	1841.12
355.28	1822.69
355.49	1863.65
355.71	1855.46
355.92	1851.36
356.14	1904.61
356.35	1871.84
356.57	1834.98
356.79	1978.34
357.00	1773.54
357.22	1986.53
357.43	1845.22
357.65	1941.47
357.86	1806.31
358.08	1937.38
358.29	1898.47
358.51	1970.15
358.72	1951.71
358.94	1888.23
359.16	1849.32
359.37	1900.52
359.59	1859.56
359.80	2002.91
360.02	1986.53
360.23	2007.01
360.45	1957.86
360.66	1923.04
360.88	1847.27
361.09	1863.65
361.31	1943.52
361.52	1992.67
361.74	2084.83
361.95	2076.64
362.17	1986.53
362.38	2060.26
362.60	2011.11
362.81	1947.62
363.03	1929.19
363.24	1925.09
363.46	2088.93
363.67	1949.67
363.89	1945.57
364.10	1966.05
364.32	2000.87
364.53	2027.49
364.75	1875.94
364.96	2066.40
365.18	2074.59
365.39	1927.14
365.61	2021.35
365.82	2093.02
366.04	1947.62
366.25	1972.19
366.47	2070.50
366.68	2088.93
366.90	2002.91
367.11	2082.78
367.33	2125.79
367.54	2148.32
367.76	2033.63
367.97	2074.59
368.19	2021.35
368.40	2021.35
368.62	1918.95
368.83	1937.38
369.05	1978.34
369.26	1943.52
369.48	2033.63
369.69	2011.11
369.91	2066.40
370.12	1966.05
370.33	2154.46
370.55	1877.99
370.76	2027.49
370.98	2080.74
371.19	2019.30
371.41	2023.39
371.62	2037.73
371.84	1980.39
372.05	2142.18
372.27	2113.50
372.48	2107.36
372.69	2099.17
372.91	2095.07
373.12	2174.94
373.34	2045.92
373.55	2174.94
373.77	2119.65
373.98	2101.22
374.20	2170.85
374.41	2281.44
374.62	2103.26
374.84	2183.13
375.05	2160.61
375.27	2160.61
375.48	2238.43
375.70	2199.52
375.91	2185.18
376.12	2279.39
376.34	2193.37
376.55	2113.50
376.77	2205.66
376.98	2103.26
377.19	2144.22
377.41	2123.74
377.62	2172.89
377.84	2328.54
378.05	2273.25
378.27	2166.75
378.48	2273.25
378.69	2404.32
378.91	2240.48
379.12	2260.96
379.34	2228.19
379.55	2303.96
379.76	2312.16
379.98	2236.38
380.19	2209.76
380.41	2230.24
380.62	2248.67
380.83	2176.99
381.05	2222.05
381.26	2365.40
381.47	2164.70
381.69	2277.34
381.90	2365.40
382.12	2344.92
382.33	2230.24
382.54	2265.05
382.76	2322.40
382.97	2246.62
383.19	2232.29
383.40	2430.94
383.61	2260.96
383.83	2301.92
384.04	2322.40
384.25	2334.68
384.47	2449.37
384.68	2316.25
384.89	2281.44
385.11	2459.61
385.32	2353.12
385.54	2289.63
385.75	2344.92
385.96	2324.44
386.18	2410.46
386.39	2453.47
386.60	2465.75
386.82	2410.46
387.03	2459.61
387.24	2365.40
387.46	2475.99
387.67	2471.90
387.88	2467.80
388.10	2480.09
388.31	2412.51
388.52	2449.37
388.74	2525.15
388.95	2480.09
389.16	2525.15
389.38	2486.23
389.59	2572.25
389.80	2594.78
390.02	2484.19
390.23	2596.82
390.44	2498.52
390.66	2564.06
390.87	2414.56
391.08	2547.67
391.30	2645.98
391.51	2688.98
391.72	2631.64
391.94	2637.78
392.15	2494.43
392.36	2598.87
392.58	2625.50
392.79	2697.17
393.00	2658.26
393.22	2682.84
393.43	2699.22
393.64	2793.43
393.85	2805.72
394.07	2658.26
394.28	2691.03
394.49	2658.26
394.71	2744.28
394.92	2942.93
395.13	2729.94
395.35	2748.37
395.56	2775.00
395.77	2785.24
395.98	2795.48
396.20	2826.20
396.41	2813.91
396.62	2971.60
396.84	2762.71
397.05	2811.86
397.26	2873.30
397.47	2985.94
397.69	2818.00
397.90	3008.47
398.11	2844.63
398.32	2914.26
398.54	2861.01
398.75	2926.55
398.96	2904.02
399.18	3086.29
399.39	2887.64
399.60	2934.74
399.81	2936.79
400.03	2977.75
400.24	3246.03
400.45	2920.40
400.66	3016.66
400.88	3020.75
401.09	3147.73
401.30	3053.52
401.51	3123.15
401.73	3071.95
401.94	3141.58
402.15	3215.31
402.36	3088.34
402.58	3102.67
402.79	3188.69
403.00	3198.93
403.21	3137.49
403.43	3190.74
403.64	3254.22
403.85	3196.88
404.06	3184.59
404.27	3096.53
404.49	3194.83
404.70	3200.98
404.91	3252.17
405.12	3233.74
405.34	3256.27
405.55	3409.87
405.76	3141.58
405.97	3192.78
406.19	3305.42
406.40	3170.26
406.61	3452.88
406.82	3358.67
407.03	3368.91
407.25	3321.81
407.46	3346.38
407.67	3321.81
407.88	3317.71
408.09	3336.14
408.31	3291.09
408.52	3489.74
408.73	3315.66
408.94	3436.49
409.15	3497.93
409.37	3411.92
409.58	3516.36
409.79	3481.55
410.00	3461.07
410.21	3356.62
410.43	3614.66
410.64	3475.40
410.85	3534.79
411.06	3583.95
411.27	3440.59
411.48	3659.72
411.70	3489.74
411.91	3551.18
412.12	3502.03
412.33	3549.13
412.54	3491.79
412.76	3604.42
412.97	3633.10
413.18	3559.37
413.39	3602.38
413.60	3727.30
413.81	3665.86
414.03	3592.14
414.24	3686.34
414.45	3717.06
414.66	3600.33
414.87	3760.07
415.08	3690.44
415.30	3762.12
415.51	3719.11
415.72	3839.94
415.93	3862.47
416.14	3788.74
416.35	3833.80
416.56	3817.41
416.78	3803.08
416.99	3862.47
417.20	3739.59
417.41	3966.92
417.62	3846.09
417.83	4024.26
418.04	3917.76
418.26	3950.53
418.47	3821.51
418.68	3942.34
418.89	3950.53
419.10	4202.43
419.31	3915.72
419.52	3940.29
419.73	3997.64
419.95	4063.17
420.16	3940.29
420.37	3985.35
420.58	4040.64
420.79	3854.28
421.00	4065.22
421.21	4097.99
421.42	4052.93
421.63	4198.34
421.85	4040.64
422.06	4153.28
422.27	4188.10
422.48	4218.82
422.69	4255.68
422.90	4237.25
423.11	4278.21
423.32	4313.02
423.53	4376.51
423.75	4360.13
423.96	4388.80
424.17	4339.65
424.38	4530.11
424.59	4351.93
424.80	4622.27
425.01	4519.87
425.22	4399.04
425.43	4452.28
425.64	4597.69
425.85	4483.00
426.06	4521.92
426.28	4517.82
426.49	4472.76
426.70	4474.81
426.91	4509.63
427.12	4554.68
427.33	4552.63
427.54	4691.90
427.75	4689.85
427.96	4730.81
428.17	4691.90
428.38	4732.86
428.59	4835.25
428.80	4712.38
429.01	4847.54
429.23	4708.28
429.44	5025.72
429.65	4986.80
429.86	4771.77
430.07	4882.36
430.28	4782.01
430.49	5062.58
430.70	5056.43
430.91	5066.67
431.12	4892.60
431.33	5083.06
431.54	5201.84
431.75	5038.00
431.96	4925.36
432.17	5103.54
432.38	4986.80
432.59	5226.42
432.80	5189.55
433.01	5232.56
433.22	5246.90
433.43	5257.14
433.64	5281.71
433.85	5296.05
434.06	5386.16
434.27	5263.28
434.49	5394.35
434.70	5404.59
434.91	5502.89
435.12	5513.13
435.33	5453.74
435.54	5474.22
435.75	5320.62
435.96	5566.38
436.17	5328.81
436.38	5576.62
436.59	5586.86
436.80	5474.22
437.01	5785.51
437.22	5748.65
437.43	5685.16
437.64	5541.80
437.85	5738.41
438.06	5732.26
438.27	5703.59
438.48	5736.36
438.69	5869.48
438.90	5828.52
439.11	5621.67
439.32	5846.95
439.53	5664.68
439.74	5877.67
439.95	5777.32
440.16	5851.05
440.37	5918.63
440.57	5722.02
440.78	6066.08
440.99	5998.50
441.20	5918.63
441.41	5904.29
441.62	6115.23
441.83	5955.49
442.04	6090.66
442.25	6080.42
442.46	6008.74
442.67	6285.22
442.88	6449.05
443.09	5885.86
443.30	6115.23
443.51	6061.99
443.72	6256.54
443.93	6123.43
444.14	6352.80
444.35	6176.67
444.56	6307.74
444.77	6254.50
444.98	6307.74
445.19	6358.94
445.40	6184.87
445.61	6322.08
445.81	6563.74
446.02	6510.49
446.23	6479.77
446.44	6346.66
446.65	6492.06
446.86	6442.91
447.07	6635.42
447.28	6596.51
447.49	6590.36
447.70	6639.51
447.91	6623.13
448.12	6522.78
448.33	6680.47
448.54	6850.46
448.74	6463.39
448.95	6748.06
449.16	6672.28
449.37	6854.55
449.58	6764.44
449.79	6922.13
450.00	6645.66
450.21	6887.32
450.42	6995.86
450.63	6891.41
450.84	6973.33
451.05	7118.74
451.25	6999.96
451.46	6743.96
451.67	7206.80
451.88	7153.55
452.09	7088.02
452.30	6838.17
452.51	7135.12
452.72	7079.83
452.93	7409.55
453.13	7120.79
453.34	7063.44
453.55	7348.11
453.76	7245.71
453.97	7497.61
454.18	7366.54
454.39	7454.61
454.60	7339.92
454.81	7423.89
455.01	7542.67
455.22	7253.91
455.43	7448.46
455.64	7735.18
455.85	7716.75
456.06	7929.74
456.27	7819.14
456.48	7557.00
456.68	7712.65
456.89	7653.26
457.10	7821.19
457.31	7839.62
457.52	7856.01
457.73	7681.93
457.94	8050.57
458.14	8042.37
458.35	8204.16
458.56	8142.72
458.77	8032.13
458.98	8241.03
459.19	8349.57
459.39	8351.62
459.60	8374.14
459.81	8195.97
460.02	8460.16
460.23	8376.19
460.44	8576.89
460.65	8566.65
460.85	8451.97
461.06	8630.14
461.27	8478.59
461.48	8847.22
461.69	8929.14
461.89	8591.23
462.10	8855.42
462.31	8587.13
462.52	8644.48
462.73	8867.70
462.94	9123.70
463.14	9117.56
463.35	9023.35
463.56	9492.34
463.77	9258.87
463.98	9217.91
464.18	9316.21
464.39	9351.03
464.60	9471.86
464.81	9465.71
465.02	9400.18
465.23	9736.04
465.43	9643.88
465.64	9738.09
465.85	9789.29
466.06	9662.32
466.27	10006.38
466.47	9979.75
466.68	10018.66
466.89	9912.17
467.10	9899.88
467.30	10010.47
467.51	10157.92
467.72	10524.51
467.93	10102.63
468.14	10385.25
468.34	10434.40
468.55	10571.61
468.76	10346.34
468.97	10557.28
469.17	10843.99
469.38	10985.30
469.59	11022.17
469.80	10626.91
470.01	10807.13
470.21	10813.28
470.42	11143.00
470.63	11257.68
470.84	10909.53
471.04	11054.94
471.25	11192.15
471.46	11417.43
471.67	11808.59
471.87	11413.33
472.08	11540.30
472.29	11902.79
472.50	11657.04
472.70	11554.64
472.91	11706.19
473.12	11958.09
473.33	12109.64
473.53	12267.33
473.74	11984.71
473.95	12390.21
474.16	12201.80
474.36	12111.69
474.57	12693.31
474.78	12717.89
474.99	12502.85
475.19	12437.31
475.40	12738.37
475.61	12828.48
475.81	13070.14
476.02	13119.29
476.23	12894.01
476.44	13244.21
476.64	13344.56
476.85	13528.88
477.06	13289.27
477.27	13768.49
477.47	13858.60
477.68	13586.22
477.89	13881.13
478.09	13891.37
478.30	13731.63
478.51	13856.56
478.71	14173.99
478.92	14440.23
479.13	14331.69
479.34	14470.95
479.54	14460.71
479.75	14503.71
479.96	14520.10
480.16	14688.03
480.37	14753.57
480.58	14724.90
480.78	15075.10
480.99	15191.83
481.20	15079.19
481.41	15324.95
481.61	15281.94
481.82	15408.92
482.03	15548.18
482.23	15896.33
482.44	15941.39
482.65	15703.82
482.85	16019.21
483.06	16064.27
483.27	15953.68
483.47	16066.31
483.68	16066.31
483.89	15990.54
484.09	16258.82
484.30	16342.79
484.51	16643.84
484.71	16731.90
484.92	16672.51
485.13	16813.82
485.33	16877.31
485.54	16948.99
485.75	16957.18
485.95	17102.59
486.16	17264.38
486.37	17567.48
486.57	17276.66
486.78	17458.93
486.98	17518.32
487.19	17618.68
487.40	17721.07
487.60	17831.66
487.81	18097.90
488.02	17966.83
488.22	17960.69
488.43	18126.57
488.64	18398.95
488.84	18181.87
489.05	18231.02
489.25	18378.47
489.46	18814.69
489.67	18882.27
489.87	18779.87
490.08	18626.28
490.29	18810.59
490.49	19109.60
490.70	19255.00
490.90	19326.68
491.11	19191.52
491.32	19347.16
491.52	19252.95
491.73	19500.76
491.94	19531.48
492.14	19699.41
492.35	19635.92
492.55	19887.82
492.76	20109.01
492.97	20192.97
493.17	20229.84
493.38	20186.83
493.58	20440.78
493.79	20453.06
494.00	20268.75
494.20	20289.23
494.41	20700.87
494.61	20674.24
494.82	20932.29
495.02	20864.71
495.23	20809.41
495.44	21317.31
495.64	20999.87
495.85	21163.71
496.05	21479.10
496.26	21341.88
496.47	21681.85
496.67	21393.08
496.88	21978.80
497.08	21585.59
497.29	21958.32
497.49	21733.04
497.70	22146.73
497.91	22294.19
498.11	22431.40
498.32	22361.77
498.52	22113.97
498.73	22286.00
498.93	22654.63
499.14	22484.65
499.34	22859.43
499.55	22797.99
499.76	22906.53
499.96	22947.49
500.17	22982.31
500.37	23060.13
500.58	23418.52
500.78	23297.69
500.99	23230.11
501.19	23527.06
501.40	23350.94
501.60	23340.70
501.81	23561.88
502.02	23563.93
502.22	23633.56
502.43	23934.61
502.63	24022.67
502.84	24346.25
503.04	23965.33
503.25	24307.34
503.45	23975.57
503.66	24278.67
503.86	24188.56
504.07	24600.20
504.27	24311.44
504.48	24530.57
504.68	24897.16
504.89	24950.40
505.09	25118.34
505.30	24796.81
505.50	25204.35
505.71	24985.22
505.91	25175.68
506.12	25233.02
506.32	25249.41
506.53	25337.47
506.73	25255.55
506.94	25740.92
507.14	25577.08
507.35	25525.88
507.55	25577.08
507.76	25736.82
507.96	25702.01
508.17	25869.94
508.37	25962.10
508.58	25790.07
508.78	25855.61
508.99	25980.53
509.19	26060.40
509.40	26211.95
509.60	26252.91
509.81	26152.56
510.01	26308.21
510.22	26560.11
510.42	26543.72
510.63	26603.11
510.83	26502.76
511.04	26596.97
511.24	26756.71
511.44	26709.61
511.65	26711.66
511.85	26793.58
512.06	26627.69
512.26	27100.77
512.47	27205.22
512.67	27154.02
512.88	26809.96
513.08	26795.62
513.29	27182.69
513.49	27186.79
513.69	27223.65
513.90	26975.84
514.10	27225.70
514.31	27242.08
514.51	27561.56
514.72	27700.83
514.92	27655.77
515.13	27336.29
515.33	27702.87
515.53	27594.33
515.74	27856.47
515.94	28223.06
516.15	27860.57
516.35	27995.73
516.56	27872.85
516.76	27754.07
516.96	28104.28
517.17	28141.14
517.37	28063.32
517.58	28157.52
517.78	27883.09
517.99	27960.92
518.19	28526.16
518.39	28520.01
518.60	28571.21
518.80	28427.85
519.01	28669.51
519.21	28442.19
519.41	28819.02
519.62	28556.88
519.82	28425.81
520.03	28669.51
520.23	28749.39
520.43	28819.02
520.64	29138.50
520.84	29367.87
521.05	28855.88
521.25	29290.05
521.45	29423.17
521.66	29269.57
521.86	29605.44
522.07	29283.91
522.27	29648.44
522.47	29460.03
522.68	29634.11
522.88	29457.98
523.08	30158.39
523.29	29822.52
523.49	29967.93
523.70	30230.07
523.90	30223.92
524.10	30062.13
524.31	30131.76
524.51	29957.69
524.71	30324.27
524.92	30025.27
525.12	30488.11
525.33	30348.85
525.53	30363.18
525.73	30815.79
525.94	30862.89
526.14	30850.60
526.34	30678.57
526.55	31041.06
526.75	30776.87
526.95	31125.03
527.16	30764.59
527.36	31372.83
527.56	31290.91
527.77	31551.01
527.97	31413.79
528.17	31059.49
528.38	31632.93
528.58	31612.45
528.78	32026.14
528.99	31766.04
529.19	32163.35
529.39	31788.57
529.60	31813.15
529.80	31901.21
530.00	32515.60
530.21	32501.26
530.41	32734.73
530.61	32390.67
530.82	32456.21
531.02	32531.98
531.22	32632.33
531.43	32904.71
531.63	33164.81
531.83	32859.66
532.04	33191.43
532.24	33007.11
532.44	33545.73
532.64	33670.65
532.85	33805.82
533.05	33572.35
533.25	33586.69
533.46	33703.42
533.66	34018.81
533.86	34000.38
534.07	34309.62
534.27	34346.48
534.47	34588.14
534.67	34309.62
534.88	34477.55
535.08	34565.62
535.28	34790.89
535.49	34776.56
535.69	35266.02
535.89	34678.25
536.09	35141.10
536.30	35261.93
536.50	35251.69
536.70	35481.06
536.91	35468.77
537.11	35161.58
537.31	35558.88
537.51	35780.06
537.72	35833.31
537.92	36029.91
538.12	36203.99
538.32	35929.56
538.53	36556.24
538.73	35904.99
538.93	36601.30
539.13	36414.93
539.34	36410.84
539.54	36312.53
539.74	36863.44
539.94	36679.12
540.15	36980.17
540.35	37066.19
540.55	37307.85
540.75	37041.61
540.96	37119.43
541.16	37586.37
541.36	37283.27
541.56	37250.50
541.77	37807.55
541.97	37590.47
542.17	37963.20
542.37	37684.67
542.58	37680.58
542.78	37713.34
542.98	37938.62
543.18	38065.60
543.38	38165.95
543.59	38241.72
543.79	38086.07
543.99	38333.88
544.19	38710.71
544.40	38534.58
544.60	38682.03
544.80	38872.49
545.00	38542.77
545.20	39069.10
545.41	39314.86
545.61	39124.40
545.81	39407.01
546.01	39396.77
546.21	38960.56
546.42	39386.54
546.62	39380.39
546.82	39441.83
547.02	39521.70
547.22	39601.57
547.43	39183.79
547.63	39828.90
547.83	40060.32
548.03	39902.62
548.23	40017.31
548.44	39884.19
548.64	39783.84
548.84	40107.42
549.04	40314.26
549.24	40306.07
549.45	40580.50
549.65	40293.79
549.85	40603.03
550.05	40799.63
550.25	40199.58
550.45	41053.58
550.66	40676.76
550.86	40643.99
551.06	41129.36
551.26	40560.02
551.46	40828.30
551.66	41201.04
551.87	41043.34
552.07	41397.64
552.27	41131.40
552.47	41364.87
552.67	41272.71
552.87	41506.18
553.07	41428.36
553.28	41485.70
553.48	41786.75
553.68	41682.31
553.88	41723.27
554.08	41932.16
554.28	41708.93
554.48	41598.34
554.69	41747.84
554.89	41647.49
555.09	41579.91
555.29	41655.68
555.49	42104.19
555.69	41891.20
555.89	42071.42
556.10	42300.79
556.30	41989.50
556.50	42173.82
556.70	42175.87
556.90	42030.46
557.10	42544.50
557.30	42149.24
557.50	42237.31
557.70	42325.37
557.91	42841.46
558.11	42530.17
558.31	42605.94
558.51	42784.12
558.71	42644.85
558.91	42884.47
559.11	42374.52
559.31	42614.13
559.51	42612.09
559.72	42747.25
559.92	42857.84
560.12	42634.61
560.32	43097.45
560.52	42866.03
560.72	42853.75
560.92	42589.56
561.12	43167.09
561.32	43339.11
561.52	43011.44
561.72	43494.76
561.93	42870.13
562.13	43304.30
562.33	43066.73
562.53	43296.11
562.73	43054.45
562.93	43136.37
563.13	43242.86
563.33	42831.22
563.53	43337.07
563.73	42923.38
563.93	43656.55
564.13	43603.30
564.33	43476.33
564.53	43461.99
564.74	44107.10
564.94	43169.13
565.14	43586.92
565.34	43332.97
565.54	43505.00
565.74	43644.26
565.94	44021.09
566.14	43408.75
566.34	43433.32
566.54	44084.58
566.74	43752.80
566.94	43599.21
567.14	43773.28
567.34	43208.04
567.54	43867.49
567.74	43439.47
567.94	43679.08
568.14	43930.98
568.34	44090.72
568.54	43818.34
568.74	43873.63
568.94	43933.03
569.14	43955.55
569.34	44057.95
569.54	44111.20
569.75	44137.82
569.95	43930.98
570.15	44002.66
570.35	44029.28
570.55	43767.14
570.75	44160.35
570.95	44348.76
571.15	44346.72
571.35	44602.71
571.55	44754.26
571.75	44299.61
571.95	44252.51
572.15	44125.53
572.35	44465.50
572.55	44301.66
572.75	44739.93
572.95	44479.83
573.15	44735.83
573.35	44774.74
573.55	44191.07
573.75	44827.99
573.95	44653.91
574.15	44571.99
574.35	44807.51
574.55	44801.36
574.75	44623.19
574.95	44660.05
575.15	44598.62
575.34	44651.86
575.54	45133.14
575.74	45149.52
575.94	45030.74
576.14	45159.76
576.34	45366.60
576.54	45446.47
576.74	45018.45
576.94	44883.28
577.14	45165.90
577.34	45761.86
577.54	45071.70
577.74	45364.56
577.94	45634.89
578.14	45462.86
578.34	45808.96
578.54	44977.49
578.74	45389.13
578.94	46069.06
579.14	45497.67
579.34	45692.23
579.54	46406.97
579.74	46398.78
579.94	45976.90
580.13	46443.84
580.33	45983.04
580.53	46304.57
580.73	46021.95
580.93	46052.67
581.13	45966.66
581.33	46476.60
581.53	46757.17
581.73	46869.81
581.93	46241.09
582.13	46740.79
582.33	46718.26
582.53	46626.10
582.73	46665.02
582.92	46748.98
583.12	46808.37
583.32	46941.49
583.52	46968.12
583.72	46751.03
583.92	47162.67
584.12	47215.92
584.32	47396.14
584.52	47363.37
584.72	47207.73
584.92	47224.11
585.11	47572.27
585.31	47549.74
585.51	47764.78
585.71	47410.48
585.91	48074.02
586.11	48061.73
586.31	47633.71
586.51	47789.35
586.71	48235.81
586.91	47990.05
587.10	48518.43
587.30	48223.52
587.50	48170.27
587.70	48332.06
587.90	48399.65
588.10	48534.81
588.30	48551.20
588.50	48659.74
