SpectraSuite Data File
++++++++++++++++++++++++++++++++++++
Date: Fri Jun 02 14:47:55 CEST 2017
User: INFO_000
Dark Spectrum Present: No
Reference Spectrum Present: No
Number of Sampled Component Spectra: 1
Spectrometers: USB4H00879
Integration Time (usec): 80000 (USB4H00879)
Spectra Averaged: 1 (USB4H00879)
Boxcar Smoothing: 0 (USB4H00879)
Correct for Electrical Dark: No (USB4H00879)
Strobe/Lamp Enabled: No (USB4H00879)
Correct for Detector Non-linearity: No (USB4H00879)
Correct for Stray Light: No (USB4H00879)
Number of Pixels in Processed Spectrum: 3648
>>>>>Begin Processed Spectral Data<<<<<
345.13	1267.69
345.34	1267.69
345.56	1267.69
345.78	1273.84
345.99	1230.83
346.21	1681.38
346.42	1726.44
346.64	1650.66
346.86	1808.36
347.07	1683.43
347.29	1765.35
347.50	1593.32
347.72	1640.42
347.94	1742.82
348.15	1564.65
348.37	1603.56
348.59	1736.68
348.80	1609.70
349.02	1796.07
349.23	1912.80
349.45	1912.80
349.67	1869.80
349.88	1769.44
350.10	1935.33
350.31	1867.75
350.53	1826.79
350.75	1982.43
350.96	1804.26
351.18	1916.90
351.39	1847.27
351.61	1779.68
351.82	1896.42
352.04	1935.33
352.26	1886.18
352.47	1951.71
352.69	1918.95
352.90	1697.77
353.12	1781.73
353.34	1861.60
353.55	1898.47
353.77	1865.70
353.98	1884.13
354.20	1810.40
354.41	1880.04
354.63	1908.71
354.85	2002.91
355.06	1886.18
355.28	1779.68
355.49	1925.09
355.71	1853.41
355.92	1906.66
356.14	1968.10
356.35	1816.55
356.57	1847.27
356.79	1959.91
357.00	1853.41
357.22	1927.14
357.43	1888.23
357.65	1957.86
357.86	1863.65
358.08	1914.85
358.29	2021.35
358.51	2031.58
358.72	1959.91
358.94	1949.67
359.16	1882.08
359.37	1966.05
359.59	1886.18
359.80	1916.90
360.02	1865.70
360.23	1966.05
360.45	1955.81
360.66	1877.99
360.88	1892.32
361.09	1949.67
361.31	2047.97
361.52	1955.81
361.74	2097.12
361.95	2090.98
362.17	1912.80
362.38	1994.72
362.60	2064.35
362.81	1920.99
363.03	2000.87
363.24	2027.49
363.46	2031.58
363.67	2009.06
363.89	1937.38
364.10	2039.78
364.32	1884.13
364.53	2025.44
364.75	1916.90
364.96	2082.78
365.18	1914.85
365.39	2084.83
365.61	2002.91
365.82	2074.59
366.04	2031.58
366.25	2045.92
366.47	2015.20
366.68	1980.39
366.90	1972.19
367.11	2090.98
367.33	2043.87
367.54	2066.40
367.76	2027.49
367.97	2090.98
368.19	1955.81
368.40	2033.63
368.62	2027.49
368.83	2013.15
369.05	2109.41
369.26	2019.30
369.48	2031.58
369.69	1953.76
369.91	2082.78
370.12	2023.39
370.33	2060.26
370.55	2025.44
370.76	2129.89
370.98	2101.22
371.19	2068.45
371.41	2074.59
371.62	2095.07
371.84	2056.16
372.05	2070.50
372.27	1929.19
372.48	2002.91
372.69	2029.54
372.91	2101.22
373.12	2256.86
373.34	2107.36
373.55	2144.22
373.77	2224.09
373.98	2090.98
374.20	2158.56
374.41	2205.66
374.62	2070.50
374.84	2191.33
375.05	2150.37
375.27	2183.13
375.48	2166.75
375.70	2148.32
375.91	2222.05
376.12	2328.54
376.34	2189.28
376.55	2226.14
376.77	2203.61
376.98	2183.13
377.19	2113.50
377.41	2129.89
377.62	2299.87
377.84	2211.81
378.05	2283.49
378.27	2076.64
378.48	2238.43
378.69	2320.35
378.91	2201.57
379.12	2265.05
379.34	2303.96
379.55	2267.10
379.76	2265.05
379.98	2295.77
380.19	2254.81
380.41	2234.33
380.62	2295.77
380.83	2275.29
381.05	2158.56
381.26	2410.46
381.47	2277.34
381.69	2306.01
381.90	2430.94
382.12	2174.94
382.33	2217.95
382.54	2301.92
382.76	2314.20
382.97	2215.90
383.19	2203.61
383.40	2416.60
383.61	2314.20
383.83	2271.20
384.04	2306.01
384.25	2375.64
384.47	2402.27
384.68	2439.13
384.89	2301.92
385.11	2258.91
385.32	2338.78
385.54	2342.88
385.75	2367.45
385.96	2377.69
386.18	2486.23
386.39	2426.84
386.60	2475.99
386.82	2441.18
387.03	2383.84
387.24	2516.95
387.46	2461.66
387.67	2455.51
387.88	2482.14
388.10	2369.50
388.31	2453.47
388.52	2576.34
388.74	2498.52
388.95	2475.99
389.16	2496.47
389.38	2594.78
389.59	2572.25
389.80	2598.87
390.02	2551.77
390.23	2545.63
390.44	2519.00
390.66	2516.95
390.87	2478.04
391.08	2648.02
391.30	2691.03
391.51	2598.87
391.72	2740.18
391.94	2633.69
392.15	2584.54
392.36	2621.40
392.58	2617.30
392.79	2551.77
393.00	2680.79
393.22	2727.89
393.43	2813.91
393.64	2809.81
393.85	2697.17
394.07	2590.68
394.28	2637.78
394.49	2715.61
394.71	2793.43
394.92	2858.96
395.13	2682.84
395.35	2711.51
395.56	2772.95
395.77	2809.81
395.98	2781.14
396.20	2844.63
396.41	2797.53
396.62	2883.54
396.84	2768.85
397.05	2789.33
397.26	2836.44
397.47	2944.98
397.69	2850.77
397.90	2932.69
398.11	2920.40
398.32	2838.48
398.54	2908.12
398.75	2793.43
398.96	2875.35
399.18	3002.32
399.39	3043.28
399.60	3030.99
399.81	3014.61
400.03	2953.17
400.24	3239.89
400.45	2873.30
400.66	3102.67
400.88	3033.04
401.09	3094.48
401.30	2996.18
401.51	3071.95
401.73	3069.91
401.94	3186.64
402.15	3141.58
402.36	3166.16
402.58	3121.10
402.79	3166.16
403.00	3198.93
403.21	3268.56
403.43	3239.89
403.64	3334.09
403.85	3272.65
404.06	3205.07
404.27	3094.48
404.49	3039.19
404.70	3192.78
404.91	3186.64
405.12	3215.31
405.34	3235.79
405.55	3454.92
405.76	3207.12
405.97	3248.08
406.19	3399.63
406.40	3196.88
406.61	3358.67
406.82	3243.98
407.03	3301.33
407.25	3205.07
407.46	3289.04
407.67	3309.52
407.88	3416.01
408.09	3444.68
408.31	3368.91
408.52	3413.96
408.73	3358.67
408.94	3364.81
409.15	3487.69
409.37	3502.03
409.58	3477.45
409.79	3542.99
410.00	3479.50
410.21	3370.96
410.43	3452.88
410.64	3456.97
410.85	3618.76
411.06	3567.56
411.27	3569.61
411.48	3604.42
411.70	3463.12
411.91	3626.95
412.12	3588.04
412.33	3635.14
412.54	3450.83
412.76	3626.95
412.97	3684.30
413.18	3489.74
413.39	3629.00
413.60	3631.05
413.81	3702.73
414.03	3581.90
414.24	3735.50
414.45	3780.55
414.66	3665.86
414.87	3772.36
415.08	3755.97
415.30	3735.50
415.51	3766.21
415.72	3762.12
415.93	3712.97
416.14	3803.08
416.35	3735.50
416.56	3803.08
416.78	3788.74
416.99	3901.38
417.20	3780.55
417.41	3956.68
417.62	3948.48
417.83	3930.05
418.04	3792.84
418.26	3885.00
418.47	3928.00
418.68	4016.07
418.89	4001.73
419.10	4059.07
419.31	3979.20
419.52	4061.12
419.73	4061.12
419.95	3979.20
420.16	3925.96
420.37	4057.03
420.58	4042.69
420.79	3936.20
421.00	4026.31
421.21	4157.38
421.42	4073.41
421.63	4073.41
421.85	4202.43
422.06	4124.61
422.27	4245.44
422.48	4077.51
422.69	4114.37
422.90	4249.54
423.11	4145.09
423.32	4302.78
423.53	4327.36
423.75	4288.45
423.96	4376.51
424.17	4366.27
424.38	4386.75
424.59	4378.56
424.80	4450.24
425.01	4390.84
425.22	4483.00
425.43	4501.44
425.64	4702.14
425.85	4513.72
426.06	4450.24
426.28	4601.79
426.49	4462.52
426.70	4501.44
426.91	4599.74
427.12	4728.76
427.33	4646.84
427.54	4493.24
427.75	4689.85
427.96	4755.38
428.17	4661.18
428.38	4769.72
428.59	4790.20
428.80	4802.49
429.01	4726.71
429.23	4683.70
429.44	5007.28
429.65	4884.41
429.86	5025.72
430.07	4898.74
430.28	4937.65
430.49	4968.37
430.70	4997.04
430.91	5033.91
431.12	5066.67
431.33	5181.36
431.54	5109.68
431.75	5130.16
431.96	5058.48
432.17	5124.02
432.38	5140.40
432.59	5312.43
432.80	5195.70
433.01	5171.12
433.22	5400.49
433.43	5472.17
433.64	5216.18
433.85	5294.00
434.06	5197.74
434.27	5259.18
434.49	5367.73
434.70	5545.90
434.91	5302.19
435.12	5545.90
435.33	5451.69
435.54	5484.46
435.75	5177.26
435.96	5425.07
436.17	5410.73
436.38	5541.80
436.59	5570.48
436.80	5556.14
437.01	5781.42
437.22	5619.63
437.43	5564.33
437.64	5423.02
437.85	5687.21
438.06	5769.13
438.27	5681.07
438.48	5762.98
438.69	5793.70
438.90	5869.48
439.11	5609.39
439.32	5822.38
439.53	5754.79
439.74	5873.57
439.95	5849.00
440.16	5734.31
440.37	5820.33
440.57	5711.78
440.78	5887.91
440.99	6008.74
441.20	5939.11
441.41	5879.72
441.62	5875.62
441.83	5855.14
442.04	6193.06
442.25	5978.02
442.46	5961.64
442.67	6170.53
442.88	6475.68
443.09	6008.74
443.30	6090.66
443.51	6059.94
443.72	6432.67
443.93	6023.08
444.14	6332.32
444.35	6074.28
444.56	6209.44
444.77	6211.49
444.98	6330.27
445.19	6471.58
445.40	6311.84
445.61	6234.02
445.81	6375.33
446.02	6422.43
446.23	6379.42
446.44	6320.03
446.65	6475.68
446.86	6565.79
447.07	6533.02
447.28	6756.25
447.49	6526.88
447.70	6533.02
447.91	6670.23
448.12	6733.72
448.33	6840.22
448.54	6688.67
448.74	6594.46
448.95	6913.94
449.16	6811.54
449.37	6868.89
449.58	6793.11
449.79	6848.41
450.00	6725.53
450.21	6868.89
450.42	6881.18
450.63	6963.09
450.84	6920.09
451.05	6991.77
451.25	6973.33
451.46	6997.91
451.67	7114.64
451.88	7358.35
452.09	7139.22
452.30	7008.15
452.51	7280.53
452.72	7231.38
452.93	7530.38
453.13	7225.23
453.34	7258.00
453.55	7272.34
453.76	7376.78
453.97	7483.28
454.18	7468.94
454.39	7595.92
454.60	7499.66
454.81	7501.71
455.01	7706.51
455.22	7403.41
455.43	7718.79
455.64	7860.10
455.85	7688.07
456.06	7944.07
456.27	7753.61
456.48	7651.21
456.68	7786.38
456.89	8038.28
457.10	8009.61
457.31	7858.06
457.52	7901.06
457.73	7851.91
457.94	8374.14
458.14	7919.50
458.35	8378.24
458.56	8087.43
458.77	8091.52
458.98	8198.02
459.19	8277.89
459.39	8320.90
459.60	8449.92
459.81	8435.58
460.02	8480.64
460.23	8417.15
460.44	8691.58
460.65	8580.99
460.85	8519.55
461.06	8611.71
461.27	8472.45
461.48	8859.51
461.69	8710.01
461.89	8617.85
462.10	8656.76
462.31	8585.08
462.52	8920.95
462.73	8759.16
462.94	9025.40
463.14	8972.15
463.35	8974.20
463.56	9432.94
463.77	9271.15
463.98	9179.00
464.18	9242.48
464.39	9428.85
464.60	9432.94
464.81	9449.33
465.02	9437.04
465.23	9707.37
465.43	9555.82
465.64	9779.05
465.85	9715.56
466.06	9404.27
466.27	9908.07
466.47	9967.46
466.68	9789.29
466.89	10012.52
467.10	9987.94
467.30	9846.63
467.51	9989.99
467.72	10307.43
467.93	10006.38
468.14	10336.10
468.34	10458.98
468.55	10561.37
468.76	10483.55
468.97	10286.95
469.17	10659.68
469.38	10770.27
469.59	10751.84
469.80	10657.63
470.01	10710.88
470.21	10856.28
470.42	11069.27
470.63	11192.15
470.84	10784.60
471.04	11218.77
471.25	11288.40
471.46	11003.74
471.67	11534.16
471.87	11237.20
472.08	11485.01
472.29	11741.00
472.50	11388.75
472.70	11568.98
472.91	11571.02
473.12	11837.26
473.33	11874.12
473.53	12001.10
473.74	11870.03
473.95	12105.54
474.16	12363.59
474.36	12261.19
474.57	12371.78
474.78	12592.96
474.99	12564.29
475.19	12396.35
475.40	12726.08
475.61	12836.67
475.81	13004.60
476.02	13227.83
476.23	13195.06
476.44	13330.23
476.64	13453.11
476.85	13459.25
477.06	13283.13
477.27	13449.01
477.47	13623.09
477.68	13909.80
477.89	13946.67
478.09	13993.77
478.30	13846.32
478.51	14044.97
478.71	14038.83
478.92	14245.67
479.13	14462.76
479.34	14253.86
479.54	14350.12
479.75	14384.93
479.96	14602.02
480.16	14571.30
480.37	14759.71
480.58	14941.98
480.78	15091.48
480.99	15427.35
481.20	15257.37
481.41	15429.40
481.61	15290.13
481.82	15847.18
482.03	15574.80
482.23	15449.88
482.44	16148.23
482.65	15929.10
482.85	16002.83
483.06	16017.16
483.27	16111.37
483.47	16144.14
483.68	16367.37
483.89	16381.70
484.09	16344.84
484.30	16586.50
484.51	16891.65
484.71	16756.48
484.92	16680.71
485.13	16987.90
485.33	17282.81
485.54	16764.67
485.75	17100.54
485.95	17727.22
486.16	17495.80
486.37	17223.42
486.57	17458.93
486.78	17428.21
486.98	17858.29
487.19	17673.97
487.40	17923.82
487.60	18255.59
487.81	18241.26
488.02	18308.84
488.22	18181.87
488.43	18415.34
488.64	17956.59
488.84	18718.43
489.05	18689.76
489.25	18607.84
489.46	18908.90
489.67	18710.24
489.87	19078.88
490.08	19138.27
490.29	19078.88
490.49	19556.05
490.70	19453.66
490.90	19359.45
491.11	19451.61
491.32	19621.59
491.52	19656.40
491.73	19611.35
491.94	19904.21
492.14	19928.78
492.35	19965.65
492.55	19992.27
492.76	20227.79
492.97	20401.86
493.17	20436.68
493.38	20471.50
493.58	20559.56
493.79	20764.36
494.00	20512.46
494.20	20489.93
494.41	20700.87
494.61	21008.06
494.82	20895.43
495.02	20883.14
495.23	21323.45
495.44	21087.93
495.64	21364.41
495.85	20876.99
496.05	21507.77
496.26	21522.10
496.47	21759.67
496.67	21585.59
496.88	21933.75
497.08	21575.35
497.29	22089.39
497.49	21827.25
497.70	22085.30
497.91	22095.53
498.11	22296.24
498.32	22505.13
498.52	22324.91
498.73	22498.98
498.93	22374.06
499.14	22746.79
499.34	22711.97
499.55	23033.50
499.76	22750.88
499.96	22812.32
500.17	23013.02
500.37	22933.15
500.58	22740.64
500.78	22988.45
500.99	23080.61
501.19	23316.12
501.40	23459.48
501.60	23133.86
501.81	23539.35
502.02	23613.08
502.22	23461.53
502.43	23678.61
502.63	23719.57
502.84	23711.38
503.04	23854.74
503.25	23776.92
503.45	23930.51
503.66	24055.44
503.86	23879.32
504.07	24157.84
504.27	23975.57
504.48	24319.63
504.68	24417.93
504.89	24542.86
505.09	24538.76
505.30	24497.80
505.50	24526.47
505.71	24997.51
505.91	24882.82
506.12	24829.57
506.32	24915.59
506.53	24958.60
506.73	25007.75
506.94	25235.07
507.14	25273.98
507.35	25364.09
507.55	25480.83
507.76	25460.35
507.96	25198.21
508.17	25513.59
508.37	25560.70
508.58	25525.88
508.78	25517.69
508.99	25898.61
509.19	26056.31
509.40	25810.55
509.60	25724.54
509.81	26056.31
510.01	25896.56
510.22	26089.07
510.42	25927.28
510.63	26322.54
510.83	26023.54
511.04	26214.00
511.24	26254.96
511.44	26437.23
511.65	26490.48
511.85	26351.21
512.06	26687.08
512.26	26670.70
512.47	26766.95
512.67	26812.01
512.88	27158.11
513.08	26644.07
513.29	27090.53
513.49	27137.63
513.69	27080.29
513.90	27246.18
514.10	27133.54
514.31	26898.02
514.51	27250.27
514.72	27520.60
514.92	27313.76
515.13	27336.29
515.33	27774.55
515.53	27813.46
515.74	27819.61
515.94	28008.02
516.15	27905.62
516.35	27674.20
516.56	28180.05
516.76	27860.57
516.96	27864.66
517.17	28110.42
517.37	28171.86
517.58	28317.26
517.78	28380.75
517.99	28180.05
518.19	28444.24
518.39	28667.47
518.60	28657.23
518.80	28952.13
519.01	28839.50
519.21	28984.90
519.41	29214.27
519.62	28767.82
519.82	28755.53
520.03	28948.04
520.23	29136.45
520.43	28720.71
520.64	29312.58
520.84	29253.19
521.05	29435.45
521.25	29656.64
521.45	29519.42
521.66	29652.54
521.86	29539.90
522.07	29763.13
522.27	29707.83
522.47	29912.63
522.68	30066.23
522.88	30142.00
523.08	30504.49
523.29	29853.24
523.49	30305.84
523.70	30258.74
523.90	30545.45
524.10	30627.37
524.31	30823.98
524.51	30395.95
524.71	30948.90
524.92	31104.55
525.12	31059.49
525.33	30938.66
525.53	31020.58
525.73	31551.01
525.94	31426.08
526.14	31358.50
526.34	31319.59
526.55	31434.27
526.75	31737.37
526.95	31702.56
527.16	31585.82
527.36	31704.60
527.56	32071.19
527.77	32298.52
527.97	31921.69
528.17	32187.92
528.38	32441.87
528.58	32415.25
528.78	32380.43
528.99	32128.53
529.19	32669.20
529.39	32296.47
529.60	32937.48
529.80	32757.26
530.00	32695.82
530.21	32919.05
530.41	33388.03
530.61	33117.70
530.82	33086.98
531.02	33332.74
531.22	33506.82
531.43	33275.40
531.63	33611.26
531.83	33560.06
532.04	34010.62
532.24	33494.53
532.44	34176.50
532.64	34045.43
532.85	34067.96
533.05	33996.28
533.25	34018.81
533.46	34088.44
533.66	34657.78
533.86	34450.93
534.07	34727.41
534.27	34637.30
534.47	34762.22
534.67	34993.64
534.88	34911.72
535.08	35077.61
535.28	34901.48
535.49	35380.71
535.69	35229.16
535.89	35462.63
536.09	35689.95
536.30	35501.54
536.50	35544.55
536.70	35599.84
536.91	35624.42
537.11	35698.14
537.31	35999.19
537.51	35948.00
537.72	36034.01
537.92	36441.56
538.12	36339.16
538.32	35970.52
538.53	36644.30
538.73	36126.17
538.93	36447.70
539.13	36589.01
539.34	36715.98
539.54	36607.44
539.74	36928.97
539.94	36484.56
540.15	36273.62
540.35	36812.24
540.55	37084.62
540.75	36902.35
540.96	37336.52
541.16	37197.26
541.36	37219.78
541.56	37041.61
541.77	37830.08
541.97	37262.79
542.17	37684.67
542.37	37621.19
542.58	37774.78
542.78	37645.76
542.98	37715.39
543.18	38006.20
543.38	38102.46
543.59	38057.40
543.79	37907.90
543.99	38120.89
544.19	37979.58
544.40	38069.69
544.60	38725.04
544.80	38354.36
545.00	38503.86
545.20	38643.12
545.41	38720.95
545.61	38464.95
545.81	38901.17
546.01	38714.80
546.21	38671.79
546.42	38819.25
546.62	38954.41
546.82	39085.48
547.02	39062.96
547.22	39300.52
547.43	38768.05
547.63	39085.48
547.83	39329.19
548.03	39173.55
548.23	39548.32
548.44	39486.89
548.64	39392.68
548.84	39538.08
549.04	39572.90
549.24	39779.74
549.45	39515.56
549.65	39773.60
549.85	39683.49
550.05	40000.93
550.25	39945.63
550.45	40457.62
550.66	40138.14
550.86	40023.45
551.06	40408.47
551.26	40347.03
551.46	40531.35
551.66	40148.38
551.87	40146.33
552.07	40277.40
552.27	40297.88
552.47	40703.38
552.67	40500.63
552.87	40461.72
553.07	40605.08
553.28	40813.97
553.48	40674.71
553.68	40875.41
553.88	40910.22
554.08	40893.84
554.28	41069.97
554.48	40785.30
554.69	40727.95
554.89	41078.16
555.09	41217.42
555.29	41244.04
555.49	41264.52
555.69	41332.11
555.89	41598.34
556.10	41590.15
556.30	41338.25
556.50	41493.89
556.70	41559.43
556.90	41784.71
557.10	41784.71
557.30	41629.06
557.50	41790.85
557.70	41913.73
557.91	41942.40
558.11	42204.54
558.31	42016.13
558.51	42032.51
558.71	41981.31
558.91	41942.40
559.11	41883.01
559.31	42091.90
559.51	41876.86
559.72	42284.41
559.92	42509.69
560.12	42483.06
560.32	42550.65
560.52	42263.93
560.72	43005.30
560.92	42775.92
561.12	42829.17
561.32	42958.19
561.52	42640.76
561.72	43218.28
561.93	42691.96
562.13	43029.87
562.33	43062.64
562.53	43199.85
562.73	42970.48
562.93	43027.82
563.13	42804.59
563.33	42702.20
563.53	43728.23
563.73	43124.08
563.93	43609.45
564.13	43687.27
564.33	43603.30
564.53	43246.96
564.74	43464.04
564.94	43361.64
565.14	43701.61
565.34	43447.66
565.54	43779.43
565.74	43660.65
565.94	43752.80
566.14	44060.00
566.34	43779.43
566.54	44176.73
566.74	44094.82
566.94	44166.49
567.14	44320.09
567.34	44109.15
567.54	44141.92
567.74	44139.87
567.94	44232.03
568.14	44397.91
568.34	44524.89
568.54	44907.86
568.74	44807.51
568.94	44531.03
569.14	44776.79
569.34	45028.69
569.54	45151.57
569.75	44479.83
569.95	44569.94
570.15	45014.35
570.35	44991.83
570.55	45028.69
570.75	44981.59
570.95	45266.25
571.15	45055.31
571.35	45069.65
571.55	45256.01
571.75	44973.39
571.95	45258.06
572.15	45081.94
572.35	45694.28
572.55	45509.96
572.75	45548.87
572.95	45456.71
573.15	45438.28
573.35	45507.91
573.55	45417.80
573.75	45436.23
573.95	45557.06
574.15	45495.63
574.35	46005.57
574.55	45649.22
574.75	45813.06
574.95	46366.01
575.15	45649.22
575.34	45860.16
575.54	46150.98
575.74	46193.98
575.94	46116.16
576.14	46046.53
576.34	46343.48
576.54	46998.83
576.74	46003.52
576.94	46437.69
577.14	46585.15
577.34	46535.99
577.54	46630.20
577.74	46497.08
577.94	46515.51
578.14	46855.48
578.34	46720.31
578.54	46605.62
578.74	46732.60
578.94	46939.44
579.14	46556.47
579.34	46802.23
579.54	46808.37
579.74	47299.89
579.94	46882.10
580.13	47248.69
580.33	46949.68
580.53	47074.61
580.73	47402.28
580.93	47555.88
581.13	47433.00
581.33	47506.73
581.53	47666.47
581.73	47404.33
581.93	47353.13
582.13	47715.62
582.33	47326.51
582.53	47840.55
582.73	47654.18
582.92	47861.03
583.12	47787.30
583.32	47725.86
583.52	47594.79
583.72	47998.24
583.92	47801.64
584.12	48485.66
584.32	48473.37
584.52	48028.96
584.72	48297.25
584.92	47938.85
585.11	48633.11
585.31	48665.88
585.51	48223.52
585.71	48420.13
585.91	48735.51
586.11	48178.46
586.31	48256.29
586.51	48033.06
586.71	48530.72
586.91	48794.90
587.10	48991.51
587.30	48647.45
587.50	48784.66
587.70	49038.61
587.90	48913.69
588.10	48534.81
588.30	48694.55
588.50	49306.90
