SpectraSuite Data File
++++++++++++++++++++++++++++++++++++
Date: Fri Jun 02 14:47:57 CEST 2017
User: INFO_000
Dark Spectrum Present: No
Reference Spectrum Present: No
Number of Sampled Component Spectra: 1
Spectrometers: USB4H00879
Integration Time (usec): 80000 (USB4H00879)
Spectra Averaged: 1 (USB4H00879)
Boxcar Smoothing: 0 (USB4H00879)
Correct for Electrical Dark: No (USB4H00879)
Strobe/Lamp Enabled: No (USB4H00879)
Correct for Detector Non-linearity: No (USB4H00879)
Correct for Stray Light: No (USB4H00879)
Number of Pixels in Processed Spectrum: 3648
>>>>>Begin Processed Spectral Data<<<<<
345.13	1273.84
345.34	1273.84
345.56	1273.84
345.78	1322.99
345.99	1296.36
346.21	1761.25
346.42	1679.33
346.64	1601.51
346.86	1824.74
347.07	1660.90
347.29	1687.53
347.50	1650.66
347.72	1710.05
347.94	1787.88
348.15	1624.04
348.37	1648.61
348.59	1689.57
348.80	1572.84
349.02	1794.02
349.23	1867.75
349.45	1777.64
349.67	1890.28
349.88	1804.26
350.10	1970.15
350.31	1791.97
350.53	1867.75
350.75	2002.91
350.96	1822.69
351.18	1773.54
351.39	1828.84
351.61	1785.83
351.82	1861.60
352.04	1877.99
352.26	1771.49
352.47	1914.85
352.69	1859.56
352.90	1761.25
353.12	1810.40
353.34	1912.80
353.55	1853.41
353.77	1861.60
353.98	1869.80
354.20	1855.46
354.41	1945.57
354.63	1945.57
354.85	2023.39
355.06	1845.22
355.28	1843.17
355.49	1941.47
355.71	1920.99
355.92	1943.52
356.14	1933.28
356.35	1888.23
356.57	1861.60
356.79	1882.08
357.00	1861.60
357.22	2025.44
357.43	1886.18
357.65	1888.23
357.86	1794.02
358.08	1861.60
358.29	1953.76
358.51	1978.34
358.72	2037.73
358.94	1925.09
359.16	1923.04
359.37	1912.80
359.59	1990.63
359.80	1976.29
360.02	1992.67
360.23	1949.67
360.45	1988.58
360.66	1908.71
360.88	1929.19
361.09	1861.60
361.31	1935.33
361.52	1959.91
361.74	2084.83
361.95	2103.26
362.17	1986.53
362.38	2050.02
362.60	2023.39
362.81	1974.24
363.03	1972.19
363.24	2019.30
363.46	2090.98
363.67	1978.34
363.89	1984.48
364.10	1935.33
364.32	1927.14
364.53	2090.98
364.75	1865.70
364.96	1927.14
365.18	2056.16
365.39	2002.91
365.61	1957.86
365.82	2121.70
366.04	2033.63
366.25	1933.28
366.47	2142.18
366.68	2052.06
366.90	1966.05
367.11	2043.87
367.33	2146.27
367.54	2127.84
367.76	2041.82
367.97	2084.83
368.19	2039.78
368.40	2084.83
368.62	1927.14
368.83	2007.01
369.05	2017.25
369.26	1949.67
369.48	1953.76
369.69	1984.48
369.91	2107.36
370.12	2093.02
370.33	2105.31
370.55	1980.39
370.76	2109.41
370.98	2072.54
371.19	2027.49
371.41	1990.63
371.62	1994.72
371.84	1984.48
372.05	2174.94
372.27	2033.63
372.48	2078.69
372.69	2084.83
372.91	2093.02
373.12	2228.19
373.34	2101.22
373.55	2195.42
373.77	2172.89
373.98	2166.75
374.20	2162.66
374.41	2285.53
374.62	2162.66
374.84	2176.99
375.05	2156.51
375.27	2170.85
375.48	2150.37
375.70	2047.97
375.91	2213.85
376.12	2273.25
376.34	2144.22
376.55	2168.80
376.77	2160.61
376.98	2172.89
377.19	2123.74
377.41	2082.78
377.62	2152.42
377.84	2191.33
378.05	2373.60
378.27	2189.28
378.48	2291.68
378.69	2389.98
378.91	2273.25
379.12	2232.29
379.34	2279.39
379.55	2265.05
379.76	2250.72
379.98	2256.86
380.19	2279.39
380.41	2242.53
380.62	2279.39
380.83	2207.71
381.05	2160.61
381.26	2422.75
381.47	2297.82
381.69	2308.06
381.90	2414.56
382.12	2277.34
382.33	2320.35
382.54	2222.05
382.76	2273.25
382.97	2336.73
383.19	2269.15
383.40	2336.73
383.61	2318.30
383.83	2289.63
384.04	2308.06
384.25	2394.08
384.47	2375.64
384.68	2402.27
384.89	2342.88
385.11	2367.45
385.32	2338.78
385.54	2396.12
385.75	2299.87
385.96	2353.12
386.18	2318.30
386.39	2373.60
386.60	2301.92
386.82	2447.32
387.03	2373.60
387.24	2445.27
387.46	2408.41
387.67	2494.43
387.88	2486.23
388.10	2414.56
388.31	2541.53
388.52	2549.72
388.74	2566.10
388.95	2510.81
389.16	2502.62
389.38	2484.19
389.59	2455.51
389.80	2576.34
390.02	2568.15
390.23	2674.65
390.44	2598.87
390.66	2459.61
390.87	2482.14
391.08	2564.06
391.30	2660.31
391.51	2738.13
391.72	2729.94
391.94	2598.87
392.15	2725.85
392.36	2672.60
392.58	2562.01
392.79	2656.22
393.00	2738.13
393.22	2609.11
393.43	2682.84
393.64	2707.41
393.85	2801.62
394.07	2717.65
394.28	2777.05
394.49	2795.48
394.71	2869.20
394.92	2863.06
395.13	2703.32
395.35	2715.61
395.56	2736.09
395.77	2787.29
395.98	2820.05
396.20	2809.81
396.41	2822.10
396.62	2912.21
396.84	2801.62
397.05	2699.22
397.26	2885.59
397.47	2873.30
397.69	2811.86
397.90	3033.04
398.11	2985.94
398.32	2875.35
398.54	2805.72
398.75	2811.86
398.96	2828.24
399.18	2969.55
399.39	2969.55
399.60	2924.50
399.81	2899.92
400.03	2881.49
400.24	3258.32
400.45	2871.25
400.66	3039.19
400.88	3012.56
401.09	3141.58
401.30	3063.76
401.51	3147.73
401.73	3100.62
401.94	3182.54
402.15	3125.20
402.36	3098.58
402.58	3172.30
402.79	3104.72
403.00	3131.34
403.21	3119.06
403.43	3098.58
403.64	3256.27
403.85	3041.23
404.06	3211.22
404.27	3186.64
404.49	3067.86
404.70	3084.24
404.91	3254.22
405.12	3278.80
405.34	3217.36
405.55	3375.05
405.76	3127.25
405.97	3235.79
406.19	3356.62
406.40	3243.98
406.61	3299.28
406.82	3319.76
407.03	3280.85
407.25	3289.04
407.46	3434.44
407.67	3336.14
407.88	3401.68
408.09	3393.48
408.31	3266.51
408.52	3446.73
408.73	3420.11
408.94	3256.27
409.15	3444.68
409.37	3522.51
409.58	3428.30
409.79	3489.74
410.00	3516.36
410.21	3286.99
410.43	3483.59
410.64	3366.86
410.85	3530.70
411.06	3452.88
411.27	3485.64
411.48	3493.83
411.70	3538.89
411.91	3510.22
412.12	3661.77
412.33	3569.61
412.54	3590.09
412.76	3633.10
412.97	3579.85
413.18	3528.65
413.39	3583.95
413.60	3585.99
413.81	3747.78
414.03	3633.10
414.24	3559.37
414.45	3770.31
414.66	3553.23
414.87	3637.19
415.08	3710.92
415.30	3643.34
415.51	3698.63
415.72	3723.21
415.93	3743.69
416.14	3669.96
416.35	3672.01
416.56	3778.50
416.78	3735.50
416.99	3854.28
417.20	3805.13
417.41	3852.23
417.62	3805.13
417.83	4024.26
418.04	3768.26
418.26	3833.80
418.47	3796.93
418.68	3960.77
418.89	3954.63
419.10	4050.88
419.31	3954.63
419.52	3950.53
419.73	4065.22
419.95	4173.76
420.16	3948.48
420.37	4057.03
420.58	4009.92
420.79	3897.28
421.00	4016.07
421.21	4083.65
421.42	4046.79
421.63	4077.51
421.85	4005.83
422.06	4251.58
422.27	4067.27
422.48	4184.00
422.69	4167.62
422.90	4294.59
423.11	4265.92
423.32	4302.78
423.53	4327.36
423.75	4384.70
423.96	4427.71
424.17	4376.51
424.38	4394.94
424.59	4429.76
424.80	4650.94
425.01	4317.12
425.22	4390.84
425.43	4429.76
425.64	4685.75
425.85	4685.75
426.06	4550.59
426.28	4526.01
426.49	4515.77
426.70	4607.93
426.91	4612.03
427.12	4661.18
427.33	4591.55
427.54	4779.96
427.75	4607.93
427.96	4757.43
428.17	4661.18
428.38	4675.51
428.59	4874.17
428.80	4855.73
429.01	4720.57
429.23	4822.97
429.44	4982.71
429.65	5124.02
429.86	5001.14
430.07	4888.50
430.28	4990.90
430.49	5025.72
430.70	5138.35
430.91	5162.93
431.12	5085.11
431.33	5248.94
431.54	5216.18
431.75	5060.53
431.96	5085.11
432.17	5060.53
432.38	5091.25
432.59	5281.71
432.80	5351.34
433.01	5228.46
433.22	5269.42
433.43	5236.66
433.64	5377.97
433.85	5185.46
434.06	5308.34
434.27	5275.57
434.49	5486.51
434.70	5474.22
434.91	5361.58
435.12	5490.60
435.33	5427.12
435.54	5257.14
435.75	5287.86
435.96	5371.82
436.17	5400.49
436.38	5629.87
436.59	5595.05
436.80	5480.36
437.01	5713.83
437.22	5687.21
437.43	5611.43
437.64	5324.72
437.85	5693.35
438.06	5808.04
438.27	5619.63
438.48	5617.58
438.69	5844.90
438.90	5687.21
439.11	5683.11
439.32	5805.99
439.53	5834.66
439.74	5877.67
439.95	5902.25
440.16	5787.56
440.37	5758.89
440.57	5689.26
440.78	5998.50
440.99	6014.88
441.20	5818.28
441.41	5881.77
441.62	5932.97
441.83	5836.71
442.04	5916.58
442.25	5994.40
442.46	6070.18
442.67	5988.26
442.88	6367.13
443.09	5873.57
443.30	5961.64
443.51	5986.21
443.72	6389.66
443.93	6033.32
444.14	6410.14
444.35	5949.35
444.56	6186.91
444.77	6107.04
444.98	6270.88
445.19	6279.07
445.40	6428.57
445.61	6369.18
445.81	6483.87
446.02	6391.71
446.23	6401.95
446.44	6274.98
446.65	6502.30
446.86	6492.06
447.07	6434.72
447.28	6592.41
447.49	6662.04
447.70	6406.05
447.91	6485.92
448.12	6590.36
448.33	6655.90
448.54	6608.80
448.74	6541.21
448.95	6680.47
449.16	6713.24
449.37	6969.24
449.58	6688.67
449.79	7069.59
450.00	6645.66
450.21	6967.19
450.42	6965.14
450.63	6872.98
450.84	6885.27
451.05	7012.24
451.25	6868.89
451.46	6715.29
451.67	7020.44
451.88	7178.13
452.09	7118.74
452.30	6915.99
452.51	7237.52
452.72	7372.69
452.93	7505.81
453.13	6997.91
453.34	7298.96
453.55	7219.09
453.76	7311.25
453.97	7526.29
454.18	7421.84
454.39	7518.09
454.60	7436.17
454.81	7577.48
455.01	7550.86
455.22	7368.59
455.43	7530.38
455.64	7741.32
455.85	7675.79
456.06	7927.69
456.27	7655.31
456.48	7745.42
456.68	7993.22
456.89	7708.55
457.10	7978.89
457.31	7853.96
457.52	7868.30
457.73	7968.65
457.94	8107.91
458.14	7886.73
458.35	8507.26
458.56	8107.91
458.77	8232.83
458.98	8210.31
459.19	8275.84
459.39	8351.62
459.60	8509.31
459.81	8339.33
460.02	8525.69
460.23	8667.00
460.44	8705.92
460.65	8556.41
460.85	8613.76
461.06	8615.80
461.27	8484.73
461.48	8894.33
461.69	8914.81
461.89	8574.85
462.10	8771.45
462.31	8787.83
462.52	8808.31
462.73	8871.80
462.94	9344.88
463.14	9011.06
463.35	8996.73
463.56	9498.48
463.77	9529.20
463.98	9277.30
464.18	9242.48
464.39	9535.34
464.60	9758.57
464.81	9351.03
465.02	9533.29
465.23	9832.30
465.43	9668.46
465.64	9928.55
465.85	9903.98
466.06	9566.06
466.27	10006.38
466.47	9963.37
466.68	10080.10
466.89	10108.77
467.10	10155.88
467.30	9969.51
467.51	10291.04
467.72	10473.31
467.93	10000.23
468.14	10321.76
468.34	10299.23
468.55	10504.03
468.76	10528.61
468.97	10387.30
469.17	10547.04
469.38	10852.19
469.59	10702.68
469.80	10757.98
470.01	10727.26
470.21	10757.98
470.42	11179.86
470.63	11040.60
470.84	11013.98
471.04	11239.25
471.25	11153.24
471.46	11126.61
471.67	11534.16
471.87	11380.56
472.08	11722.57
472.29	11683.66
472.50	11495.25
472.70	11568.98
472.91	11630.41
473.12	11890.51
473.33	11976.52
473.53	12052.30
473.74	11919.18
473.95	12234.57
474.16	12404.55
474.36	12422.98
474.57	12504.90
474.78	12496.71
474.99	12447.55
475.19	12429.12
475.40	12939.07
475.61	12842.81
475.81	12902.20
476.02	13373.24
476.23	12996.41
476.44	13250.36
476.64	13412.15
476.85	13317.94
477.06	13283.13
477.27	13616.94
477.47	13633.33
477.68	13674.29
477.89	14040.87
478.09	13602.61
478.30	13831.98
478.51	14010.15
478.71	14210.86
478.92	14192.42
479.13	14145.32
479.34	14511.91
479.54	14458.66
479.75	14608.16
479.96	14411.56
480.16	14477.09
480.37	14733.09
480.58	14784.29
480.78	15236.89
480.99	15046.43
481.20	15175.45
481.41	15120.15
481.61	15288.09
481.82	15380.25
482.03	15501.08
482.23	15345.43
482.44	15564.56
482.65	15773.46
482.85	15982.35
483.06	15929.10
483.27	15898.38
483.47	16043.79
483.68	15935.24
483.89	15980.30
484.09	16217.86
484.30	16428.81
484.51	16598.79
484.71	16383.75
484.92	16746.24
485.13	16840.45
485.33	16768.77
485.54	16875.26
485.75	17016.57
485.95	17014.52
486.16	17106.68
486.37	17420.02
486.57	17260.28
486.78	17557.24
486.98	17288.95
487.19	17618.68
487.40	17604.34
487.60	17598.20
487.81	17968.88
488.02	18097.90
488.22	17835.76
488.43	18112.24
488.64	17958.64
488.84	18401.00
489.05	18558.69
489.25	18276.07
489.46	18511.59
489.67	18282.22
489.87	18779.87
490.08	18927.33
490.29	18878.18
490.49	19332.82
490.70	19226.33
490.90	19408.60
491.11	19222.23
491.32	19412.70
491.52	19355.35
491.73	19654.36
491.94	19465.94
492.14	19756.75
492.35	20149.96
492.55	19635.92
492.76	20168.40
492.97	20221.64
493.17	20145.87
493.38	20291.27
493.58	20512.46
493.79	20580.04
494.00	20491.98
494.20	20444.87
494.41	20940.48
494.61	20885.19
494.82	21069.50
495.02	20793.03
495.23	21051.07
495.44	21063.36
495.64	21427.90
495.85	21311.16
496.05	21423.80
496.26	21479.10
496.47	21583.54
496.67	21685.94
496.88	21817.01
497.08	21706.42
497.29	21913.27
497.49	21941.94
497.70	22044.34
497.91	21933.75
498.11	22169.26
498.32	22202.03
498.52	22644.39
498.73	22828.71
498.93	22482.60
499.14	22568.62
499.34	22746.79
499.55	22931.11
499.76	23088.80
499.96	23109.28
500.17	23260.83
500.37	23105.18
500.58	23078.56
500.78	23140.00
500.99	23572.12
501.19	23803.54
501.40	23398.04
501.60	23318.17
501.81	23686.81
502.02	23936.66
502.22	23676.57
502.43	23826.07
502.63	24096.40
502.84	24110.74
503.04	23903.89
503.25	24333.96
503.45	24163.98
503.66	24485.51
503.86	24497.80
504.07	24682.12
504.27	24391.31
504.48	24888.96
504.68	24465.03
504.89	24903.30
505.09	24807.05
505.30	24970.88
505.50	24870.53
505.71	25329.28
505.91	25216.64
506.12	24997.51
506.32	25460.35
506.53	25261.69
506.73	25245.31
506.94	25736.82
507.14	25501.31
507.35	25589.37
507.55	25622.14
507.76	25376.38
507.96	25548.41
508.17	25972.34
508.37	26025.59
508.58	25896.56
508.78	26050.16
508.99	26166.90
509.19	26422.89
509.40	26451.56
509.60	26175.09
509.81	26289.77
510.01	26103.41
510.22	26343.02
510.42	26644.07
510.63	26455.66
510.83	26521.20
511.04	26390.13
511.24	26828.39
511.44	26658.41
511.65	27035.24
511.85	26568.30
512.06	26986.08
512.26	27154.02
512.47	27203.17
512.67	27111.01
512.88	27166.31
513.08	26887.78
513.29	27389.53
513.49	27219.55
513.69	27258.46
513.90	27223.65
514.10	27123.30
514.31	27448.93
514.51	27502.17
514.72	27471.45
514.92	27463.26
515.13	27655.77
515.33	27749.98
515.53	27645.53
515.74	27604.57
515.94	27852.38
516.15	28143.19
516.35	28134.99
516.56	28225.11
516.76	28046.93
516.96	27788.89
517.17	28304.98
517.37	28390.99
517.58	27907.67
517.78	28272.21
517.99	28583.50
518.19	28489.29
518.39	28681.80
518.60	28597.84
518.80	28526.16
519.01	28909.13
519.21	28943.94
519.41	28593.74
519.62	28460.62
519.82	28763.72
520.03	29070.92
520.23	28978.76
520.43	28841.54
520.64	29359.68
520.84	29277.76
521.05	29380.16
521.25	29263.43
521.45	29664.83
521.66	29511.23
521.86	29208.13
522.07	29668.92
522.27	29322.82
522.47	29537.85
522.68	30301.75
522.88	29615.68
523.08	29843.00
523.29	29984.31
523.49	30033.46
523.70	30404.14
523.90	30361.14
524.10	30303.79
524.31	30305.84
524.51	29924.92
524.71	30740.01
524.92	30584.37
525.12	30723.63
525.33	30549.55
525.53	30787.11
525.73	30809.64
525.94	30873.13
526.14	30582.32
526.34	30914.09
526.55	31157.80
526.75	31155.75
526.95	31508.00
527.16	31278.63
527.36	31532.57
527.56	31577.63
527.77	32028.18
527.97	31749.66
528.17	31585.82
528.38	31723.04
528.58	32026.14
528.78	32128.53
528.99	31931.93
529.19	31917.59
529.39	32136.73
529.60	32085.53
529.80	32071.19
530.00	32290.32
530.21	32523.79
530.41	32757.26
530.61	32259.60
530.82	32548.37
531.02	32757.26
531.22	32763.40
531.43	32380.43
531.63	33097.22
531.83	32857.61
532.04	33398.27
532.24	33146.37
532.44	33633.79
532.64	33416.71
532.85	33674.75
533.05	33605.12
533.25	33785.34
533.46	33644.03
533.66	34100.73
533.86	33570.30
534.07	34291.19
534.27	33965.56
534.47	34182.65
534.67	34137.59
534.88	34272.76
535.08	34930.16
535.28	34582.00
535.49	34582.00
535.69	35290.60
535.89	35122.66
536.09	35280.36
536.30	34907.63
536.50	34909.68
536.70	35438.05
536.91	35108.33
537.11	35268.07
537.31	35487.20
537.51	35522.02
537.72	35980.76
537.92	35831.26
538.12	35767.77
538.32	35567.07
538.53	36271.57
538.73	35778.01
538.93	36011.48
539.13	35909.08
539.34	35896.80
539.54	36271.57
539.74	36392.40
539.94	36386.26
540.15	36562.39
540.35	36955.60
540.55	36705.74
540.75	36828.62
540.96	37113.29
541.16	36845.01
541.36	36980.17
541.56	36865.49
541.77	37348.81
541.97	37008.84
542.17	37705.15
542.37	37156.30
542.58	37504.45
542.78	37342.66
542.98	37555.65
543.18	37848.51
543.38	38077.88
543.59	37920.19
543.79	37574.08
543.99	37647.81
544.19	38206.90
544.40	38034.88
544.60	38213.05
544.80	38161.85
545.00	38512.05
545.20	38714.80
545.41	38663.60
545.61	38497.72
545.81	38755.76
546.01	38854.06
546.21	38489.52
546.42	38669.75
546.62	38983.09
546.82	38923.69
547.02	39136.68
547.22	39316.90
547.43	39073.20
547.63	39335.34
547.83	39558.56
548.03	39175.59
548.23	39251.37
548.44	39501.22
548.64	39785.89
548.84	39374.25
549.04	39648.68
549.24	39990.69
549.45	39849.38
549.65	39785.89
549.85	39703.97
550.05	39810.46
550.25	40248.73
550.45	41117.07
550.66	40189.34
550.86	40064.41
551.06	40160.67
551.26	40267.16
551.46	40197.53
551.66	40420.76
551.87	40488.34
552.07	41123.21
552.27	40842.64
552.47	40687.00
552.67	41102.73
552.87	40762.77
553.07	40732.05
553.28	40936.85
553.48	41233.80
553.68	41158.03
553.88	41538.95
554.08	41487.75
554.28	41598.34
554.48	41278.86
554.69	41655.68
554.89	41571.72
555.09	42036.61
555.29	41426.31
555.49	41813.38
555.69	42108.29
555.89	41414.02
556.10	42022.27
556.30	42167.68
556.50	41999.74
556.70	41903.49
556.90	41958.78
557.10	41889.15
557.30	41934.21
557.50	42458.49
557.70	42227.07
557.91	42579.32
558.11	41938.30
558.31	42702.20
558.51	42472.82
558.71	42489.21
558.91	42958.19
559.11	42489.21
559.31	42859.89
559.51	42317.18
559.72	42808.69
559.92	43109.74
560.12	42323.32
560.32	43052.40
560.52	42853.75
560.72	43203.95
560.92	43195.76
561.12	43443.56
561.32	43212.14
561.52	43292.01
561.72	43650.41
561.93	42794.36
562.13	43113.84
562.33	43244.91
562.53	43904.35
562.73	43140.46
562.93	43292.01
563.13	43963.75
563.33	43451.75
563.53	43521.38
563.73	43386.22
563.93	43746.66
564.13	44031.33
564.33	43820.39
564.53	43621.73
564.74	43971.94
564.94	43879.78
565.14	43758.95
565.34	43801.96
565.54	43906.40
565.74	44266.84
565.94	44211.55
566.14	44057.95
566.34	44203.36
566.54	44336.48
566.74	44025.18
566.94	44481.88
567.14	44207.45
567.34	44440.92
567.54	44440.92
567.74	44275.04
567.94	44354.91
568.14	44701.01
568.34	44393.82
568.54	44340.57
568.74	44840.28
568.94	44514.65
569.14	44631.38
569.34	44498.26
569.54	44850.52
569.75	44359.00
569.95	44893.52
570.15	45053.26
570.35	44932.43
570.55	44752.21
570.75	44754.26
570.95	45432.14
571.15	45538.63
571.35	44944.72
571.55	45589.83
571.75	45186.38
571.95	45432.14
572.15	45368.65
572.35	45735.24
572.55	45217.10
572.75	45208.91
572.95	45524.30
573.15	45725.00
573.35	45065.55
573.55	45260.11
573.75	45583.69
573.95	45708.61
574.15	45450.57
574.35	45595.98
574.55	45174.09
574.75	45419.85
574.95	45823.30
575.15	45376.84
575.34	45548.87
575.54	45725.00
575.74	46132.54
575.94	45897.03
576.14	45524.30
576.34	46341.44
576.54	46439.74
576.74	46329.15
576.94	45700.42
577.14	46228.80
577.34	46681.40
577.54	46015.81
577.74	46658.87
577.94	46173.50
578.14	46447.93
578.34	46761.27
578.54	46179.65
578.74	46261.57
578.94	46595.38
579.14	46482.75
579.34	46339.39
579.54	46587.19
579.74	46904.63
579.94	46507.32
580.13	46835.00
580.33	46710.07
580.53	47263.02
580.73	47277.36
580.93	46875.96
581.13	46736.69
581.33	46978.36
581.53	46921.01
581.73	47025.46
581.93	47564.07
582.13	47412.52
582.33	47072.56
582.53	47297.84
582.73	47641.90
582.92	47416.62
583.12	47301.93
583.32	47287.60
583.52	47078.71
583.72	47506.73
583.92	47486.25
584.12	47854.89
584.32	48168.22
584.52	47678.76
584.72	47805.73
584.92	48076.07
585.11	48094.50
585.31	47979.81
585.51	48047.39
585.71	47940.90
585.91	48364.83
586.11	47854.89
586.31	47516.97
586.51	48250.14
586.71	48170.27
586.91	48203.04
587.10	48565.53
587.30	48358.69
587.50	48227.62
587.70	48354.59
587.90	48307.49
588.10	48428.32
588.30	48659.74
588.50	48598.30
