SpectraSuite Data File
++++++++++++++++++++++++++++++++++++
Date: Fri Jun 02 14:47:58 CEST 2017
User: INFO_000
Dark Spectrum Present: No
Reference Spectrum Present: No
Number of Sampled Component Spectra: 1
Spectrometers: USB4H00879
Integration Time (usec): 80000 (USB4H00879)
Spectra Averaged: 1 (USB4H00879)
Boxcar Smoothing: 0 (USB4H00879)
Correct for Electrical Dark: No (USB4H00879)
Strobe/Lamp Enabled: No (USB4H00879)
Correct for Detector Non-linearity: No (USB4H00879)
Correct for Stray Light: No (USB4H00879)
Number of Pixels in Processed Spectrum: 3648
>>>>>Begin Processed Spectral Data<<<<<
345.13	1241.07
345.34	1241.07
345.56	1241.07
345.78	1282.03
345.99	1273.84
346.21	1701.86
346.42	1699.81
346.64	1597.42
346.86	1789.92
347.07	1626.09
347.29	1699.81
347.50	1621.99
347.72	1695.72
347.94	1769.44
348.15	1572.84
348.37	1662.95
348.59	1728.49
348.80	1603.56
349.02	1755.11
349.23	1877.99
349.45	1832.93
349.67	1953.76
349.88	1794.02
350.10	1918.95
350.31	1794.02
350.53	1863.65
350.75	1953.76
350.96	1843.17
351.18	1794.02
351.39	1787.88
351.61	1804.26
351.82	1849.32
352.04	1937.38
352.26	1914.85
352.47	1886.18
352.69	1857.51
352.90	1777.64
353.12	1882.08
353.34	1880.04
353.55	1787.88
353.77	1890.28
353.98	1853.41
354.20	1765.35
354.41	1837.03
354.63	1894.37
354.85	2084.83
355.06	1888.23
355.28	1748.97
355.49	1880.04
355.71	1865.70
355.92	1904.61
356.14	1923.04
356.35	1853.41
356.57	1834.98
356.79	1931.23
357.00	1826.79
357.22	1966.05
357.43	1837.03
357.65	1947.62
357.86	1912.80
358.08	1861.60
358.29	1949.67
358.51	1959.91
358.72	2029.54
358.94	1918.95
359.16	1931.23
359.37	1978.34
359.59	1894.37
359.80	1976.29
360.02	1943.52
360.23	2000.87
360.45	1964.00
360.66	1918.95
360.88	1822.69
361.09	1943.52
361.31	2000.87
361.52	1978.34
361.74	1978.34
361.95	2136.03
362.17	1998.82
362.38	2080.74
362.60	2076.64
362.81	1996.77
363.03	1972.19
363.24	1986.53
363.46	2107.36
363.67	2035.68
363.89	1976.29
364.10	1970.15
364.32	1894.37
364.53	2119.65
364.75	1896.42
364.96	1988.58
365.18	2019.30
365.39	1976.29
365.61	1916.90
365.82	2029.54
366.04	2011.11
366.25	1972.19
366.47	2062.30
366.68	2088.93
366.90	1933.28
367.11	2115.55
367.33	2109.41
367.54	2115.55
367.76	2131.94
367.97	2041.82
368.19	1943.52
368.40	2080.74
368.62	1937.38
368.83	1986.53
369.05	2027.49
369.26	1947.62
369.48	2023.39
369.69	2007.01
369.91	2068.45
370.12	2023.39
370.33	2158.56
370.55	1931.23
370.76	2033.63
370.98	2084.83
371.19	2070.50
371.41	2011.11
371.62	2060.26
371.84	2000.87
372.05	2269.15
372.27	2013.15
372.48	1988.58
372.69	2070.50
372.91	2248.67
373.12	2205.66
373.34	2111.46
373.55	2164.70
373.77	2113.50
373.98	2144.22
374.20	2162.66
374.41	2222.05
374.62	2101.22
374.84	2064.35
375.05	2252.77
375.27	2154.46
375.48	2172.89
375.70	2166.75
375.91	2195.42
376.12	2275.29
376.34	2181.09
376.55	2215.90
376.77	2224.09
376.98	2117.60
377.19	2107.36
377.41	2115.55
377.62	2150.37
377.84	2252.77
378.05	2410.46
378.27	2160.61
378.48	2289.63
378.69	2349.02
378.91	2281.44
379.12	2236.38
379.34	2328.54
379.55	2291.68
379.76	2322.40
379.98	2297.82
380.19	2199.52
380.41	2273.25
380.62	2248.67
380.83	2224.09
381.05	2222.05
381.26	2371.55
381.47	2162.66
381.69	2203.61
381.90	2389.98
382.12	2238.43
382.33	2289.63
382.54	2236.38
382.76	2295.77
382.97	2334.68
383.19	2248.67
383.40	2379.74
383.61	2338.78
383.83	2301.92
384.04	2306.01
384.25	2297.82
384.47	2412.51
384.68	2357.21
384.89	2238.43
385.11	2303.96
385.32	2281.44
385.54	2353.12
385.75	2256.86
385.96	2312.16
386.18	2387.93
386.39	2445.27
386.60	2344.92
386.82	2385.88
387.03	2389.98
387.24	2537.43
387.46	2453.47
387.67	2455.51
387.88	2557.91
388.10	2420.70
388.31	2375.64
388.52	2615.26
388.74	2457.56
388.95	2420.70
389.16	2514.91
389.38	2371.55
389.59	2510.81
389.80	2645.98
390.02	2514.91
390.23	2656.22
390.44	2574.30
390.66	2584.54
390.87	2478.04
391.08	2617.30
391.30	2658.26
391.51	2637.78
391.72	2633.69
391.94	2588.63
392.15	2527.19
392.36	2521.05
392.58	2473.95
392.79	2672.60
393.00	2715.61
393.22	2621.40
393.43	2752.47
393.64	2818.00
393.85	2789.33
394.07	2580.44
394.28	2695.13
394.49	2742.23
394.71	2826.20
394.92	2854.87
395.13	2670.55
395.35	2764.76
395.56	2674.65
395.77	2775.00
395.98	2815.96
396.20	2854.87
396.41	2916.31
396.62	2875.35
396.84	2875.35
397.05	2756.57
397.26	2818.00
397.47	2871.25
397.69	2881.49
397.90	2932.69
398.11	2887.64
398.32	2873.30
398.54	2901.97
398.75	2947.03
398.96	2852.82
399.18	3121.10
399.39	2969.55
399.60	3035.09
399.81	2965.46
400.03	2916.31
400.24	3209.17
400.45	3006.42
400.66	3104.72
400.88	2969.55
401.09	3213.26
401.30	3076.05
401.51	3133.39
401.73	3149.78
401.94	3080.14
402.15	3088.34
402.36	3160.02
402.58	3164.11
402.79	3188.69
403.00	3059.67
403.21	3164.11
403.43	3305.42
403.64	3270.61
403.85	3190.74
404.06	3262.41
404.27	3041.23
404.49	3252.17
404.70	3117.01
404.91	3309.52
405.12	3217.36
405.34	3260.37
405.55	3424.20
405.76	3182.54
405.97	3303.37
406.19	3334.09
406.40	3067.86
406.61	3295.18
406.82	3243.98
407.03	3289.04
407.25	3274.70
407.46	3338.19
407.67	3325.90
407.88	3471.31
408.09	3397.58
408.31	3338.19
408.52	3364.81
408.73	3278.80
408.94	3327.95
409.15	3377.10
409.37	3489.74
409.58	3413.96
409.79	3495.88
410.00	3542.99
410.21	3426.25
410.43	3469.26
410.64	3416.01
410.85	3510.22
411.06	3530.70
411.27	3571.66
411.48	3596.23
411.70	3373.00
411.91	3502.03
412.12	3678.15
412.33	3522.51
412.54	3536.84
412.76	3602.38
412.97	3665.86
413.18	3534.79
413.39	3571.66
413.60	3641.29
413.81	3651.53
414.03	3635.14
414.24	3612.62
414.45	3786.69
414.66	3522.51
414.87	3727.30
415.08	3672.01
415.30	3735.50
415.51	3817.41
415.72	3805.13
415.93	3710.92
416.14	3727.30
416.35	3805.13
416.56	3762.12
416.78	3825.61
416.99	3872.71
417.20	3729.35
417.41	3772.36
417.62	3846.09
417.83	3876.80
418.04	3837.89
418.26	3837.89
418.47	3882.95
418.68	3897.28
418.89	4018.11
419.10	4079.55
419.31	3960.77
419.52	3928.00
419.73	3958.72
419.95	4184.00
420.16	4014.02
420.37	4057.03
420.58	4112.32
420.79	3923.91
421.00	4108.23
421.21	4243.39
421.42	4083.65
421.63	4083.65
421.85	4136.90
422.06	4036.55
422.27	4208.58
422.48	4147.14
422.69	4284.35
422.90	4124.61
423.11	4272.06
423.32	4276.16
423.53	4284.35
423.75	4229.06
423.96	4380.61
424.17	4407.23
424.38	4429.76
424.59	4368.32
424.80	4517.82
425.01	4487.10
425.22	4427.71
425.43	4368.32
425.64	4612.03
425.85	4603.83
426.06	4487.10
426.28	4466.62
426.49	4452.28
426.70	4466.62
426.91	4573.11
427.12	4603.83
427.33	4571.07
427.54	4634.55
427.75	4681.66
427.96	4747.19
428.17	4775.86
428.38	4775.86
428.59	4782.01
428.80	4753.34
429.01	4882.36
429.23	4822.97
429.44	4911.03
429.65	4804.53
429.86	4874.17
430.07	4874.17
430.28	4882.36
430.49	4810.68
430.70	4951.99
430.91	5074.87
431.12	4859.83
431.33	5173.17
431.54	5107.63
431.75	5140.40
431.96	5017.52
432.17	5074.87
432.38	5128.11
432.59	5353.39
432.80	5343.15
433.01	5212.08
433.22	5277.62
433.43	5289.90
433.64	5351.34
433.85	5271.47
434.06	5439.40
434.27	5230.51
434.49	5402.54
434.70	5496.75
434.91	5480.36
435.12	5427.12
435.33	5578.67
435.54	5459.88
435.75	5302.19
435.96	5607.34
436.17	5296.05
436.38	5525.42
436.59	5541.80
436.80	5474.22
437.01	5621.67
437.22	5779.37
437.43	5580.71
437.64	5494.70
437.85	5664.68
438.06	5783.46
438.27	5609.39
438.48	5734.31
438.69	5767.08
438.90	5748.65
439.11	5590.95
439.32	5787.56
439.53	5842.85
439.74	5935.01
439.95	5877.67
440.16	5877.67
440.37	5781.42
440.57	5744.55
440.78	5922.73
440.99	5982.12
441.20	5926.82
441.41	5859.24
441.62	5828.52
441.83	5840.81
442.04	6072.23
442.25	6006.69
442.46	6084.52
442.67	6055.84
442.88	6502.30
443.09	6053.80
443.30	6008.74
443.51	6041.51
443.72	6438.81
443.93	6107.04
444.14	6322.08
444.35	6121.38
444.56	6197.15
444.77	6127.52
444.98	6373.28
445.19	6307.74
445.40	6348.70
445.61	6391.71
445.81	6367.13
446.02	6442.91
446.23	6215.59
446.44	6299.55
446.65	6627.23
446.86	6408.09
447.07	6483.87
447.28	6674.33
447.49	6711.19
447.70	6436.77
447.91	6508.44
448.12	6563.74
448.33	6584.22
448.54	6735.77
448.74	6666.14
448.95	6815.64
449.16	6721.43
449.37	6829.98
449.58	6743.96
449.79	6946.71
450.00	6752.15
450.21	6717.34
450.42	6864.79
450.63	7036.82
450.84	6684.57
451.05	6856.60
451.25	6983.57
451.46	6864.79
451.67	7049.11
451.88	7171.99
452.09	7155.60
452.30	6891.41
452.51	7120.79
452.72	7126.93
452.93	7487.37
453.13	7131.03
453.34	7231.38
453.55	7245.71
453.76	7395.22
453.97	7626.64
454.18	7384.98
454.39	7626.64
454.60	7323.54
454.81	7450.51
455.01	7647.12
455.22	7313.30
455.43	7600.01
455.64	7778.19
455.85	7743.37
456.06	7868.30
456.27	7729.03
456.48	7626.64
456.68	7825.29
456.89	7878.54
457.10	7823.24
457.31	7817.10
457.52	7647.12
457.73	7980.93
457.94	8318.85
458.14	7823.24
458.35	8138.63
458.56	8056.71
458.77	8044.42
458.98	8148.87
459.19	8275.84
459.39	8384.38
459.60	8433.54
459.81	8490.88
460.02	8462.21
460.23	8349.57
460.44	8628.09
460.65	8601.47
460.85	8697.72
461.06	8939.38
461.27	8619.90
461.48	8822.65
461.69	8951.67
461.89	8640.38
462.10	8877.94
462.31	8828.79
462.52	8828.79
462.73	8822.65
462.94	9097.08
463.14	9002.87
463.35	8925.05
463.56	9412.46
463.77	9267.06
463.98	9060.21
464.18	9244.53
464.39	9420.66
464.60	9613.17
464.81	9547.63
465.02	9381.74
465.23	9762.67
465.43	9594.73
465.64	9848.68
465.85	9641.84
466.06	9760.62
466.27	10227.56
466.47	9854.83
466.68	9852.78
466.89	10067.81
467.10	10121.06
467.30	9860.97
467.51	10250.08
467.72	10434.40
467.93	9963.37
468.14	10305.38
468.34	10563.42
468.55	10493.79
468.76	10602.33
468.97	10446.69
469.17	10706.78
469.38	10690.40
469.59	10942.30
469.80	10757.98
470.01	10723.16
470.21	10999.64
470.42	10954.58
470.63	11249.49
470.84	11071.32
471.04	11341.65
471.25	11163.48
471.46	11224.92
471.67	11614.03
471.87	11282.26
472.08	11689.81
472.29	11941.71
472.50	11224.92
472.70	11575.12
472.91	11759.44
473.12	11827.02
473.33	11892.55
473.53	12162.89
473.74	12183.37
473.95	12334.92
474.16	12312.39
474.36	12246.85
474.57	12572.48
474.78	12369.73
474.99	12402.50
475.19	12574.53
475.40	12857.15
475.61	12937.02
475.81	12906.30
476.02	13041.46
476.23	13096.76
476.44	13145.91
476.64	13473.59
476.85	13457.20
477.06	13469.49
477.27	13682.48
477.47	13813.55
477.68	13766.45
477.89	13791.02
478.09	13705.01
478.30	14028.59
478.51	13936.43
478.71	14231.33
478.92	14178.09
479.13	14231.33
479.34	14501.67
479.54	14331.69
479.75	14569.25
479.96	14538.53
480.16	14466.85
480.37	14802.72
480.58	14946.08
480.78	15304.47
480.99	15064.86
481.20	15243.03
481.41	15286.04
481.61	15523.60
481.82	15605.52
482.03	15578.90
482.23	15609.62
482.44	15804.17
482.65	15970.06
482.85	15943.44
483.06	15820.56
483.27	16011.02
483.47	16023.31
483.68	16078.60
483.89	16211.72
484.09	16301.83
484.30	16252.68
484.51	16473.86
484.71	16916.22
484.92	16590.59
485.13	16869.12
485.33	16920.32
485.54	16910.08
485.75	17291.00
485.95	17084.16
486.16	17358.58
486.37	17434.36
486.57	17432.31
486.78	17506.04
486.98	17514.23
487.19	17628.92
487.40	17960.69
487.60	17688.31
487.81	18054.89
488.02	17977.07
488.22	17917.68
488.43	18142.96
488.64	18155.24
488.84	18411.24
489.05	18458.34
489.25	18489.06
489.46	18591.46
489.67	18607.84
489.87	19007.20
490.08	18818.78
490.29	18970.33
490.49	19099.36
490.70	19181.28
490.90	19220.19
491.11	19244.76
491.32	19363.54
491.52	19400.41
491.73	19556.05
491.94	19621.59
492.14	19554.01
492.35	19754.71
492.55	19932.88
492.76	19934.93
492.97	20147.92
493.17	20365.00
493.38	20299.47
493.58	20350.67
493.79	20074.19
494.00	20420.30
494.20	20350.67
494.41	20592.33
494.61	20829.89
494.82	20899.52
495.02	20711.11
495.23	20979.39
495.44	20932.29
495.64	21204.67
495.85	21370.55
496.05	21405.37
496.26	21063.36
496.47	21567.16
496.67	21491.38
496.88	21659.32
497.08	21268.16
497.29	21991.09
497.49	21786.29
497.70	21587.64
497.91	22421.16
498.11	21984.94
498.32	22408.87
498.52	22247.08
498.73	22714.02
498.93	22453.93
499.14	22654.63
499.34	22884.00
499.55	22630.05
499.76	22615.72
499.96	22738.60
500.17	22986.40
500.37	23060.13
500.58	22877.86
500.78	22808.23
500.99	23170.72
501.19	23525.02
501.40	23441.05
501.60	23103.14
501.81	23475.87
502.02	23426.71
502.22	23375.52
502.43	23752.34
502.63	24137.36
502.84	23930.51
503.04	23797.40
503.25	23918.23
503.45	23948.95
503.66	24112.78
503.86	24209.04
504.07	24395.40
504.27	24209.04
504.48	24714.89
504.68	24389.26
504.89	24637.06
505.09	24436.36
505.30	24706.70
505.50	24907.40
505.71	24878.72
505.91	25108.10
506.12	25069.19
506.32	25075.33
506.53	25206.40
506.73	25149.06
506.94	25126.53
507.14	25368.19
507.35	25247.36
507.55	25468.54
507.76	25513.59
507.96	25349.76
508.17	25319.04
508.37	25747.06
508.58	25738.87
508.78	25861.75
508.99	26011.25
509.19	25908.85
509.40	26185.33
509.60	25958.00
509.81	26230.38
510.01	26191.47
510.22	26257.01
510.42	26347.12
510.63	26414.70
510.83	26529.39
511.04	26312.30
511.24	26402.41
511.44	26549.87
511.65	26531.44
511.85	26580.59
512.06	26734.18
512.26	26994.28
512.47	27065.96
512.67	26855.01
512.88	26941.03
513.08	26893.93
513.29	27172.45
513.49	26852.97
513.69	27035.24
513.90	27127.39
514.10	27217.50
514.31	27391.58
514.51	27440.73
514.72	27178.59
514.92	27117.15
515.13	27592.28
515.33	27768.41
515.53	27659.87
515.74	27580.00
515.94	28331.60
516.15	27860.57
516.35	27805.27
516.56	27835.99
516.76	27448.93
516.96	28151.38
517.17	28264.02
517.37	27934.29
517.58	28257.87
517.78	28335.70
517.99	28274.26
518.19	28651.08
518.39	28853.83
518.60	28765.77
518.80	28603.98
519.01	28632.65
519.21	28599.88
519.41	28835.40
519.62	28909.13
519.82	29025.86
520.03	29191.75
520.23	29105.73
520.43	29015.62
520.64	29439.55
520.84	29541.95
521.05	29183.55
521.25	29277.76
521.45	29322.82
521.66	29537.85
521.86	29394.50
522.07	29265.47
522.27	29611.58
522.47	29777.47
522.68	29992.50
522.88	29924.92
523.08	30121.52
523.29	30162.48
523.49	30242.35
523.70	30254.64
523.90	30613.04
524.10	30604.84
524.31	30561.84
524.51	30340.66
524.71	30977.58
524.92	30346.80
525.12	31073.83
525.33	30862.89
525.53	31012.39
525.73	31184.42
525.94	31096.36
526.14	30940.71
526.34	30975.53
526.55	31524.38
526.75	31249.96
526.95	31655.45
527.16	31559.20
527.36	31405.60
527.56	32183.83
527.77	31839.77
527.97	32005.66
528.17	32052.76
528.38	31952.41
528.58	32206.36
528.78	32218.64
528.99	32034.33
529.19	32153.11
529.39	32366.10
529.60	32552.46
529.80	32421.39
530.00	32654.86
530.21	32919.05
530.41	33129.99
530.61	32652.81
530.82	33095.18
531.02	32753.16
531.22	33357.32
531.43	33039.88
531.63	33046.02
531.83	33306.12
532.04	33463.81
532.24	33334.79
532.44	33758.72
532.64	33883.64
532.85	33687.04
533.05	33560.06
533.25	33988.09
533.46	34086.39
533.66	34319.86
533.86	34352.63
534.07	34319.86
534.27	34385.40
534.47	34364.92
534.67	34473.46
534.88	34502.13
535.08	34422.26
535.28	34674.16
535.49	34964.97
535.69	35257.83
535.89	35104.23
536.09	35444.20
536.30	35034.60
536.50	35616.22
536.70	35298.79
536.91	35268.07
537.11	35472.87
537.31	35743.20
537.51	35761.63
537.72	35993.05
537.92	36376.02
538.12	36566.48
538.32	36068.83
538.53	36142.55
538.73	35995.10
538.93	36099.55
539.13	36083.16
539.34	36400.60
539.54	36005.34
539.74	36558.29
539.94	36296.15
540.15	36771.28
540.35	36847.05
540.55	36660.69
540.75	36627.92
540.96	36836.81
541.16	36713.94
541.36	36945.36
541.56	37303.75
541.77	37447.11
541.97	37385.67
542.17	37232.07
542.37	37330.37
542.58	37514.69
542.78	37092.81
542.98	37633.47
543.18	37895.61
543.38	38000.06
543.59	37815.74
543.79	37612.99
543.99	37658.05
544.19	38008.25
544.40	37840.32
544.60	38260.15
544.80	38092.22
545.00	38204.86
545.20	38151.61
545.41	38417.85
545.61	38337.98
545.81	38892.97
546.01	38575.54
546.21	38380.98
546.42	38565.30
546.62	38974.89
546.82	38819.25
547.02	38634.93
547.22	39032.24
547.43	39058.86
547.63	38843.82
547.83	39357.86
548.03	39095.72
548.23	39388.58
548.44	39310.76
548.64	39427.49
548.84	39456.17
549.04	39443.88
549.24	39560.61
549.45	39953.82
549.65	39568.80
549.85	39777.70
550.05	39804.32
550.25	39937.44
550.45	40361.37
550.66	40121.76
550.86	39931.29
551.06	40600.98
551.26	40318.36
551.46	40277.40
551.66	40068.51
551.87	40351.13
552.07	40328.60
552.27	40400.28
552.47	40570.26
552.67	40908.18
552.87	40566.16
553.07	40703.38
553.28	40785.30
553.48	40979.85
553.68	40773.01
553.88	41149.84
554.08	41186.70
554.28	40883.60
554.48	40664.47
554.69	41051.53
554.89	41309.58
555.09	41543.05
555.29	41319.82
555.49	41491.85
555.69	41383.30
555.89	41684.36
556.10	41631.11
556.30	41471.37
556.50	41749.89
556.70	41555.33
556.90	42057.09
557.10	41792.90
557.30	41948.54
557.50	42524.02
557.70	42073.47
557.91	42489.21
558.11	42003.84
558.31	42372.47
558.51	42081.66
558.71	42077.57
558.91	42317.18
559.11	42489.21
559.31	42089.85
559.51	42235.26
559.72	42579.32
559.92	42460.54
560.12	42612.09
560.32	42628.47
560.52	42562.93
560.72	42739.06
560.92	42771.83
561.12	42866.03
561.32	43054.45
561.52	42698.10
561.72	43400.55
561.93	42759.54
562.13	43124.08
562.33	42757.49
562.53	43414.89
562.73	43056.50
562.93	42800.50
563.13	42960.24
563.33	43251.05
563.53	43591.01
563.73	43017.58
563.93	43285.87
564.13	44557.66
564.33	43464.04
564.53	43642.21
564.74	44045.66
564.94	43525.48
565.14	43677.03
565.34	43400.55
565.54	43472.23
565.74	43459.94
565.94	43953.51
566.14	44164.45
566.34	43926.88
566.54	44250.46
566.74	44033.38
566.94	44189.02
567.14	44096.86
567.34	43992.42
567.54	44250.46
567.74	44031.33
567.94	44422.49
568.14	44561.75
568.34	44875.09
568.54	44670.29
568.74	44412.25
568.94	44352.86
569.14	44934.48
569.34	44533.08
569.54	44729.69
569.75	44660.05
569.95	44543.32
570.15	44860.76
570.35	45069.65
570.55	44639.57
570.75	44907.86
570.95	44567.90
571.15	45235.53
571.35	45174.09
571.55	45323.60
571.75	45442.38
571.95	45514.06
572.15	45192.53
572.35	45382.99
572.55	45190.48
572.75	45231.44
572.95	45299.02
573.15	45331.79
573.35	45563.21
573.55	45436.23
573.75	45407.56
573.95	45735.24
574.15	45716.81
574.35	46085.44
574.55	45892.93
574.75	45808.96
574.95	45897.03
575.15	45671.75
575.34	45681.99
575.54	45970.75
575.74	46050.63
575.94	46110.02
576.14	45897.03
576.34	46761.27
576.54	46214.46
576.74	46366.01
576.94	46161.22
577.14	46359.87
577.34	47045.94
577.54	45505.87
577.74	46697.78
577.94	46789.94
578.14	46589.24
578.34	46806.33
578.54	46083.39
578.74	46650.68
578.94	46986.55
579.14	46521.66
579.34	46538.04
579.54	46818.61
579.74	47314.22
579.94	47220.02
580.13	47039.79
580.33	47052.08
580.53	47125.81
580.73	47177.01
580.93	47105.33
581.13	46824.76
581.33	46976.31
581.53	47668.52
581.73	47224.11
581.93	47355.18
582.13	47758.63
582.33	47596.84
582.53	47299.89
582.73	47351.09
582.92	47873.32
583.12	47680.81
583.32	47510.83
583.52	47547.69
583.72	47799.59
583.92	47799.59
584.12	48008.48
584.32	48063.78
584.52	47861.03
584.72	48137.51
584.92	48219.42
585.11	48411.93
585.31	48153.89
585.51	48231.71
585.71	48180.51
585.91	48725.27
586.11	48166.18
586.31	48258.34
586.51	48196.90
586.71	48356.64
586.91	48594.20
587.10	48622.87
587.30	48383.26
587.50	48755.99
587.70	48674.07
587.90	48870.68
588.10	48569.63
588.30	48543.00
588.50	49118.48
