SpectraSuite Data File
++++++++++++++++++++++++++++++++++++
Date: Fri Jun 02 14:47:59 CEST 2017
User: INFO_000
Dark Spectrum Present: No
Reference Spectrum Present: No
Number of Sampled Component Spectra: 1
Spectrometers: USB4H00879
Integration Time (usec): 80000 (USB4H00879)
Spectra Averaged: 1 (USB4H00879)
Boxcar Smoothing: 0 (USB4H00879)
Correct for Electrical Dark: No (USB4H00879)
Strobe/Lamp Enabled: No (USB4H00879)
Correct for Detector Non-linearity: No (USB4H00879)
Correct for Stray Light: No (USB4H00879)
Number of Pixels in Processed Spectrum: 3648
>>>>>Begin Processed Spectral Data<<<<<
345.13	1273.84
345.34	1273.84
345.56	1273.84
345.78	1271.79
345.99	1316.84
346.21	1761.25
346.42	1699.81
346.64	1679.33
346.86	1818.60
347.07	1658.85
347.29	1705.96
347.50	1640.42
347.72	1712.10
347.94	1744.87
348.15	1552.36
348.37	1609.70
348.59	1658.85
348.80	1642.47
349.02	1787.88
349.23	1970.15
349.45	1859.56
349.67	1863.65
349.88	1755.11
350.10	2009.06
350.31	1871.84
350.53	1804.26
350.75	1910.75
350.96	1785.83
351.18	1804.26
351.39	1796.07
351.61	1812.45
351.82	1886.18
352.04	1923.04
352.26	1798.12
352.47	1845.22
352.69	1910.75
352.90	1748.97
353.12	1877.99
353.34	1898.47
353.55	1974.24
353.77	1914.85
353.98	1929.19
354.20	1841.12
354.41	1992.67
354.63	1920.99
354.85	2031.58
355.06	1882.08
355.28	1775.59
355.49	1955.81
355.71	1894.37
355.92	1884.13
356.14	1986.53
356.35	1839.08
356.57	1871.84
356.79	1884.13
357.00	1875.94
357.22	1982.43
357.43	1845.22
357.65	2019.30
357.86	1826.79
358.08	1918.95
358.29	1986.53
358.51	1978.34
358.72	1933.28
358.94	1873.89
359.16	1974.24
359.37	1974.24
359.59	1951.71
359.80	2017.25
360.02	1968.10
360.23	1935.33
360.45	2052.06
360.66	1982.43
360.88	1923.04
361.09	1871.84
361.31	1953.76
361.52	2009.06
361.74	1978.34
361.95	2033.63
362.17	1959.91
362.38	2150.37
362.60	1964.00
362.81	2023.39
363.03	1904.61
363.24	1945.57
363.46	2064.35
363.67	1908.71
363.89	2043.87
364.10	1992.67
364.32	1947.62
364.53	2007.01
364.75	1839.08
364.96	2074.59
365.18	2047.97
365.39	2004.96
365.61	1961.95
365.82	2066.40
366.04	2080.74
366.25	1933.28
366.47	1964.00
366.68	1992.67
366.90	1982.43
367.11	2084.83
367.33	2097.12
367.54	2109.41
367.76	1986.53
367.97	2086.88
368.19	2041.82
368.40	2052.06
368.62	2052.06
368.83	1970.15
369.05	1953.76
369.26	2007.01
369.48	2021.35
369.69	2031.58
369.91	1998.82
370.12	2052.06
370.33	2154.46
370.55	1982.43
370.76	2015.20
370.98	2095.07
371.19	2054.11
371.41	1976.29
371.62	1994.72
371.84	1998.82
372.05	2072.54
372.27	2119.65
372.48	2066.40
372.69	2113.50
372.91	2140.13
373.12	2250.72
373.34	2113.50
373.55	2142.18
373.77	2138.08
373.98	2101.22
374.20	2203.61
374.41	2269.15
374.62	2142.18
374.84	2109.41
375.05	2209.76
375.27	2109.41
375.48	2232.29
375.70	2213.85
375.91	2133.98
376.12	2353.12
376.34	2138.08
376.55	2201.57
376.77	2181.09
376.98	2207.71
377.19	2133.98
377.41	2119.65
377.62	2254.81
377.84	2228.19
378.05	2303.96
378.27	2172.89
378.48	2277.34
378.69	2392.03
378.91	2308.06
379.12	2297.82
379.34	2179.04
379.55	2301.92
379.76	2252.77
379.98	2244.57
380.19	2246.62
380.41	2289.63
380.62	2252.77
380.83	2238.43
381.05	2207.71
381.26	2330.59
381.47	2176.99
381.69	2271.20
381.90	2355.16
382.12	2353.12
382.33	2306.01
382.54	2263.01
382.76	2287.58
382.97	2371.55
383.19	2217.95
383.40	2449.37
383.61	2285.53
383.83	2224.09
384.04	2246.62
384.25	2303.96
384.47	2349.02
384.68	2346.97
384.89	2273.25
385.11	2201.57
385.32	2330.59
385.54	2420.70
385.75	2373.60
385.96	2455.51
386.18	2404.32
386.39	2439.13
386.60	2330.59
386.82	2346.97
387.03	2426.84
387.24	2422.75
387.46	2346.97
387.67	2435.03
387.88	2502.62
388.10	2418.65
388.31	2504.67
388.52	2574.30
388.74	2523.10
388.95	2492.38
389.16	2541.53
389.38	2508.76
389.59	2482.14
389.80	2639.83
390.02	2549.72
390.23	2568.15
390.44	2570.20
390.66	2568.15
390.87	2527.19
391.08	2650.07
391.30	2680.79
391.51	2660.31
391.72	2615.26
391.94	2701.27
392.15	2639.83
392.36	2674.65
392.58	2600.92
392.79	2715.61
393.00	2688.98
393.22	2717.65
393.43	2723.80
393.64	2768.85
393.85	2826.20
394.07	2625.50
394.28	2754.52
394.49	2736.09
394.71	2863.06
394.92	2777.05
395.13	2697.17
395.35	2715.61
395.56	2672.60
395.77	2713.56
395.98	2822.10
396.20	2813.91
396.41	2789.33
396.62	2926.55
396.84	2729.94
397.05	2727.89
397.26	2961.36
397.47	2981.84
397.69	2762.71
397.90	3047.38
398.11	3026.90
398.32	2918.36
398.54	2918.36
398.75	2873.30
398.96	2963.41
399.18	3010.51
399.39	3043.28
399.60	2963.41
399.81	2901.97
400.03	2928.60
400.24	3272.65
400.45	3000.27
400.66	3104.72
400.88	2987.99
401.09	3262.41
401.30	2992.08
401.51	3063.76
401.73	3092.43
401.94	3076.05
402.15	3094.48
402.36	3020.75
402.58	3110.86
402.79	3121.10
403.00	3080.14
403.21	3299.28
403.43	3151.82
403.64	3270.61
403.85	3194.83
404.06	3166.16
404.27	3024.85
404.49	3131.34
404.70	3147.73
404.91	3264.46
405.12	3307.47
405.34	3162.06
405.55	3332.05
405.76	3114.96
405.97	3211.22
406.19	3280.85
406.40	3209.17
406.61	3219.41
406.82	3317.71
407.03	3239.89
407.25	3262.41
407.46	3452.88
407.67	3379.15
407.88	3346.38
408.09	3207.12
408.31	3395.53
408.52	3332.05
408.73	3303.37
408.94	3315.66
409.15	3338.19
409.37	3442.64
409.58	3540.94
409.79	3434.44
410.00	3538.89
410.21	3440.59
410.43	3416.01
410.64	3305.42
410.85	3583.95
411.06	3485.64
411.27	3461.07
411.48	3665.86
411.70	3475.40
411.91	3590.09
412.12	3579.85
412.33	3600.33
412.54	3479.50
412.76	3651.53
412.97	3680.20
413.18	3526.60
413.39	3608.52
413.60	3778.50
413.81	3614.66
414.03	3704.78
414.24	3659.72
414.45	3827.65
414.66	3573.71
414.87	3749.83
415.08	3680.20
415.30	3665.86
415.51	3864.52
415.72	3725.26
415.93	3747.78
416.14	3788.74
416.35	3846.09
416.56	3786.69
416.78	3749.83
416.99	3858.37
417.20	3801.03
417.41	3909.57
417.62	3913.67
417.83	3862.47
418.04	3839.94
418.26	3962.82
418.47	3907.52
418.68	4044.74
418.89	3946.44
419.10	4124.61
419.31	3975.11
419.52	4075.46
419.73	4014.02
419.95	4122.56
420.16	3919.81
420.37	4091.84
420.58	4059.07
420.79	3878.85
421.00	3977.16
421.21	4108.23
421.42	3985.35
421.63	4175.81
421.85	4095.94
422.06	4186.05
422.27	4200.38
422.48	4157.38
422.69	4214.72
422.90	4153.28
423.11	4204.48
423.32	4184.00
423.53	4517.82
423.75	4415.42
423.96	4442.04
424.17	4493.24
424.38	4474.81
424.59	4519.87
424.80	4630.46
425.01	4431.80
425.22	4407.23
425.43	4351.93
425.64	4601.79
425.85	4644.79
426.06	4624.31
426.28	4607.93
426.49	4509.63
426.70	4521.92
426.91	4648.89
427.12	4757.43
427.33	4652.98
427.54	4587.45
427.75	4825.01
427.96	4829.11
428.17	4718.52
428.38	4820.92
428.59	4876.21
428.80	4644.79
429.01	4808.63
429.23	4990.90
429.44	4986.80
429.65	4986.80
429.86	4855.73
430.07	4921.27
430.28	4818.87
430.49	4964.28
430.70	5076.91
430.91	5107.63
431.12	5033.91
431.33	5175.22
431.54	5042.10
431.75	5066.67
431.96	5074.87
432.17	5175.22
432.38	5250.99
432.59	5205.94
432.80	5281.71
433.01	5296.05
433.22	5162.93
433.43	5320.62
433.64	5171.12
433.85	5228.46
434.06	5447.60
434.27	5277.62
434.49	5304.24
434.70	5396.40
434.91	5373.87
435.12	5375.92
435.33	5373.87
435.54	5455.79
435.75	5189.55
435.96	5328.81
436.17	5267.38
436.38	5484.46
436.59	5423.02
436.80	5406.64
437.01	5642.15
437.22	5572.52
437.43	5574.57
437.64	5433.26
437.85	5699.50
438.06	5771.18
438.27	5515.18
438.48	5656.49
438.69	5808.04
438.90	5636.01
439.11	5646.25
439.32	5699.50
439.53	5728.17
439.74	5869.48
439.95	5849.00
440.16	5728.17
440.37	5752.74
440.57	5760.94
440.78	5939.11
440.99	5935.01
441.20	5851.05
441.41	5840.81
441.62	5875.62
441.83	5756.84
442.04	6086.56
442.25	5992.36
442.46	5883.81
442.67	6072.23
442.88	6467.49
443.09	6102.95
443.30	6025.12
443.51	6109.09
443.72	6324.13
443.93	6053.80
444.14	6373.28
444.35	5943.21
444.56	6270.88
444.77	6137.76
444.98	6295.46
445.19	6389.66
445.40	6299.55
445.61	6307.74
445.81	6434.72
446.02	6502.30
446.23	6356.90
446.44	6176.67
446.65	6533.02
446.86	6541.21
447.07	6571.93
447.28	6621.08
447.49	6559.64
447.70	6506.40
447.91	6760.34
448.12	6573.98
448.33	6696.86
448.54	6567.84
448.74	6737.82
448.95	6915.99
449.16	6610.84
449.37	7032.72
449.58	6629.27
449.79	6924.18
450.00	6662.04
450.21	6850.46
450.42	6946.71
450.63	6987.67
450.84	6895.51
451.05	7014.29
451.25	6948.76
451.46	6829.98
451.67	7245.71
451.88	7190.42
452.09	7266.19
452.30	7104.40
452.51	7059.35
452.72	7280.53
452.93	7557.00
453.13	7358.35
453.34	7169.94
453.55	7360.40
453.76	7317.39
453.97	7694.22
454.18	7409.55
454.39	7567.24
454.60	7524.24
454.81	7516.05
455.01	7823.24
455.22	7454.61
455.43	7454.61
455.64	7743.37
455.85	8036.23
456.06	8144.77
456.27	7769.99
456.48	7765.90
456.68	7950.21
456.89	7825.29
457.10	8085.38
457.31	8091.52
457.52	8048.52
457.73	7948.17
457.94	8308.61
458.14	8005.51
458.35	8535.93
458.56	8429.44
458.77	8097.67
458.98	8335.23
459.19	8396.67
459.39	8372.10
459.60	8503.17
459.81	8359.81
460.02	8570.75
460.23	8601.47
460.44	8722.30
460.65	8714.11
460.85	8644.48
461.06	8937.34
461.27	8843.13
461.48	8867.70
461.69	9041.78
461.89	8779.64
462.10	9013.11
462.31	8972.15
462.52	8974.20
462.73	8900.47
462.94	9082.74
463.14	9049.97
463.35	9127.80
463.56	9228.15
463.77	9363.31
463.98	9299.83
464.18	9283.44
464.39	9404.27
464.60	9629.55
464.81	9518.96
465.02	9453.42
465.23	9645.93
465.43	9557.87
465.64	9750.38
465.85	9906.02
466.06	9723.76
466.27	10039.14
466.47	10202.98
466.68	10037.09
466.89	10176.36
467.10	10063.72
467.30	9934.70
467.51	10121.06
467.72	10245.99
467.93	9975.66
468.14	10332.00
468.34	10608.48
468.55	10463.07
468.76	10368.87
468.97	10297.19
469.17	10461.02
469.38	10737.50
469.59	10887.00
469.80	10678.11
470.01	10674.01
470.21	10833.75
470.42	10973.02
470.63	11286.36
470.84	10850.14
471.04	11212.63
471.25	11290.45
471.46	11200.34
471.67	11433.81
471.87	11349.84
472.08	11470.67
472.29	11640.65
472.50	11306.84
472.70	11536.21
472.91	11603.79
473.12	11808.59
473.33	11700.05
473.53	11716.43
473.74	11681.61
473.95	12023.62
474.16	12296.00
474.36	12154.69
474.57	12404.55
474.78	12406.59
474.99	12357.44
475.19	12169.03
475.40	12726.08
475.61	12670.78
475.81	12924.73
476.02	13125.43
476.23	13047.61
476.44	13049.66
476.64	13098.81
476.85	13387.57
477.06	13131.58
477.27	13436.72
477.47	13623.09
477.68	13438.77
477.89	13543.22
478.09	13557.55
478.30	13700.91
478.51	13741.87
478.71	14010.15
478.92	14165.80
479.13	14405.41
479.34	14182.18
479.54	14331.69
479.75	14163.75
479.96	14427.94
480.16	14329.64
480.37	14649.12
480.58	14866.21
480.78	14993.18
480.99	14667.55
481.20	14970.65
481.41	15128.35
481.61	14929.69
481.82	15214.36
482.03	15218.46
482.23	15083.29
482.44	15800.08
482.65	15591.19
482.85	15591.19
483.06	15777.55
483.27	15882.00
483.47	15824.65
483.68	15937.29
483.89	16166.67
484.09	16271.11
484.30	16412.42
484.51	16578.31
484.71	16496.39
484.92	16516.87
485.13	16787.20
485.33	16819.97
485.54	16520.96
485.75	16910.08
485.95	17207.03
486.16	17213.18
486.37	17415.93
486.57	17190.65
486.78	17350.39
486.98	17520.37
487.19	17620.72
487.40	17665.78
487.60	17741.55
487.81	18175.72
488.02	18079.47
488.22	17999.60
488.43	18276.07
488.64	18302.70
488.84	18220.78
489.05	18409.19
489.25	18296.55
489.46	18458.34
489.67	18431.72
489.87	18878.18
490.08	19048.16
490.29	18935.52
490.49	19517.14
490.70	19255.00
490.90	19216.09
491.11	19445.46
491.32	19494.61
491.52	19476.18
491.73	19631.83
491.94	19875.54
492.14	19828.43
492.35	20178.64
492.55	20125.39
492.76	20168.40
492.97	20389.58
493.17	20311.75
493.38	20534.98
493.58	20717.25
493.79	20915.90
494.00	20612.81
494.20	20723.40
494.41	20850.37
494.61	21083.84
494.82	21071.55
495.02	21311.16
495.23	21368.51
495.44	21311.16
495.64	21556.92
495.85	21374.65
496.05	21780.15
496.26	21769.91
496.47	22146.73
496.67	21710.52
496.88	22077.10
497.08	21491.38
497.29	22148.78
497.49	22052.53
497.70	22415.02
497.91	22503.08
498.11	22515.37
498.32	22775.46
498.52	22632.10
498.73	22994.59
498.93	22834.85
499.14	22855.33
499.34	22910.63
499.55	23246.49
499.76	23180.96
499.96	23246.49
500.17	23332.51
500.37	23266.97
500.58	23283.36
500.78	23553.69
500.99	23314.08
501.19	23781.01
501.40	23619.22
501.60	23723.67
501.81	23752.34
502.02	23924.37
502.22	23887.51
502.43	24174.22
502.63	24397.45
502.84	24004.24
503.04	24379.02
503.25	24401.55
503.45	24262.29
503.66	24534.67
503.86	24718.98
504.07	24856.20
504.27	24495.75
504.48	25042.56
504.68	25065.09
504.89	25038.47
505.09	25147.01
505.30	25296.51
505.50	25353.85
505.71	25265.79
505.91	25276.03
506.12	25396.86
506.32	25470.59
506.53	25400.96
506.73	25380.48
506.94	25663.10
507.14	25478.78
507.35	25562.75
507.55	26029.68
507.76	25812.60
507.96	25720.44
508.17	25923.19
508.37	25962.10
508.58	26023.54
508.78	26318.45
508.99	26052.21
509.19	26367.60
509.40	26244.72
509.60	26531.44
509.81	26500.72
510.01	26166.90
510.22	26568.30
510.42	26117.75
510.63	26451.56
510.83	26349.17
511.04	26474.09
511.24	26662.51
511.44	27000.42
511.65	26639.98
511.85	26492.52
512.06	26975.84
512.26	27037.28
512.47	26769.00
512.67	26965.60
512.88	26928.74
513.08	26676.84
513.29	27244.13
513.49	26797.67
513.69	27090.53
513.90	27203.17
514.10	27280.99
514.31	27362.91
514.51	27493.98
514.72	27229.79
514.92	26895.97
515.13	27317.86
515.33	27481.69
515.53	27094.63
515.74	27450.97
515.94	27719.26
516.15	27405.92
516.35	27678.30
516.56	27971.16
516.76	27934.29
516.96	27911.77
517.17	28020.31
517.37	28096.08
517.58	28075.60
517.78	28028.50
517.99	27985.49
518.19	28089.94
518.39	28225.11
518.60	28241.49
518.80	28411.47
519.01	28532.30
519.21	28354.13
519.41	28712.52
519.62	28489.29
519.82	28450.38
520.03	28857.93
520.23	28622.41
520.43	28851.78
520.64	28757.58
520.84	28978.76
521.05	28989.00
521.25	29113.92
521.45	28976.71
521.66	29419.07
521.86	28964.42
522.07	29304.38
522.27	29224.51
522.47	29353.54
522.68	29429.31
522.88	29079.11
523.08	29371.97
523.29	29836.86
523.49	29826.62
523.70	29640.25
523.90	30158.39
524.10	29931.06
524.31	30074.42
524.51	29777.47
524.71	30275.12
524.92	30012.98
525.12	30510.64
525.33	30508.59
525.53	30150.20
525.73	30864.94
525.94	30608.94
526.14	30393.90
526.34	30563.89
526.55	30977.58
526.75	30881.32
526.95	31254.05
527.16	31075.88
527.36	30950.95
527.56	31565.34
527.77	31389.22
527.97	31376.93
528.17	31149.60
528.38	31434.27
528.58	31538.72
528.78	31682.08
528.99	31563.29
529.19	31950.36
529.39	31669.79
529.60	32075.29
529.80	31770.14
530.00	31860.25
530.21	32200.21
530.41	32355.86
530.61	32218.64
530.82	32196.12
531.02	32433.68
531.22	32882.19
531.43	32579.09
531.63	32917.00
531.83	33111.56
532.04	33226.24
532.24	32720.40
532.44	33525.25
532.64	33447.43
532.85	33521.15
533.05	33611.26
533.25	33676.80
533.46	33719.81
533.66	33775.10
533.86	33359.36
534.07	33959.42
534.27	33832.44
534.47	34489.84
534.67	34522.61
534.88	34137.59
535.08	34518.51
535.28	35020.27
535.49	34518.51
535.69	35218.92
535.89	35036.65
536.09	35042.79
536.30	35249.64
536.50	35243.49
536.70	35411.43
536.91	35143.14
537.11	35313.13
537.31	35536.35
537.51	35644.90
537.72	35915.23
537.92	35896.80
538.12	36353.49
538.32	36120.02
538.53	36062.68
538.73	35845.60
538.93	36060.63
539.13	36554.19
539.34	36486.61
539.54	36400.60
539.74	36724.18
539.94	36744.66
540.15	36230.62
540.35	37150.15
540.55	37053.90
540.75	37232.07
540.96	37123.53
541.16	37295.56
541.36	37205.45
541.56	37567.94
541.77	37703.10
541.97	37576.13
542.17	37594.56
542.37	37502.40
542.58	38092.22
542.78	37764.54
542.98	37776.83
543.18	37916.09
543.38	38380.98
543.59	38251.96
543.79	38147.51
543.99	37995.96
544.19	38340.02
544.40	38628.79
544.60	38659.51
544.80	38712.75
545.00	38897.07
545.20	39202.22
545.41	38716.85
545.61	38831.54
545.81	39206.31
546.01	39286.18
546.21	38966.70
546.42	39114.16
546.62	39300.52
546.82	39284.14
547.02	39531.94
547.22	39300.52
547.43	39869.86
547.63	39800.22
547.83	40068.51
548.03	39853.47
548.23	39976.35
548.44	39538.08
548.64	40244.63
548.84	40078.75
549.04	40033.69
549.24	40293.79
549.45	40265.11
549.65	40306.07
549.85	40865.17
550.05	40605.08
550.25	40428.95
550.45	41209.23
550.66	40965.52
550.86	40648.08
551.06	41256.33
551.26	40811.92
551.46	41076.11
551.66	41223.56
551.87	40959.38
552.07	41328.01
552.27	41332.11
552.47	41350.54
552.67	41313.67
552.87	41549.19
553.07	41885.06
553.28	41528.71
553.48	41899.39
553.68	41457.03
553.88	41874.82
554.08	41979.26
554.28	41991.55
554.48	42102.14
554.69	42147.20
554.89	41960.83
555.09	41837.95
555.29	41893.25
555.49	41807.23
555.69	42438.01
555.89	42147.20
556.10	42538.36
556.30	42351.99
556.50	42616.18
556.70	42370.43
556.90	42485.11
557.10	42452.34
557.30	42413.43
557.50	42753.40
557.70	42661.24
557.91	43076.97
558.11	42476.92
558.31	43046.26
558.51	42898.80
558.71	42919.28
558.91	43208.04
559.11	42892.66
559.31	42859.89
559.51	43113.84
559.72	43062.64
559.92	43107.69
560.12	42835.31
560.32	43316.59
560.52	42990.96
560.72	43505.00
560.92	43693.41
561.12	43599.21
561.32	43789.67
561.52	43648.36
561.72	43867.49
561.93	43414.89
562.13	43836.77
562.33	43498.86
562.53	44066.14
562.73	43840.87
562.93	43785.57
563.13	43613.54
563.33	43783.52
563.53	43715.94
563.73	43404.65
563.93	43629.93
564.13	44307.80
564.33	43619.69
564.53	43763.04
564.74	44389.72
564.94	44107.10
565.14	43703.65
565.34	43754.85
565.54	44404.06
565.74	44027.23
565.94	44367.20
566.14	44324.19
566.34	43758.95
566.54	44725.59
566.74	43914.59
566.94	44543.32
567.14	44389.72
567.34	44098.91
567.54	44371.29
567.74	44483.93
567.94	44367.20
568.14	44629.34
568.34	44602.71
568.54	44383.58
568.74	44662.10
568.94	44236.12
569.14	44520.79
569.34	44623.19
569.54	44553.56
569.75	44479.83
569.95	44524.89
570.15	45135.18
570.35	44801.36
570.55	44479.83
570.75	44692.82
570.95	44801.36
571.15	44676.44
571.35	44338.52
571.55	45219.15
571.75	45200.72
571.95	45243.73
572.15	44778.84
572.35	45167.95
572.55	45028.69
572.75	44791.12
572.95	45090.13
573.15	44977.49
573.35	45278.54
573.55	45008.21
573.75	45235.53
573.95	45417.80
574.15	44997.97
574.35	45380.94
574.55	44750.17
574.75	45282.64
574.95	45370.70
575.15	45047.12
575.34	45376.84
575.54	45231.44
575.74	45614.41
575.94	45571.40
576.14	45692.23
576.34	45725.00
576.54	46013.76
576.74	45751.62
576.94	45641.03
577.14	45782.34
577.34	46042.43
577.54	45444.43
577.74	46011.71
577.94	45940.04
578.14	46247.23
578.34	46552.38
578.54	45434.19
578.74	45864.26
578.94	46132.54
579.14	46079.30
579.34	46163.26
579.54	46312.77
579.74	46394.68
579.94	46200.13
580.13	46484.79
580.33	46196.03
580.53	46462.27
580.73	46165.31
580.93	46423.36
581.13	46263.61
581.33	46632.25
581.53	46658.87
581.73	46439.74
581.93	46452.03
582.13	46507.32
582.33	46773.56
582.53	46734.65
582.73	46726.46
582.92	46873.91
583.12	47168.82
583.32	46955.83
583.52	46593.34
583.72	46863.67
583.92	46601.53
584.12	46814.52
584.32	47263.02
584.52	47164.72
584.72	47643.94
584.92	47256.88
585.11	47670.57
585.31	46959.92
585.51	47297.84
585.71	47467.82
585.91	47629.61
586.11	47299.89
586.31	47355.18
586.51	47447.34
586.71	47914.28
586.91	47744.30
587.10	47519.02
587.30	47631.66
587.50	47863.08
587.70	48133.41
587.90	47717.67
588.10	47930.66
588.30	47930.66
588.50	48088.35
