SpectraSuite Data File
++++++++++++++++++++++++++++++++++++
Date: Fri Jun 02 14:48:00 CEST 2017
User: INFO_000
Dark Spectrum Present: No
Reference Spectrum Present: No
Number of Sampled Component Spectra: 1
Spectrometers: USB4H00879
Integration Time (usec): 80000 (USB4H00879)
Spectra Averaged: 1 (USB4H00879)
Boxcar Smoothing: 0 (USB4H00879)
Correct for Electrical Dark: No (USB4H00879)
Strobe/Lamp Enabled: No (USB4H00879)
Correct for Detector Non-linearity: No (USB4H00879)
Correct for Stray Light: No (USB4H00879)
Number of Pixels in Processed Spectrum: 3648
>>>>>Begin Processed Spectral Data<<<<<
345.13	1284.08
345.34	1284.08
345.56	1284.08
345.78	1218.54
345.99	1255.40
346.21	1705.96
346.42	1667.05
346.64	1560.55
346.86	1724.39
347.07	1679.33
347.29	1685.48
347.50	1587.18
347.72	1656.81
347.94	1777.64
348.15	1583.08
348.37	1646.57
348.59	1732.58
348.80	1654.76
349.02	1736.68
349.23	1869.80
349.45	1777.64
349.67	1816.55
349.88	1802.21
350.10	1968.10
350.31	1886.18
350.53	1839.08
350.75	2007.01
350.96	1763.30
351.18	1904.61
351.39	1929.19
351.61	1798.12
351.82	1896.42
352.04	1972.19
352.26	1812.45
352.47	1941.47
352.69	1937.38
352.90	1705.96
353.12	1843.17
353.34	1898.47
353.55	1925.09
353.77	1820.64
353.98	1779.68
354.20	1875.94
354.41	1925.09
354.63	1894.37
354.85	2060.26
355.06	1937.38
355.28	1691.62
355.49	1877.99
355.71	1912.80
355.92	1877.99
356.14	1892.32
356.35	1916.90
356.57	1812.45
356.79	1964.00
357.00	1855.46
357.22	2031.58
357.43	1896.42
357.65	1990.63
357.86	1855.46
358.08	1832.93
358.29	1951.71
358.51	1939.43
358.72	1931.23
358.94	1871.84
359.16	1851.36
359.37	1929.19
359.59	1959.91
359.80	2007.01
360.02	2027.49
360.23	2023.39
360.45	1951.71
360.66	1982.43
360.88	1847.27
361.09	1968.10
361.31	1978.34
361.52	2037.73
361.74	2035.68
361.95	2011.11
362.17	1920.99
362.38	2093.02
362.60	1970.15
362.81	1947.62
363.03	1978.34
363.24	1918.95
363.46	1998.82
363.67	1986.53
363.89	2060.26
364.10	2021.35
364.32	1929.19
364.53	2070.50
364.75	1984.48
364.96	2052.06
365.18	2009.06
365.39	1935.33
365.61	2002.91
365.82	2054.11
366.04	2002.91
366.25	1918.95
366.47	2050.02
366.68	2058.21
366.90	1976.29
367.11	2033.63
367.33	2082.78
367.54	2088.93
367.76	1998.82
367.97	2125.79
368.19	1992.67
368.40	2113.50
368.62	1923.04
368.83	1955.81
369.05	2095.07
369.26	1990.63
369.48	1914.85
369.69	2052.06
369.91	2074.59
370.12	2027.49
370.33	2093.02
370.55	1986.53
370.76	2039.78
370.98	2052.06
371.19	2052.06
371.41	1941.47
371.62	2004.96
371.84	2050.02
372.05	2213.85
372.27	2029.54
372.48	2084.83
372.69	2066.40
372.91	2142.18
373.12	2117.60
373.34	2133.98
373.55	2107.36
373.77	2140.13
373.98	2113.50
374.20	2213.85
374.41	2273.25
374.62	2129.89
374.84	2176.99
375.05	2125.79
375.27	2195.42
375.48	2160.61
375.70	2150.37
375.91	2129.89
376.12	2256.86
376.34	2123.74
376.55	2209.76
376.77	2166.75
376.98	2172.89
377.19	2140.13
377.41	2189.28
377.62	2185.18
377.84	2236.38
378.05	2303.96
378.27	2240.48
378.48	2279.39
378.69	2387.93
378.91	2267.10
379.12	2209.76
379.34	2236.38
379.55	2263.01
379.76	2222.05
379.98	2228.19
380.19	2277.34
380.41	2246.62
380.62	2363.36
380.83	2224.09
381.05	2230.24
381.26	2406.36
381.47	2203.61
381.69	2306.01
381.90	2404.32
382.12	2303.96
382.33	2273.25
382.54	2371.55
382.76	2338.78
382.97	2316.25
383.19	2209.76
383.40	2404.32
383.61	2299.87
383.83	2232.29
384.04	2355.16
384.25	2359.26
384.47	2349.02
384.68	2267.10
384.89	2301.92
385.11	2312.16
385.32	2346.97
385.54	2301.92
385.75	2426.84
385.96	2340.83
386.18	2389.98
386.39	2467.80
386.60	2422.75
386.82	2443.23
387.03	2404.32
387.24	2519.00
387.46	2389.98
387.67	2541.53
387.88	2576.34
388.10	2500.57
388.31	2523.10
388.52	2510.81
388.74	2566.10
388.95	2498.52
389.16	2484.19
389.38	2430.94
389.59	2531.29
389.80	2607.06
390.02	2600.92
390.23	2660.31
390.44	2519.00
390.66	2600.92
390.87	2432.99
391.08	2586.58
391.30	2613.21
391.51	2639.83
391.72	2666.46
391.94	2615.26
392.15	2580.44
392.36	2650.07
392.58	2572.25
392.79	2658.26
393.00	2613.21
393.22	2680.79
393.43	2779.09
393.64	2727.89
393.85	2807.77
394.07	2707.41
394.28	2779.09
394.49	2758.61
394.71	2797.53
394.92	2926.55
395.13	2777.05
395.35	2662.36
395.56	2670.55
395.77	2719.70
395.98	2760.66
396.20	2826.20
396.41	2889.68
396.62	2891.73
396.84	2844.63
397.05	2662.36
397.26	2805.72
397.47	2942.93
397.69	2801.62
397.90	3100.62
398.11	2973.65
398.32	2826.20
398.54	2908.12
398.75	2826.20
398.96	2944.98
399.18	3012.56
399.39	2942.93
399.60	3043.28
399.81	2924.50
400.03	2955.22
400.24	3198.93
400.45	2965.46
400.66	3127.25
400.88	2977.75
401.09	3198.93
401.30	3028.95
401.51	3061.71
401.73	3141.58
401.94	3178.45
402.15	3160.02
402.36	2996.18
402.58	3061.71
402.79	3221.45
403.00	3133.39
403.21	3190.74
403.43	3246.03
403.64	3282.89
403.85	3143.63
404.06	3252.17
404.27	3055.57
404.49	3141.58
404.70	3198.93
404.91	3348.43
405.12	3309.52
405.34	3198.93
405.55	3385.29
405.76	3051.47
405.97	3223.50
406.19	3366.86
406.40	3176.40
406.61	3309.52
406.82	3321.81
407.03	3317.71
407.25	3264.46
407.46	3332.05
407.67	3330.00
407.88	3561.42
408.09	3280.85
408.31	3262.41
408.52	3289.04
408.73	3391.44
408.94	3284.94
409.15	3477.45
409.37	3557.32
409.58	3608.52
409.79	3424.20
410.00	3567.56
410.21	3403.72
410.43	3520.46
410.64	3375.05
410.85	3491.79
411.06	3456.97
411.27	3657.67
411.48	3686.34
411.70	3549.13
411.91	3602.38
412.12	3641.29
412.33	3502.03
412.54	3567.56
412.76	3708.87
412.97	3571.66
413.18	3557.32
413.39	3649.48
413.60	3645.38
413.81	3622.86
414.03	3661.77
414.24	3688.39
414.45	3755.97
414.66	3649.48
414.87	3737.54
415.08	3729.35
415.30	3682.25
415.51	3700.68
415.72	3706.82
415.93	3786.69
416.14	3753.93
416.35	3833.80
416.56	3655.62
416.78	3778.50
416.99	3966.92
417.20	3891.14
417.41	3889.09
417.62	3938.24
417.83	3930.05
418.04	3839.94
418.26	3975.11
418.47	3954.63
418.68	4003.78
418.89	3923.91
419.10	4085.70
419.31	4036.55
419.52	4007.87
419.73	4024.26
419.95	4040.64
420.16	3975.11
420.37	3999.68
420.58	4149.18
420.79	3798.98
421.00	4001.73
421.21	4212.67
421.42	4106.18
421.63	4136.90
421.85	4130.75
422.06	4296.64
422.27	4114.37
422.48	4159.42
422.69	4194.24
422.90	4259.78
423.11	4212.67
423.32	4317.12
423.53	4345.79
423.75	4425.66
423.96	4470.72
424.17	4388.80
424.38	4614.07
424.59	4564.92
424.80	4671.42
425.01	4603.83
425.22	4431.80
425.43	4419.52
425.64	4609.98
425.85	4573.11
426.06	4476.86
426.28	4425.66
426.49	4450.24
426.70	4558.78
426.91	4505.53
427.12	4616.12
427.33	4587.45
427.54	4569.02
427.75	4710.33
427.96	4794.29
428.17	4810.68
428.38	4792.25
428.59	4917.17
428.80	4763.58
429.01	4845.49
429.23	4986.80
429.44	4962.23
429.65	5031.86
429.86	4947.89
430.07	4927.41
430.28	4827.06
430.49	5048.24
430.70	5136.31
430.91	4999.09
431.12	5070.77
431.33	5238.70
431.54	5095.35
431.75	5150.64
431.96	5296.05
432.17	5132.21
432.38	5218.22
432.59	5257.14
432.80	5246.90
433.01	5224.37
433.22	5261.23
433.43	5324.72
433.64	5255.09
433.85	5191.60
434.06	5324.72
434.27	5334.96
434.49	5416.88
434.70	5455.79
434.91	5466.03
435.12	5443.50
435.33	5500.84
435.54	5396.40
435.75	5337.01
435.96	5468.08
436.17	5539.76
436.38	5595.05
436.59	5523.37
436.80	5443.50
437.01	5789.61
437.22	5713.83
437.43	5605.29
437.64	5504.94
437.85	5705.64
438.06	5738.41
438.27	5679.02
438.48	5582.76
438.69	5705.64
438.90	5846.95
439.11	5932.97
439.32	5939.11
439.53	5908.39
439.74	5865.38
439.95	5906.34
440.16	5902.25
440.37	5816.23
440.57	5840.81
440.78	5990.31
440.99	6041.51
441.20	6090.66
441.41	5873.57
441.62	5855.14
441.83	5660.59
442.04	6098.85
442.25	6115.23
442.46	5849.00
442.67	6180.77
442.88	6455.20
443.09	6152.10
443.30	6053.80
443.51	6045.60
443.72	6518.68
443.93	6176.67
444.14	6453.15
444.35	6043.56
444.56	6432.67
444.77	6293.41
444.98	6453.15
445.19	6317.98
445.40	6393.76
445.61	6346.66
445.81	6453.15
446.02	6479.77
446.23	6455.20
446.44	6305.70
446.65	6487.96
446.86	6508.44
447.07	6541.21
447.28	6729.63
447.49	6778.78
447.70	6541.21
447.91	6719.39
448.12	6662.04
448.33	6729.63
448.54	6768.54
448.74	6807.45
448.95	6725.53
449.16	6746.01
449.37	7038.87
449.58	6770.58
449.79	6965.14
450.00	6477.73
450.21	7014.29
450.42	7034.77
450.63	6967.19
450.84	6987.67
451.05	7100.31
451.25	6997.91
451.46	6987.67
451.67	7133.08
451.88	7180.18
452.09	7212.95
452.30	7088.02
452.51	7030.68
452.72	7352.21
452.93	7458.70
453.13	7116.69
453.34	7208.85
453.55	7339.92
453.76	7270.29
453.97	7450.51
454.18	7516.05
454.39	7499.66
454.60	7468.94
454.81	7595.92
455.01	7767.95
455.22	7374.74
455.43	7729.03
455.64	7696.27
455.85	7993.22
456.06	8206.21
456.27	7886.73
456.48	7837.58
456.68	7780.23
456.89	7712.65
457.10	8034.18
457.31	7944.07
457.52	7858.06
457.73	7901.06
457.94	8390.53
458.14	8097.67
458.35	8404.86
458.56	8030.09
458.77	8062.85
458.98	8173.44
459.19	8304.51
459.39	8324.99
459.60	8445.82
459.81	8286.08
460.02	8519.55
460.23	8546.17
460.44	8703.87
460.65	8746.87
460.85	8822.65
461.06	8781.69
461.27	8523.65
461.48	9103.22
461.69	8939.38
461.89	8703.87
462.10	8839.03
462.31	8828.79
462.52	8834.94
462.73	9002.87
462.94	9191.28
463.14	9205.62
463.35	9193.33
463.56	9566.06
463.77	9424.75
463.98	9277.30
464.18	9238.39
464.39	9512.81
464.60	9592.69
464.81	9340.79
465.02	9498.48
465.23	9766.76
465.43	9815.91
465.64	10043.24
465.85	10012.52
466.06	9705.32
466.27	10039.14
466.47	10049.38
466.68	10047.33
466.89	9989.99
467.10	10082.15
467.30	9979.75
467.51	10225.51
467.72	10415.97
467.93	10207.08
468.14	10368.87
468.34	10432.35
468.55	10674.01
468.76	10446.69
468.97	10495.84
469.17	10817.37
469.38	10762.08
469.59	10760.03
469.80	10680.16
470.01	10682.20
470.21	10999.64
470.42	11079.51
470.63	11253.59
470.84	11013.98
471.04	10985.30
471.25	11315.03
471.46	11112.28
471.67	11267.92
471.87	11638.61
472.08	11603.79
472.29	11652.94
472.50	11423.57
472.70	11597.65
472.91	11640.65
473.12	11917.13
473.33	11992.90
473.53	12109.64
473.74	11945.80
473.95	12175.17
474.16	12283.72
474.36	12138.31
474.57	12560.19
474.78	12515.14
474.99	12570.43
475.19	12465.99
475.40	12848.96
475.61	12801.85
475.81	12965.69
476.02	13256.50
476.23	12908.35
476.44	13229.88
476.64	13315.89
476.85	13496.11
477.06	13453.11
477.27	13537.07
477.47	13686.58
477.68	13731.63
477.89	13934.38
478.09	13950.76
478.30	13840.17
478.51	13911.85
478.71	14280.49
478.92	14274.34
479.13	14348.07
479.34	14585.63
479.54	14571.30
479.75	14702.37
479.96	14724.90
480.16	14794.53
480.37	14774.05
480.58	14872.35
480.78	14989.08
480.99	15247.13
481.20	15494.93
481.41	15351.57
481.61	15347.48
481.82	15451.92
482.03	15499.03
482.23	15429.40
482.44	15861.52
482.65	16062.22
482.85	16101.13
483.06	15820.56
483.27	16170.76
483.47	16283.40
483.68	16246.54
483.89	16269.06
484.09	16375.56
484.30	16619.27
484.51	16934.65
484.71	16572.16
484.92	16817.92
485.13	16893.69
485.33	16865.02
485.54	16955.13
485.75	17264.38
485.95	17342.20
486.16	17475.32
486.37	17587.96
486.57	17450.74
486.78	17389.30
486.98	17741.55
487.19	17729.27
487.40	17645.30
487.60	17929.97
487.81	18267.88
488.02	18130.67
488.22	18069.23
488.43	18331.37
488.64	18507.49
488.84	18738.91
489.05	18738.91
489.25	18484.97
489.46	18890.46
489.67	19007.20
489.87	18921.18
490.08	18941.66
490.29	19158.75
490.49	19719.89
490.70	19437.27
490.90	19422.94
491.11	19408.60
491.32	19773.14
491.52	19969.74
491.73	19928.78
491.94	19998.41
492.14	19619.54
492.35	20360.91
492.55	20072.14
492.76	20377.29
492.97	20487.88
493.17	20551.37
493.38	20569.80
493.58	20811.46
493.79	20756.16
494.00	20651.72
494.20	20721.35
494.41	20803.27
494.61	20971.20
494.82	21335.74
495.02	20975.30
495.23	21409.47
495.44	21632.69
495.64	21532.34
495.85	21413.56
496.05	21681.85
496.26	21614.26
496.47	21929.65
496.67	21761.72
496.88	22140.59
497.08	21860.02
497.29	22054.58
497.49	22161.07
497.70	22523.56
497.91	22548.14
498.11	22329.00
498.32	22675.11
498.52	22615.72
498.73	23334.56
498.93	22695.59
499.14	22781.60
499.34	22941.35
499.55	23631.51
499.76	23066.27
499.96	23207.58
500.17	23303.84
500.37	23471.77
500.58	23492.25
500.78	23439.00
500.99	23725.72
501.19	23789.20
501.40	23656.09
501.60	23725.72
501.81	23658.14
502.02	24055.44
502.22	23873.17
502.43	23975.57
502.63	24280.72
502.84	24284.81
503.04	24374.92
503.25	24333.96
503.45	24462.99
503.66	24530.57
503.86	24682.12
504.07	24780.42
504.27	24868.48
504.48	25038.47
504.68	24960.64
504.89	25036.42
505.09	25206.40
505.30	25101.95
505.50	25355.90
505.71	25556.60
505.91	25376.38
506.12	25081.47
506.32	24913.54
506.53	25304.70
506.73	25642.62
506.94	25802.36
507.14	25306.75
507.35	25613.95
507.55	25622.14
507.76	25589.37
507.96	25587.32
508.17	25767.54
508.37	26050.16
508.58	25736.82
508.78	26398.32
508.99	26175.09
509.19	26261.10
509.40	26142.32
509.60	26021.49
509.81	26418.80
510.01	26386.03
510.22	26404.46
510.42	26695.27
510.63	26709.61
510.83	26535.53
511.04	26492.52
511.24	26971.75
511.44	26869.35
511.65	26797.67
511.85	26904.17
512.06	27031.14
512.26	26713.70
512.47	27008.61
512.67	27010.66
512.88	27285.09
513.08	26949.22
513.29	27336.29
513.49	27143.78
513.69	27088.48
513.90	27352.67
514.10	27170.40
514.31	27344.48
514.51	27504.22
514.72	27500.12
514.92	27395.68
515.13	27735.64
515.33	27655.77
515.53	27872.85
515.74	27981.40
515.94	27868.76
516.15	27985.49
516.35	27860.57
516.56	28085.84
516.76	27817.56
516.96	28061.27
517.17	28182.10
517.37	28120.66
517.58	28134.99
517.78	28149.33
517.99	28294.74
518.19	28464.72
518.39	28616.27
518.60	28534.35
518.80	28728.91
519.01	28634.70
519.21	28577.36
519.41	28956.23
519.62	28845.64
519.82	28698.19
520.03	29212.23
520.23	29019.72
520.43	28839.50
520.64	29429.31
520.84	29597.24
521.05	29509.18
521.25	29331.01
521.45	29650.49
521.66	29318.72
521.86	29439.55
522.07	29218.37
522.27	30043.70
522.47	29601.34
522.68	30160.44
522.88	29898.30
523.08	30359.09
523.29	29707.83
523.49	30135.86
523.70	30148.15
523.90	30354.99
524.10	30260.79
524.31	30516.78
524.51	30602.80
524.71	30783.02
524.92	30645.80
525.12	30862.89
525.33	31127.08
525.53	31110.69
525.73	31215.14
525.94	31301.15
526.14	30744.11
526.34	31331.87
526.55	31389.22
526.75	31225.38
526.95	31497.76
527.16	31516.19
527.36	31774.24
527.56	31659.55
527.77	31823.39
527.97	32032.28
528.17	31645.21
528.38	31819.29
528.58	32183.83
528.78	31790.62
528.99	32153.11
529.19	32556.56
529.39	32226.84
529.60	32337.43
529.80	32484.88
530.00	32329.23
530.21	32763.40
530.41	32929.29
530.61	33013.26
530.82	32740.88
531.02	33166.85
531.22	33478.15
531.43	33156.61
531.63	33281.54
531.83	33467.91
532.04	33826.30
532.24	33625.60
532.44	33848.83
532.64	33865.21
532.85	34027.00
533.05	34117.11
533.25	34008.57
533.46	33930.75
533.66	34557.42
533.86	34291.19
534.07	34952.68
534.27	34317.81
534.47	34821.61
534.67	34526.71
534.88	34682.35
535.08	34733.55
535.28	34876.91
535.49	35259.88
535.69	35595.74
535.89	35495.39
536.09	35442.15
536.30	35757.53
536.50	35505.63
536.70	35808.73
536.91	35966.43
537.11	35866.08
537.31	35929.56
537.51	36183.51
537.72	36322.77
537.92	36357.59
538.12	36744.66
538.32	36324.82
538.53	36740.56
538.73	36464.08
538.93	36586.96
539.13	36816.33
539.34	36584.91
539.54	36902.35
539.74	37154.25
539.94	37053.90
540.15	37146.06
540.35	37299.65
540.55	37367.24
540.75	37680.58
540.96	37500.36
541.16	37457.35
541.36	37459.40
541.56	37981.63
541.77	38157.75
541.97	37709.25
542.17	38270.39
542.37	38581.68
542.58	38241.72
542.78	37912.00
542.98	38079.93
543.18	38516.15
543.38	38761.90
543.59	38915.50
543.79	38335.93
543.99	38475.19
544.19	38651.31
544.40	38739.38
544.60	39189.93
544.80	38854.06
545.00	38647.22
545.20	39220.65
545.41	39185.83
545.61	39024.04
545.81	39531.94
546.01	39869.86
546.21	39237.03
546.42	39359.91
546.62	39656.87
546.82	39466.41
547.02	39828.90
547.22	39835.04
547.43	39718.31
547.63	39970.21
547.83	40066.46
548.03	39404.97
548.23	39966.11
548.44	39996.83
548.64	40252.83
548.84	40154.52
549.04	40265.11
549.24	40379.80
549.45	40816.02
549.65	40371.61
549.85	40709.52
550.05	40600.98
550.25	40588.69
550.45	41141.64
550.66	40918.42
550.86	40826.26
551.06	41115.02
551.26	40959.38
551.46	41184.65
551.66	41110.92
551.87	41184.65
552.07	41436.55
552.27	41676.16
552.47	41614.72
552.67	41475.46
552.87	41762.18
553.07	41407.88
553.28	41676.16
553.48	41743.75
553.68	41805.19
553.88	42026.37
554.08	41899.39
554.28	41721.22
554.48	41502.09
554.69	41952.64
554.89	42093.95
555.09	42255.74
555.29	41866.63
555.49	41983.36
555.69	42005.89
555.89	42216.83
556.10	42263.93
556.30	42302.84
556.50	42521.98
556.70	42331.51
556.90	42370.43
557.10	42511.74
557.30	42096.00
557.50	42495.35
557.70	42923.38
557.91	43031.92
558.11	43136.37
558.31	43162.99
558.51	42620.28
558.71	42784.12
558.91	42691.96
559.11	42657.14
559.31	42612.09
559.51	42415.48
559.72	43095.41
559.92	43410.79
560.12	42845.55
560.32	43244.91
560.52	42694.00
560.72	43308.40
560.92	43085.17
561.12	43144.56
561.32	44023.14
561.52	43040.11
561.72	43425.13
561.93	43380.07
562.13	43236.72
562.33	43435.37
562.53	43914.59
562.73	43150.70
562.93	43767.14
563.13	43791.72
563.33	43545.96
563.53	44182.88
563.73	43648.36
563.93	43472.23
564.13	43965.79
564.33	43494.76
564.53	43464.04
564.74	43961.70
564.94	43742.56
565.14	43980.13
565.34	44051.81
565.54	44307.80
565.74	44297.56
565.94	44690.77
566.14	44023.14
566.34	44092.77
566.54	44326.24
566.74	44301.66
566.94	44555.61
567.14	44318.04
567.34	44180.83
567.54	44533.08
567.74	44850.52
567.94	44135.77
568.14	44528.98
568.34	44598.62
568.54	44641.62
568.74	44508.50
568.94	44496.22
569.14	44975.44
569.34	45098.32
569.54	44234.08
569.75	44418.39
569.95	44590.42
570.15	45065.55
570.35	44850.52
570.55	44989.78
570.75	44795.22
570.95	44475.74
571.15	45012.31
571.35	44764.50
571.55	45471.05
571.75	45151.57
571.95	45561.16
572.15	45032.78
572.35	45505.87
572.55	44957.01
572.75	45200.72
572.95	45143.38
573.15	45233.49
573.35	45587.78
573.55	45219.15
573.75	45499.72
573.95	45448.52
574.15	45796.68
574.35	45565.26
574.55	45595.98
574.75	45301.07
574.95	45679.94
575.15	45655.37
575.34	45681.99
575.54	45823.30
575.74	46064.96
575.94	45600.07
576.14	45862.21
576.34	46243.13
576.54	46200.13
576.74	46048.58
576.94	46249.28
577.14	46048.58
577.34	46484.79
577.54	45790.53
577.74	46095.68
577.94	46531.90
578.14	46456.12
578.34	46443.84
578.54	46165.31
578.74	46550.33
578.94	46603.58
579.14	46347.58
579.34	46669.11
579.54	46826.81
579.74	46826.81
579.94	46497.08
580.13	46929.20
580.33	47066.42
580.53	46853.43
580.73	47148.34
580.93	46767.41
581.13	47289.65
581.33	47422.76
581.53	47390.00
581.73	47090.99
581.93	47215.92
582.13	47463.72
582.33	47467.82
582.53	47019.31
582.73	47349.04
582.92	47453.48
583.12	47658.28
583.32	47697.19
583.52	47557.93
583.72	47512.88
583.92	47625.51
584.12	47777.06
584.32	48223.52
584.52	47770.92
584.72	47988.00
584.92	48127.27
585.11	48235.81
585.31	48155.94
585.51	48235.81
585.71	47852.84
585.91	48362.78
586.11	48094.50
586.31	48284.96
586.51	48002.34
586.71	47973.67
586.91	48461.08
587.10	48284.96
587.30	48543.00
587.50	48426.27
587.70	48469.28
587.90	48698.65
588.10	48917.78
588.30	48637.21
588.50	48866.58
