SpectraSuite Data File
++++++++++++++++++++++++++++++++++++
Date: Fri Jun 02 14:47:58 CEST 2017
User: INFO_000
Dark Spectrum Present: No
Reference Spectrum Present: No
Number of Sampled Component Spectra: 1
Spectrometers: USB4H00879
Integration Time (usec): 80000 (USB4H00879)
Spectra Averaged: 1 (USB4H00879)
Boxcar Smoothing: 0 (USB4H00879)
Correct for Electrical Dark: No (USB4H00879)
Strobe/Lamp Enabled: No (USB4H00879)
Correct for Detector Non-linearity: No (USB4H00879)
Correct for Stray Light: No (USB4H00879)
Number of Pixels in Processed Spectrum: 3648
>>>>>Begin Processed Spectral Data<<<<<
345.13	1325.04
345.34	1325.04
345.56	1325.04
345.78	1249.26
345.99	1294.32
346.21	1751.01
346.42	1626.09
346.64	1632.23
346.86	1716.20
347.07	1695.72
347.29	1728.49
347.50	1650.66
347.72	1654.76
347.94	1736.68
348.15	1605.61
348.37	1658.85
348.59	1656.81
348.80	1632.23
349.02	1810.40
349.23	1869.80
349.45	1761.25
349.67	1892.32
349.88	1851.36
350.10	1959.91
350.31	1834.98
350.53	1828.84
350.75	1945.57
350.96	1757.16
351.18	1884.13
351.39	1906.66
351.61	1751.01
351.82	1929.19
352.04	1863.65
352.26	1845.22
352.47	1855.46
352.69	1900.52
352.90	1738.73
353.12	1855.46
353.34	1824.74
353.55	1861.60
353.77	1830.88
353.98	1855.46
354.20	1886.18
354.41	1929.19
354.63	1955.81
354.85	2068.45
355.06	1865.70
355.28	1761.25
355.49	1916.90
355.71	1861.60
355.92	1908.71
356.14	1931.23
356.35	1908.71
356.57	1890.28
356.79	1906.66
357.00	1849.32
357.22	1984.48
357.43	1908.71
357.65	1949.67
357.86	1748.97
358.08	1935.33
358.29	1904.61
358.51	1966.05
358.72	1949.67
358.94	1894.37
359.16	1910.75
359.37	1908.71
359.59	1949.67
359.80	2023.39
360.02	1914.85
360.23	1970.15
360.45	2031.58
360.66	1968.10
360.88	1845.22
361.09	1906.66
361.31	1974.24
361.52	1935.33
361.74	2052.06
361.95	2095.07
362.17	1894.37
362.38	2015.20
362.60	2002.91
362.81	2011.11
363.03	1920.99
363.24	1941.47
363.46	2058.21
363.67	2070.50
363.89	1972.19
364.10	2017.25
364.32	1970.15
364.53	2009.06
364.75	1988.58
364.96	1957.86
365.18	1992.67
365.39	2004.96
365.61	1961.95
365.82	2086.88
366.04	2031.58
366.25	1953.76
366.47	2058.21
366.68	2025.44
366.90	2019.30
367.11	2060.26
367.33	2117.60
367.54	2097.12
367.76	1992.67
367.97	2023.39
368.19	2062.30
368.40	2084.83
368.62	1986.53
368.83	2004.96
369.05	2101.22
369.26	1943.52
369.48	1974.24
369.69	1945.57
369.91	1990.63
370.12	2066.40
370.33	1972.19
370.55	2007.01
370.76	2052.06
370.98	2072.54
371.19	2056.16
371.41	2023.39
371.62	2013.15
371.84	2064.35
372.05	2146.27
372.27	2021.35
372.48	1968.10
372.69	2103.26
372.91	2142.18
373.12	2117.60
373.34	2060.26
373.55	2133.98
373.77	2117.60
373.98	2054.11
374.20	2174.94
374.41	2293.72
374.62	2150.37
374.84	2125.79
375.05	2195.42
375.27	2095.07
375.48	2240.48
375.70	2199.52
375.91	2215.90
376.12	2306.01
376.34	2183.13
376.55	2138.08
376.77	2207.71
376.98	2097.12
377.19	2109.41
377.41	2246.62
377.62	2224.09
377.84	2142.18
378.05	2297.82
378.27	2193.37
378.48	2303.96
378.69	2383.84
378.91	2271.20
379.12	2224.09
379.34	2248.67
379.55	2256.86
379.76	2322.40
379.98	2260.96
380.19	2285.53
380.41	2277.34
380.62	2211.81
380.83	2248.67
381.05	2189.28
381.26	2387.93
381.47	2224.09
381.69	2203.61
381.90	2369.50
382.12	2353.12
382.33	2334.68
382.54	2256.86
382.76	2220.00
382.97	2330.59
383.19	2287.58
383.40	2447.32
383.61	2281.44
383.83	2242.53
384.04	2285.53
384.25	2344.92
384.47	2432.99
384.68	2293.72
384.89	2248.67
385.11	2201.57
385.32	2363.36
385.54	2349.02
385.75	2312.16
385.96	2465.75
386.18	2344.92
386.39	2447.32
386.60	2328.54
386.82	2402.27
387.03	2414.56
387.24	2490.33
387.46	2457.56
387.67	2389.98
387.88	2531.29
388.10	2363.36
388.31	2488.28
388.52	2617.30
388.74	2512.86
388.95	2559.96
389.16	2590.68
389.38	2459.61
389.59	2508.76
389.80	2625.50
390.02	2541.53
390.23	2615.26
390.44	2588.63
390.66	2568.15
390.87	2498.52
391.08	2535.39
391.30	2779.09
391.51	2557.91
391.72	2596.82
391.94	2578.39
392.15	2570.20
392.36	2568.15
392.58	2562.01
392.79	2609.11
393.00	2648.02
393.22	2740.18
393.43	2826.20
393.64	2695.13
393.85	2861.01
394.07	2619.35
394.28	2666.46
394.49	2756.57
394.71	2748.37
394.92	2789.33
395.13	2633.69
395.35	2719.70
395.56	2738.13
395.77	2797.53
395.98	2766.81
396.20	2775.00
396.41	2842.58
396.62	2842.58
396.84	2775.00
397.05	2818.00
397.26	2762.71
397.47	3002.32
397.69	2858.96
397.90	3106.77
398.11	2914.26
398.32	2940.88
398.54	2901.97
398.75	2893.78
398.96	2973.65
399.18	2990.03
399.39	2879.44
399.60	3112.91
399.81	3035.09
400.03	2965.46
400.24	3223.50
400.45	3002.32
400.66	3084.24
400.88	2973.65
401.09	3293.13
401.30	3067.86
401.51	3088.34
401.73	3086.29
401.94	3108.82
402.15	3143.63
402.36	3127.25
402.58	3139.54
402.79	3129.30
403.00	3200.98
403.21	3254.22
403.43	3143.63
403.64	3190.74
403.85	3139.54
404.06	3211.22
404.27	3184.59
404.49	3215.31
404.70	3321.81
404.91	3397.58
405.12	3295.18
405.34	3241.93
405.55	3416.01
405.76	3155.92
405.97	3256.27
406.19	3434.44
406.40	3172.30
406.61	3307.47
406.82	3399.63
407.03	3284.94
407.25	3289.04
407.46	3407.82
407.67	3379.15
407.88	3510.22
408.09	3315.66
408.31	3385.29
408.52	3323.85
408.73	3327.95
408.94	3368.91
409.15	3477.45
409.37	3493.83
409.58	3420.11
409.79	3418.06
410.00	3553.23
410.21	3360.72
410.43	3407.82
410.64	3391.44
410.85	3471.31
411.06	3569.61
411.27	3657.67
411.48	3676.10
411.70	3497.93
411.91	3669.96
412.12	3633.10
412.33	3665.86
412.54	3620.81
412.76	3635.14
412.97	3614.66
413.18	3538.89
413.39	3577.80
413.60	3553.23
413.81	3739.59
414.03	3583.95
414.24	3618.76
414.45	3801.03
414.66	3545.03
414.87	3719.11
415.08	3657.67
415.30	3704.78
415.51	3647.43
415.72	3665.86
415.93	3626.95
416.14	3839.94
416.35	3780.55
416.56	3715.02
416.78	3803.08
416.99	3841.99
417.20	3819.46
417.41	3919.81
417.62	3925.96
417.83	3872.71
418.04	3745.73
418.26	3796.93
418.47	3899.33
418.68	3923.91
418.89	3852.23
419.10	4175.81
419.31	3944.39
419.52	3973.06
419.73	3942.34
419.95	4067.27
420.16	4003.78
420.37	3946.44
420.58	3985.35
420.79	3856.33
421.00	4126.66
421.21	4036.55
421.42	4050.88
421.63	4057.03
421.85	4126.66
422.06	4177.86
422.27	4171.71
422.48	4093.89
422.69	4134.85
422.90	4315.07
423.11	4233.15
423.32	4198.34
423.53	4214.72
423.75	4265.92
423.96	4382.65
424.17	4292.54
424.38	4503.48
424.59	4401.08
424.80	4495.29
425.01	4370.37
425.22	4394.94
425.43	4407.23
425.64	4620.22
425.85	4532.15
426.06	4577.21
426.28	4483.00
426.49	4474.81
426.70	4452.28
426.91	4624.31
427.12	4640.70
427.33	4640.70
427.54	4528.06
427.75	4675.51
427.96	4831.16
428.17	4876.21
428.38	4739.00
428.59	4839.35
428.80	4681.66
429.01	4933.56
429.23	4753.34
429.44	5011.38
429.65	4870.07
429.86	4833.21
430.07	4777.91
430.28	4782.01
430.49	4943.80
430.70	5107.63
430.91	5113.78
431.12	4915.12
431.33	5033.91
431.54	5074.87
431.75	5148.59
431.96	5134.26
432.17	5072.82
432.38	5171.12
432.59	5195.70
432.80	5332.91
433.01	5298.10
433.22	5425.07
433.43	5140.40
433.64	5201.84
433.85	5255.09
434.06	5410.73
434.27	5326.77
434.49	5398.45
434.70	5572.52
434.91	5267.38
435.12	5601.19
435.33	5410.73
435.54	5394.35
435.75	5371.82
435.96	5466.03
436.17	5515.18
436.38	5726.12
436.59	5595.05
436.80	5660.59
437.01	5816.23
437.22	5805.99
437.43	5617.58
437.64	5482.41
437.85	5705.64
438.06	5732.26
438.27	5615.53
438.48	5679.02
438.69	5803.94
438.90	5760.94
439.11	5629.87
439.32	5912.49
439.53	5779.37
439.74	5869.48
439.95	5838.76
440.16	5820.33
440.37	5844.90
440.57	5748.65
440.78	6018.98
440.99	6057.89
441.20	5832.62
441.41	5785.51
441.62	5990.31
441.83	5844.90
442.04	6102.95
442.25	6018.98
442.46	5924.77
442.67	6100.90
442.88	6342.56
443.09	6006.69
443.30	6070.18
443.51	6074.28
443.72	6301.60
443.93	6086.56
444.14	6451.10
444.35	5998.50
444.56	6381.47
444.77	6270.88
444.98	6369.18
445.19	6440.86
445.40	6383.52
445.61	6447.01
445.81	6447.01
446.02	6598.56
446.23	6408.09
446.44	6258.59
446.65	6418.33
446.86	6414.24
447.07	6485.92
447.28	6516.64
447.49	6533.02
447.70	6498.20
447.91	6647.71
448.12	6444.96
448.33	6825.88
448.54	6662.04
448.74	6428.57
448.95	6692.76
449.16	6631.32
449.37	6932.37
449.58	6686.62
449.79	7098.26
450.00	6635.42
450.21	6928.28
450.42	6975.38
450.63	6901.65
450.84	6838.17
451.05	6805.40
451.25	7047.06
451.46	6866.84
451.67	6973.33
451.88	7024.53
452.09	7042.96
452.30	7102.36
452.51	7002.01
452.72	7225.23
452.93	7399.31
453.13	7036.82
453.34	6981.53
453.55	7227.28
453.76	7200.66
453.97	7589.77
454.18	7341.97
454.39	7552.91
454.60	7376.78
454.81	7331.73
455.01	7550.86
455.22	7282.58
455.43	7425.93
455.64	7593.87
455.85	7788.43
456.06	7716.75
456.27	7557.00
456.48	7647.12
456.68	7743.37
456.89	7647.12
457.10	7747.47
457.31	7755.66
457.52	7880.58
457.73	7851.91
457.94	8243.07
458.14	7876.49
458.35	8193.92
458.56	8048.52
458.77	8081.28
458.98	8279.94
459.19	8255.36
459.39	8183.68
459.60	8355.71
459.81	8497.02
460.02	8537.98
460.23	8425.34
460.44	8644.48
460.65	8589.18
460.85	8560.51
461.06	8605.56
461.27	8329.09
461.48	8634.24
461.69	9031.54
461.89	8585.08
462.10	8834.94
462.31	8640.38
462.52	8802.17
462.73	8746.87
462.94	9160.56
463.14	9017.21
463.35	9109.36
463.56	9469.81
463.77	9398.13
463.98	9138.04
464.18	9049.97
464.39	9318.26
464.60	9600.88
464.81	9566.06
465.02	9523.05
465.23	9664.36
465.43	9416.56
465.64	9766.76
465.85	9768.81
466.06	9654.12
466.27	10006.38
466.47	9860.97
466.68	10039.14
466.89	10028.90
467.10	9981.80
467.30	9951.08
467.51	10108.77
467.72	10434.40
467.93	10166.12
468.14	10444.64
468.34	10405.73
468.55	10420.06
468.76	10497.89
468.97	10465.12
469.17	10696.54
469.38	10884.95
469.59	10938.20
469.80	10749.79
470.01	10727.26
470.21	10993.50
470.42	11198.29
470.63	11345.75
470.84	11224.92
471.04	11229.01
471.25	11382.61
471.46	11210.58
471.67	11599.70
471.87	11497.30
472.08	11644.75
472.29	11759.44
472.50	11552.59
472.70	11568.98
472.91	11611.98
473.12	11951.95
473.33	12062.54
473.53	12191.56
473.74	11956.04
473.95	12164.93
474.16	12300.10
474.36	12484.42
474.57	12535.62
474.78	12744.51
474.99	12560.19
475.19	12672.83
475.40	12957.50
475.61	13012.79
475.81	13031.23
476.02	13197.11
476.23	13125.43
476.44	13377.33
476.64	13543.22
476.85	13430.58
477.06	13324.08
477.27	13711.15
477.47	13731.63
477.68	13559.60
477.89	14090.02
478.09	14167.85
478.30	13995.82
478.51	14135.08
478.71	14100.26
478.92	14114.60
479.13	14489.38
479.34	14634.78
479.54	14677.79
479.75	14483.24
479.96	14677.79
480.16	15073.05
480.37	14892.83
480.58	14989.08
480.78	14929.69
480.99	14954.27
481.20	15302.42
481.41	15294.23
481.61	15595.28
481.82	15480.60
482.03	15499.03
482.23	15367.96
482.44	15800.08
482.65	15982.35
482.85	15927.05
483.06	15806.22
483.27	16258.82
483.47	16133.90
483.68	16244.49
483.89	16273.16
484.09	16381.70
484.30	16477.96
484.51	16770.82
484.71	17092.35
484.92	16625.41
485.13	16852.73
485.33	16746.24
485.54	17084.16
485.75	17147.64
485.95	17471.22
486.16	17161.98
486.37	17557.24
486.57	17430.26
486.78	17460.98
486.98	17794.80
487.19	17352.44
487.40	17839.86
487.60	17749.75
487.81	17714.93
488.02	18030.32
488.22	18083.56
488.43	18314.98
488.64	18620.13
488.84	18331.37
489.05	18224.87
489.25	18462.44
489.46	18611.94
489.67	18579.17
489.87	18740.96
490.08	18976.48
490.29	18874.08
490.49	19316.44
490.70	19078.88
490.90	19171.04
491.11	19093.21
491.32	19220.19
491.52	19310.30
491.73	19592.92
491.94	19513.05
492.14	19689.17
492.35	19730.13
492.55	19805.91
492.76	20033.23
492.97	19979.98
493.17	20020.94
493.38	19982.03
493.58	20387.53
493.79	20383.43
494.00	20213.45
494.20	20635.33
494.41	20559.56
494.61	20373.19
494.82	20944.58
495.02	20952.77
495.23	20842.18
495.44	20655.81
495.64	21018.30
495.85	21233.34
496.05	21065.41
496.26	21466.81
496.47	21366.46
496.67	21311.16
496.88	21669.56
497.08	21378.75
497.29	21935.79
497.49	21300.92
497.70	22044.34
497.91	22050.48
498.11	21905.07
498.32	22062.77
498.52	22425.26
498.73	22593.19
498.93	22175.41
499.14	22345.39
499.34	22617.77
499.55	22527.66
499.76	22429.35
499.96	22861.48
500.17	22605.48
500.37	22820.52
500.58	22783.65
500.78	23129.76
500.99	22898.34
501.19	23371.42
501.40	23242.40
501.60	23109.28
501.81	23219.87
502.02	23365.28
502.22	23244.45
502.43	23760.53
502.63	23926.42
502.84	23801.49
503.04	23942.80
503.25	23914.13
503.45	23758.49
503.66	24094.35
503.86	23893.65
504.07	24344.20
504.27	24028.82
504.48	24528.52
504.68	24489.61
504.89	24843.91
505.09	24731.27
505.30	24544.91
505.50	24872.58
505.71	24704.65
505.91	25126.53
506.12	24954.50
506.32	25011.84
506.53	24886.92
506.73	25124.48
506.94	25263.74
507.14	25331.33
507.35	25484.92
507.55	25550.46
507.76	25548.41
507.96	25536.12
508.17	25448.06
508.37	25341.57
508.58	25667.19
508.78	25990.77
508.99	26048.11
509.19	25966.20
509.40	26056.31
509.60	26173.04
509.81	26029.68
510.01	26130.03
510.22	26179.18
510.42	26240.62
510.63	26476.14
510.83	26365.55
511.04	26519.15
511.24	26613.35
511.44	26433.13
511.65	26465.90
511.85	26551.91
512.06	26455.66
512.26	26814.05
512.47	27160.16
512.67	26998.37
512.88	26975.84
513.08	26953.32
513.29	27315.81
513.49	27467.36
513.69	27133.54
513.90	26814.05
514.10	27739.74
514.31	27539.04
514.51	27268.70
514.72	27504.22
514.92	27754.07
515.13	27307.62
515.33	27682.39
515.53	27831.90
515.74	27977.30
515.94	27807.32
516.15	28008.02
516.35	27958.87
516.56	28477.01
516.76	28108.37
516.96	28298.83
517.17	28462.67
517.37	28343.89
517.58	28221.01
517.78	28462.67
517.99	28630.60
518.19	28511.82
518.39	28485.20
518.60	29083.20
518.80	28448.33
519.01	29279.81
519.21	28905.03
519.41	28937.80
519.62	28773.96
519.82	28907.08
520.03	29240.90
520.23	29091.40
520.43	29029.96
520.64	29748.79
520.84	29343.30
521.05	29408.83
521.25	29838.90
521.45	29908.54
521.66	29720.12
521.86	29648.44
522.07	29804.09
522.27	29982.26
522.47	30039.61
522.68	30342.70
522.88	30189.11
523.08	30258.74
523.29	30094.90
523.49	30660.14
523.70	30492.21
523.90	31157.80
524.10	30404.14
524.31	30627.37
524.51	30402.10
524.71	31065.64
524.92	30813.74
525.12	30932.52
525.33	30602.80
525.53	31069.73
525.73	31274.53
525.94	31190.56
526.14	31567.39
526.34	31018.53
526.55	31559.20
526.75	31520.29
526.95	31667.74
527.16	31589.92
527.36	31690.27
527.56	31893.02
527.77	31907.35
527.97	32278.04
528.17	32001.56
528.38	31940.12
528.58	32255.51
528.78	32120.34
528.99	32396.82
529.19	32683.53
529.39	32226.84
529.60	32587.28
529.80	32640.53
530.00	32443.92
530.21	33029.64
530.41	33007.11
530.61	32937.48
530.82	33052.17
531.02	33066.50
531.22	33086.98
531.43	32790.03
531.63	33218.05
531.83	33469.95
532.04	33508.86
532.24	33676.80
532.44	33977.85
532.64	33590.78
532.85	33816.06
533.05	34076.15
533.25	34061.82
533.46	33979.90
533.66	34471.41
533.86	34137.59
534.07	34674.16
534.27	34328.05
534.47	34524.66
534.67	34530.80
534.88	34668.02
535.08	34895.34
535.28	34600.43
535.49	34876.91
535.69	35200.49
535.89	34979.31
536.09	35132.90
536.30	35380.71
536.50	35087.85
536.70	35337.70
536.91	35417.57
537.11	35403.24
537.31	35722.72
537.51	35239.40
537.72	35937.76
537.92	35911.13
538.12	36230.62
538.32	35937.76
538.53	35962.33
538.73	35948.00
538.93	36128.22
539.13	36048.35
539.34	36048.35
539.54	36081.11
539.74	36675.02
539.94	36677.07
540.15	36275.67
540.35	36636.11
540.55	36677.07
540.75	36580.82
540.96	36863.44
541.16	36625.87
541.36	37086.67
541.56	36664.78
541.77	37350.85
541.97	37357.00
542.17	37412.29
542.37	37436.87
542.58	37475.78
542.78	37498.31
542.98	37205.45
543.18	37414.34
543.38	37807.55
543.59	37584.32
543.79	37725.63
543.99	37893.57
544.19	37967.29
544.40	37844.41
544.60	37807.55
544.80	37932.48
545.00	38337.98
545.20	38145.47
545.41	38120.89
545.61	38270.39
545.81	38229.43
546.01	38405.56
546.21	38348.21
546.42	38471.09
546.62	38749.62
546.82	38557.11
547.02	38669.75
547.22	38895.02
547.43	38692.27
547.63	38833.58
547.83	38639.03
548.03	38704.56
548.23	39327.14
548.44	39241.13
548.64	39574.95
548.84	39323.05
549.04	39331.24
549.24	39611.81
549.45	39675.30
549.65	39476.65
549.85	39654.82
550.05	39789.98
550.25	39636.39
550.45	40359.32
550.66	39800.22
550.86	39695.78
551.06	39859.62
551.26	39699.87
551.46	39955.87
551.66	40068.51
551.87	40088.99
552.07	40539.54
552.27	40621.46
552.47	40297.88
552.67	40449.43
552.87	40273.31
553.07	40633.75
553.28	40422.81
553.48	40670.61
553.68	40877.46
553.88	41018.77
554.08	40809.87
554.28	41100.68
554.48	40611.22
554.69	41330.06
554.89	41119.12
555.09	41215.37
555.29	41137.55
555.49	41061.77
555.69	41330.06
555.89	41145.74
556.10	41233.80
556.30	41581.96
556.50	41532.81
556.70	41084.30
556.90	41854.34
557.10	41682.31
557.30	41729.41
557.50	41792.90
557.70	41702.79
557.91	42130.81
558.11	41461.13
558.31	42210.68
558.51	42012.03
558.71	42308.99
558.91	42132.86
559.11	42366.33
559.31	42071.42
559.51	42042.75
559.72	42661.24
559.92	42747.25
560.12	42386.81
560.32	42253.69
560.52	42311.03
560.72	43021.68
560.92	42810.74
561.12	42472.82
561.32	42745.20
561.52	42554.74
561.72	42780.02
561.93	43111.79
562.13	42964.34
562.33	43033.97
562.53	43265.39
562.73	42681.72
562.93	43021.68
563.13	43126.13
563.33	42755.44
563.53	43943.27
563.73	43478.38
563.93	43025.78
564.13	43844.96
564.33	43431.27
564.53	43335.02
564.74	43961.70
564.94	43482.47
565.14	44143.97
565.34	43236.72
565.54	43824.48
565.74	43828.58
565.94	44180.83
566.14	44021.09
566.34	44141.92
566.54	44285.28
566.74	43830.63
566.94	43775.33
567.14	44328.28
567.34	43994.46
567.54	44379.48
567.74	44184.93
567.94	44254.56
568.14	44891.48
568.34	44578.14
568.54	44301.66
568.74	44549.46
568.94	44533.08
569.14	44793.17
569.34	44875.09
569.54	45112.66
569.75	44533.08
569.95	45028.69
570.15	45557.06
570.35	45219.15
570.55	44717.40
570.75	45012.31
570.95	45063.50
571.15	45337.93
571.35	45016.40
571.55	45612.36
571.75	45315.40
571.95	45546.82
572.15	45122.90
572.35	45798.73
572.55	45460.81
572.75	45432.14
572.95	45561.16
573.15	45798.73
573.35	45925.70
573.55	45432.14
573.75	45710.66
573.95	45720.90
574.15	45618.50
574.35	46173.50
574.55	46122.30
574.75	45729.09
574.95	46185.79
575.15	45653.32
575.34	46357.82
575.54	46036.29
575.74	46155.07
575.94	46241.09
576.14	46116.16
576.34	46384.44
576.54	46425.40
576.74	46546.23
576.94	46236.99
577.14	46976.31
577.34	46419.26
577.54	46822.71
577.74	47074.61
577.94	46611.77
578.14	46970.16
578.34	47109.43
578.54	46511.42
578.74	46724.41
578.94	47162.67
579.14	46546.23
579.34	47019.31
579.54	47113.52
579.74	47584.55
579.94	47224.11
580.13	47557.93
580.33	47500.59
580.53	47506.73
580.73	47705.38
580.93	47746.34
581.13	47342.89
581.33	47891.75
581.53	47543.59
581.73	47316.27
581.93	47553.83
582.13	48125.22
582.33	47541.55
582.53	47486.25
582.73	48086.31
582.92	47813.93
583.12	48121.12
583.32	48000.29
583.52	47723.82
583.72	47990.05
583.92	48164.13
584.12	47842.60
584.32	48315.68
584.52	48100.64
584.72	48166.18
584.92	48141.60
585.11	48383.26
585.31	48321.82
585.51	48305.44
585.71	48149.79
585.91	48758.04
586.11	48579.87
586.31	48780.57
586.51	48213.28
586.71	48424.22
586.91	48878.87
587.10	48659.74
587.30	48626.97
587.50	48796.95
587.70	49409.29
587.90	48940.31
588.10	48913.69
588.30	48913.69
588.50	49224.98
