SpectraSuite Data File
++++++++++++++++++++++++++++++++++++
Date: Fri Jun 02 14:47:58 CEST 2017
User: INFO_000
Dark Spectrum Present: No
Reference Spectrum Present: No
Number of Sampled Component Spectra: 1
Spectrometers: USB4H00879
Integration Time (usec): 80000 (USB4H00879)
Spectra Averaged: 1 (USB4H00879)
Boxcar Smoothing: 0 (USB4H00879)
Correct for Electrical Dark: No (USB4H00879)
Strobe/Lamp Enabled: No (USB4H00879)
Correct for Detector Non-linearity: No (USB4H00879)
Correct for Stray Light: No (USB4H00879)
Number of Pixels in Processed Spectrum: 3648
>>>>>Begin Processed Spectral Data<<<<<
345.13	1357.80
345.34	1357.80
345.56	1357.80
345.78	1296.36
345.99	1273.84
346.21	1726.44
346.42	1685.48
346.64	1646.57
346.86	1771.49
347.07	1718.25
347.29	1634.28
347.50	1648.61
347.72	1613.80
347.94	1820.64
348.15	1601.51
348.37	1615.85
348.59	1650.66
348.80	1613.80
349.02	1787.88
349.23	1902.56
349.45	1830.88
349.67	1855.46
349.88	1853.41
350.10	1972.19
350.31	1843.17
350.53	1798.12
350.75	1951.71
350.96	1839.08
351.18	1912.80
351.39	1845.22
351.61	1841.12
351.82	1859.56
352.04	1947.62
352.26	1834.98
352.47	1912.80
352.69	1920.99
352.90	1701.86
353.12	1877.99
353.34	1832.93
353.55	1880.04
353.77	1794.02
353.98	1865.70
354.20	1765.35
354.41	1925.09
354.63	1851.36
354.85	2054.11
355.06	1900.52
355.28	1845.22
355.49	1877.99
355.71	1978.34
355.92	1851.36
356.14	1869.80
356.35	1857.51
356.57	1810.40
356.79	1867.75
357.00	1826.79
357.22	1957.86
357.43	1753.06
357.65	1931.23
357.86	1828.84
358.08	1869.80
358.29	1968.10
358.51	2004.96
358.72	1910.75
358.94	1929.19
359.16	1875.94
359.37	1918.95
359.59	1980.39
359.80	1992.67
360.02	1920.99
360.23	1955.81
360.45	2011.11
360.66	1886.18
360.88	1857.51
361.09	1894.37
361.31	2031.58
361.52	2007.01
361.74	2117.60
361.95	2007.01
362.17	1945.57
362.38	2019.30
362.60	2015.20
362.81	1980.39
363.03	1916.90
363.24	1984.48
363.46	2084.83
363.67	1947.62
363.89	2041.82
364.10	2039.78
364.32	2031.58
364.53	2009.06
364.75	1939.43
364.96	2017.25
365.18	1996.77
365.39	2025.44
365.61	1918.95
365.82	2150.37
366.04	1996.77
366.25	1886.18
366.47	2015.20
366.68	2062.30
366.90	1957.86
367.11	2072.54
367.33	2004.96
367.54	2058.21
367.76	2033.63
367.97	2148.32
368.19	2064.35
368.40	1974.24
368.62	2019.30
368.83	1972.19
369.05	2074.59
369.26	2047.97
369.48	1998.82
369.69	2033.63
369.91	2035.68
370.12	2054.11
370.33	2138.08
370.55	1916.90
370.76	1998.82
370.98	2076.64
371.19	2076.64
371.41	2090.98
371.62	2070.50
371.84	1945.57
372.05	2154.46
372.27	2095.07
372.48	2025.44
372.69	2107.36
372.91	2172.89
373.12	2131.94
373.34	2074.59
373.55	2099.17
373.77	2156.51
373.98	2099.17
374.20	2203.61
374.41	2277.34
374.62	2095.07
374.84	2090.98
375.05	2232.29
375.27	2174.94
375.48	2179.04
375.70	2172.89
375.91	2158.56
376.12	2324.44
376.34	2133.98
376.55	2166.75
376.77	2222.05
376.98	2058.21
377.19	2140.13
377.41	2099.17
377.62	2199.52
377.84	2133.98
378.05	2273.25
378.27	2133.98
378.48	2269.15
378.69	2344.92
378.91	2340.83
379.12	2308.06
379.34	2340.83
379.55	2273.25
379.76	2224.09
379.98	2189.28
380.19	2281.44
380.41	2256.86
380.62	2308.06
380.83	2285.53
381.05	2240.48
381.26	2451.42
381.47	2285.53
381.69	2273.25
381.90	2453.47
382.12	2330.59
382.33	2383.84
382.54	2308.06
382.76	2443.23
382.97	2338.78
383.19	2269.15
383.40	2381.79
383.61	2256.86
383.83	2295.77
384.04	2363.36
384.25	2387.93
384.47	2453.47
384.68	2383.84
384.89	2322.40
385.11	2281.44
385.32	2355.16
385.54	2295.77
385.75	2379.74
385.96	2361.31
386.18	2502.62
386.39	2441.18
386.60	2314.20
386.82	2449.37
387.03	2408.41
387.24	2482.14
387.46	2473.95
387.67	2500.57
387.88	2523.10
388.10	2453.47
388.31	2469.85
388.52	2611.16
388.74	2506.71
388.95	2422.75
389.16	2486.23
389.38	2432.99
389.59	2664.41
389.80	2600.92
390.02	2514.91
390.23	2598.87
390.44	2555.86
390.66	2605.02
390.87	2453.47
391.08	2570.20
391.30	2637.78
391.51	2674.65
391.72	2629.59
391.94	2592.73
392.15	2623.45
392.36	2508.76
392.58	2613.21
392.79	2611.16
393.00	2619.35
393.22	2797.53
393.43	2725.85
393.64	2834.39
393.85	2795.48
394.07	2609.11
394.28	2752.47
394.49	2723.80
394.71	2746.33
394.92	2811.86
395.13	2709.46
395.35	2775.00
395.56	2793.43
395.77	2822.10
395.98	2861.01
396.20	2881.49
396.41	2764.76
396.62	2910.16
396.84	2885.59
397.05	2822.10
397.26	2932.69
397.47	2856.92
397.69	2871.25
397.90	2971.60
398.11	2871.25
398.32	2854.87
398.54	2922.45
398.75	2854.87
398.96	2944.98
399.18	2977.75
399.39	2936.79
399.60	2914.26
399.81	3004.37
400.03	2926.55
400.24	3278.80
400.45	3033.04
400.66	3035.09
400.88	2942.93
401.09	3131.34
401.30	3008.47
401.51	3264.46
401.73	3086.29
401.94	3063.76
402.15	3143.63
402.36	3198.93
402.58	3104.72
402.79	3186.64
403.00	3131.34
403.21	3221.45
403.43	3207.12
403.64	3233.74
403.85	3157.97
404.06	3180.50
404.27	3145.68
404.49	3303.37
404.70	3190.74
404.91	3327.95
405.12	3280.85
405.34	3252.17
405.55	3434.44
405.76	3155.92
405.97	3196.88
406.19	3442.64
406.40	3243.98
406.61	3284.94
406.82	3293.13
407.03	3352.52
407.25	3178.45
407.46	3409.87
407.67	3432.40
407.88	3442.64
408.09	3358.67
408.31	3305.42
408.52	3327.95
408.73	3360.72
408.94	3411.92
409.15	3418.06
409.37	3428.30
409.58	3526.60
409.79	3495.88
410.00	3493.83
410.21	3424.20
410.43	3456.97
410.64	3469.26
410.85	3477.45
411.06	3522.51
411.27	3577.80
411.48	3612.62
411.70	3567.56
411.91	3696.58
412.12	3618.76
412.33	3686.34
412.54	3514.31
412.76	3637.19
412.97	3692.49
413.18	3489.74
413.39	3577.80
413.60	3684.30
413.81	3672.01
414.03	3680.20
414.24	3442.64
414.45	3819.46
414.66	3565.51
414.87	3715.02
415.08	3672.01
415.30	3704.78
415.51	3661.77
415.72	3686.34
415.93	3661.77
416.14	3796.93
416.35	3821.51
416.56	3729.35
416.78	3798.98
416.99	3762.12
417.20	3878.85
417.41	3887.04
417.62	3905.48
417.83	3839.94
418.04	3821.51
418.26	3860.42
418.47	3899.33
418.68	3966.92
418.89	3868.61
419.10	4016.07
419.31	3919.81
419.52	4169.66
419.73	3960.77
419.95	4005.83
420.16	3932.10
420.37	4005.83
420.58	4093.89
420.79	3897.28
421.00	4040.64
421.21	4190.14
421.42	4001.73
421.63	4077.51
421.85	4016.07
422.06	4212.67
422.27	4145.09
422.48	4212.67
422.69	4188.10
422.90	4210.62
423.11	4253.63
423.32	4306.88
423.53	4353.98
423.75	4388.80
423.96	4390.84
424.17	4288.45
424.38	4431.80
424.59	4343.74
424.80	4523.96
425.01	4403.13
425.22	4427.71
425.43	4505.53
425.64	4562.87
425.85	4640.70
426.06	4446.14
426.28	4523.96
426.49	4566.97
426.70	4417.47
426.91	4599.74
427.12	4562.87
427.33	4612.03
427.54	4605.88
427.75	4607.93
427.96	4769.72
428.17	4693.94
428.38	4863.93
428.59	4728.76
428.80	4712.38
429.01	4853.69
429.23	4894.65
429.44	4943.80
429.65	4962.23
429.86	4876.21
430.07	4900.79
430.28	4718.52
430.49	4962.23
430.70	4970.42
430.91	5083.06
431.12	4900.79
431.33	5154.74
431.54	5164.98
431.75	5115.83
431.96	5029.81
432.17	5062.58
432.38	5107.63
432.59	5255.09
432.80	5298.10
433.01	5113.78
433.22	5289.90
433.43	5382.06
433.64	5259.18
433.85	5234.61
434.06	5353.39
434.27	5201.84
434.49	5332.91
434.70	5400.49
434.91	5443.50
435.12	5332.91
435.33	5451.69
435.54	5603.24
435.75	5388.21
435.96	5382.06
436.17	5466.03
436.38	5590.95
436.59	5533.61
436.80	5455.79
437.01	5599.15
437.22	5691.31
437.43	5580.71
437.64	5509.04
437.85	5867.43
438.06	5717.93
438.27	5605.29
438.48	5652.39
438.69	5822.38
438.90	5664.68
439.11	5801.90
439.32	5896.10
439.53	5826.47
439.74	5849.00
439.95	5918.63
440.16	5853.09
440.37	5668.78
440.57	5726.12
440.78	5937.06
440.99	5916.58
441.20	5883.81
441.41	5748.65
441.62	5988.26
441.83	5930.92
442.04	5980.07
442.25	5994.40
442.46	6072.23
442.67	6188.96
442.88	6561.69
443.09	5986.21
443.30	6150.05
443.51	6217.63
443.72	6348.70
443.93	6088.61
444.14	6389.66
444.35	6121.38
444.56	6238.11
444.77	6412.19
444.98	6389.66
445.19	6459.29
445.40	6315.94
445.61	6496.16
445.81	6490.01
446.02	6449.05
446.23	6348.70
446.44	6334.37
446.65	6520.73
446.86	6518.68
447.07	6510.49
447.28	6619.04
447.49	6686.62
447.70	6524.83
447.91	6590.36
448.12	6563.74
448.33	6705.05
448.54	6709.15
448.74	6655.90
448.95	6733.72
449.16	6754.20
449.37	6803.35
449.58	6754.20
449.79	6913.94
450.00	6666.14
450.21	6707.10
450.42	7122.84
450.63	6924.18
450.84	6840.22
451.05	6979.48
451.25	6756.25
451.46	6729.63
451.67	6983.57
451.88	7212.95
452.09	6932.37
452.30	7102.36
452.51	7030.68
452.72	7212.95
452.93	7458.70
453.13	6997.91
453.34	6997.91
453.55	7225.23
453.76	7374.74
453.97	7516.05
454.18	7477.13
454.39	7470.99
454.60	7350.16
454.81	7403.41
455.01	7645.07
455.22	7255.95
455.43	7448.46
455.64	7593.87
455.85	7798.66
456.06	7958.41
456.27	7751.56
456.48	7663.50
456.68	7616.40
456.89	7876.49
457.10	7909.26
457.31	8011.65
457.52	7862.15
457.73	7956.36
457.94	8077.19
458.14	7882.63
458.35	8277.89
458.56	8003.46
458.77	8198.02
458.98	8224.64
459.19	8284.03
459.39	8429.44
459.60	8351.62
459.81	8058.76
460.02	8464.25
460.23	8341.38
460.44	8660.86
460.65	8583.04
460.85	8525.69
461.06	8763.26
461.27	8425.34
461.48	8802.17
461.69	8988.53
461.89	8697.72
462.10	8720.25
462.31	8636.28
462.52	8734.59
462.73	8843.13
462.94	8929.14
463.14	9043.83
463.35	8990.58
463.56	9437.04
463.77	9385.84
463.98	9209.72
464.18	9328.50
464.39	9381.74
464.60	9523.05
464.81	9426.80
465.02	9494.38
465.23	9686.89
465.43	9488.24
465.64	9654.12
465.85	9561.97
466.06	9598.83
466.27	9973.61
466.47	9942.89
466.68	10012.52
466.89	9856.87
467.10	10035.05
467.30	9932.65
467.51	10121.06
467.72	10342.24
467.93	10016.62
468.14	10159.97
468.34	10370.91
468.55	10383.20
468.76	10456.93
468.97	10368.87
469.17	10862.43
469.38	10712.92
469.59	10897.24
469.80	10635.10
470.01	10706.78
470.21	10860.38
470.42	11028.31
470.63	11372.37
470.84	10884.95
471.04	11398.99
471.25	11214.68
471.46	11249.49
471.67	11388.75
471.87	11495.25
472.08	11431.76
472.29	11632.46
472.50	11427.67
472.70	11517.78
472.91	11872.07
473.12	11816.78
473.33	12117.83
473.53	12216.13
473.74	12095.30
473.95	12302.15
474.16	12279.62
474.36	12283.72
474.57	12506.95
474.78	12678.97
474.99	12764.99
475.19	12547.90
475.40	12740.41
475.61	12715.84
475.81	12998.46
476.02	13137.72
476.23	12830.52
476.44	13233.97
476.64	13498.16
476.85	13594.42
477.06	13496.11
477.27	13782.83
477.47	13936.43
477.68	13682.48
477.89	13809.45
478.09	13893.42
478.30	13940.52
478.51	13930.28
478.71	14288.68
478.92	14188.33
479.13	14497.57
479.34	14532.39
479.54	14716.70
479.75	14757.66
479.96	14765.85
480.16	14710.56
480.37	14835.49
480.58	14845.73
480.78	15253.27
480.99	15304.47
481.20	15234.84
481.41	15279.89
481.61	15496.98
481.82	15560.47
482.03	15683.34
482.23	15556.37
482.44	15925.00
482.65	16099.08
482.85	15853.33
483.06	16260.87
483.27	16068.36
483.47	16076.55
483.68	16066.31
483.89	16459.52
484.09	16338.69
484.30	16340.74
484.51	16852.73
484.71	16811.78
484.92	16854.78
485.13	16948.99
485.33	16910.08
485.54	16965.37
485.75	16961.28
485.95	17483.51
486.16	17475.32
486.37	17426.17
486.57	17407.73
486.78	17501.94
486.98	17741.55
487.19	17778.42
487.40	17770.22
487.60	17870.58
487.81	18132.72
488.02	17819.38
488.22	17989.36
488.43	18190.06
488.64	18452.20
488.84	18493.16
489.05	18669.28
489.25	18540.26
489.46	18669.28
489.67	18675.43
489.87	19025.63
490.08	19273.43
490.29	18532.07
490.49	19363.54
490.70	19271.39
490.90	19162.84
491.11	19042.01
491.32	19422.94
491.52	19580.63
491.73	19693.27
491.94	19640.02
492.14	19627.73
492.35	19955.41
492.55	19685.08
492.76	19965.65
492.97	20199.12
493.17	20311.75
493.38	20276.94
493.58	20334.28
493.79	20528.84
494.00	20391.62
494.20	20514.50
494.41	20670.15
494.61	20778.69
494.82	20539.08
495.02	21044.93
495.23	20926.14
495.44	20809.41
495.64	21327.55
495.85	21196.48
496.05	21274.30
496.26	21262.01
496.47	21511.86
496.67	21112.51
496.88	21681.85
497.08	21499.58
497.29	21749.43
497.49	21706.42
497.70	21800.63
497.91	22077.10
498.11	22032.05
498.32	22300.33
498.52	22021.81
498.73	22662.82
498.93	22337.20
499.14	22447.79
499.34	22415.02
499.55	22568.62
499.76	22595.24
499.96	22697.64
500.17	22666.92
500.37	22746.79
500.58	22861.48
500.78	23203.49
500.99	23058.08
501.19	23436.95
501.40	23123.62
501.60	23060.13
501.81	23320.22
502.02	23494.30
502.22	23156.38
502.43	23336.60
502.63	23883.41
502.84	23742.10
503.04	23838.36
503.25	23987.86
503.45	23860.88
503.66	24198.80
503.86	23778.97
504.07	24104.59
504.27	23920.28
504.48	24553.10
504.68	24182.42
504.89	24426.12
505.09	24340.11
505.30	24465.03
505.50	24583.82
505.71	24606.34
505.91	24831.62
506.12	24561.29
506.32	24858.24
506.53	24927.88
506.73	25163.39
506.94	25095.81
507.14	24985.22
507.35	25040.51
507.55	25366.14
507.76	25429.63
507.96	25312.89
508.17	25386.62
508.37	25400.96
508.58	25699.96
508.78	25712.25
508.99	25788.02
509.19	25890.42
509.40	25859.70
509.60	25853.56
509.81	26062.45
510.01	25654.90
510.22	26154.61
510.42	26132.08
510.63	26062.45
510.83	25980.53
511.04	26089.07
511.24	26570.35
511.44	26320.49
511.65	26502.76
511.85	26527.34
512.06	26539.63
512.26	26814.05
512.47	26631.79
512.67	26963.56
512.88	26912.36
513.08	26687.08
513.29	26990.18
513.49	27321.95
513.69	27104.87
513.90	26906.21
514.10	27254.37
514.31	27424.35
514.51	27410.01
514.72	27268.70
514.92	27481.69
515.13	27479.64
515.33	27758.17
515.53	27596.38
515.74	27426.40
515.94	28067.41
516.15	27696.73
516.35	27821.66
516.56	28137.04
516.76	27946.58
516.96	28270.16
517.17	28399.18
517.37	28104.28
517.58	28186.19
517.78	28309.07
517.99	28522.06
518.19	28601.93
518.39	28618.32
518.60	28853.83
518.80	28841.54
519.01	29038.15
519.21	28931.65
519.41	29107.78
519.62	29068.87
519.82	29183.55
520.03	29052.48
520.23	28980.81
520.43	29017.67
520.64	29408.83
520.84	29441.60
521.05	29748.79
521.25	29507.13
521.45	29656.64
521.66	29711.93
521.86	29576.76
522.07	29828.66
522.27	29595.20
522.47	29949.50
522.68	29871.67
522.88	29900.34
523.08	30279.22
523.29	30260.79
523.49	30404.14
523.70	30109.24
523.90	30504.49
524.10	30780.97
524.31	30873.13
524.51	30705.20
524.71	31049.25
524.92	30555.69
525.12	30922.28
525.33	30991.91
525.53	31133.22
525.73	31512.10
525.94	31397.41
526.14	31108.65
526.34	31460.90
526.55	31563.29
526.75	31587.87
526.95	31735.32
527.16	31737.37
527.36	31649.31
527.56	32169.49
527.77	31981.08
527.97	32212.50
528.17	32077.33
528.38	32392.72
528.58	32425.49
528.78	32423.44
528.99	32327.19
529.19	32708.11
529.39	32032.28
529.60	32675.34
529.80	32497.17
530.00	32966.15
530.21	32863.75
530.41	33160.71
530.61	33013.26
530.82	33185.29
531.02	33189.38
531.22	33371.65
531.43	33195.53
531.63	33494.53
531.83	33701.37
532.04	33783.29
532.24	33412.61
532.44	33828.35
532.64	33889.79
532.85	34113.02
533.05	34033.14
533.25	34162.17
533.46	34010.62
533.66	34379.25
533.86	34319.86
534.07	34756.08
534.27	34551.28
534.47	34754.03
534.67	34762.22
534.88	34717.17
535.08	34852.33
535.28	34874.86
535.49	34850.28
535.69	35313.13
535.89	35448.29
536.09	35390.95
536.30	35384.80
536.50	35562.98
536.70	35519.97
536.91	35515.87
537.11	35630.56
537.31	36001.24
537.51	35763.68
537.72	36044.25
537.92	36304.34
538.12	36431.32
538.32	36052.44
538.53	36081.11
538.73	36173.27
538.93	36429.27
539.13	36466.13
539.34	36869.58
539.54	36290.01
539.74	36945.36
539.94	36668.88
540.15	36699.60
540.35	37154.25
540.55	36881.87
540.75	36926.92
540.96	36980.17
541.16	37119.43
541.36	37221.83
541.56	37268.94
541.77	37567.94
541.97	37082.57
542.17	37209.54
542.37	37434.82
542.58	37594.56
542.78	37477.83
542.98	37467.59
543.18	37729.73
543.38	38120.89
543.59	38024.64
543.79	37883.33
543.99	37729.73
544.19	38501.81
544.40	37965.24
544.60	38452.66
544.80	38477.24
545.00	38106.55
545.20	38483.38
545.41	38331.83
545.61	38141.37
545.81	39017.90
546.01	38436.28
546.21	38626.74
546.42	38663.60
546.62	39204.27
546.82	38483.38
547.02	38643.12
547.22	38923.69
547.43	38921.65
547.63	39179.69
547.83	39095.72
548.03	38712.75
548.23	38942.13
548.44	38954.41
548.64	39220.65
548.84	39439.78
549.04	39267.75
549.24	39640.48
549.45	39806.37
549.65	39622.05
549.85	39470.50
550.05	39718.31
550.25	39724.45
550.45	40172.96
550.66	39685.54
550.86	39542.18
551.06	40218.01
551.26	40146.33
551.46	39886.24
551.66	40175.00
551.87	40244.63
552.07	40431.00
552.27	40250.78
552.47	40191.39
552.67	40392.09
552.87	40557.97
553.07	40390.04
553.28	40643.99
553.48	40580.50
553.68	40736.15
553.88	41084.30
554.08	40783.25
554.28	40420.76
554.48	40695.19
554.69	40811.92
554.89	40824.21
555.09	41088.40
555.29	40967.57
555.49	41555.33
555.69	41397.64
555.89	41360.78
556.10	41248.14
556.30	40877.46
556.50	41434.50
556.70	41254.28
556.90	41618.82
557.10	41577.86
557.30	41584.01
557.50	41747.84
557.70	41989.50
557.91	42003.84
558.11	41530.76
558.31	42079.61
558.51	41778.56
558.71	41883.01
558.91	42161.53
559.11	41874.82
559.31	41880.96
559.51	42100.09
559.72	42194.30
559.92	42542.45
560.12	42337.66
560.32	42724.72
560.52	42079.61
560.72	42464.63
560.92	42538.36
561.12	42212.73
561.32	42853.75
561.52	42374.52
561.72	42694.00
561.93	42790.26
562.13	42734.96
562.33	42866.03
562.53	43412.84
562.73	42667.38
562.93	42823.03
563.13	42997.10
563.33	42882.42
563.53	43642.21
563.73	42915.19
563.93	43349.35
564.13	43652.45
564.33	43386.22
564.53	43177.33
564.74	43660.65
564.94	43099.50
565.14	43490.66
565.34	43416.94
565.54	43861.35
565.74	43515.24
565.94	43894.11
566.14	43797.86
566.34	43642.21
566.54	44123.49
566.74	43631.97
566.94	44045.66
567.14	44186.97
567.34	43754.85
567.54	44119.39
567.74	43992.42
567.94	43695.46
568.14	43930.98
568.34	44592.47
568.54	44176.73
568.74	44305.76
568.94	44332.38
569.14	44791.12
569.34	44160.35
569.54	44709.21
569.75	44381.53
569.95	44528.98
570.15	45192.53
570.35	45186.38
570.55	44404.06
570.75	44975.44
570.95	44914.00
571.15	45010.26
571.35	45008.21
571.55	45374.80
571.75	44899.67
571.95	45231.44
572.15	45118.80
572.35	45507.91
572.55	45059.41
572.75	45382.99
572.95	45282.64
573.15	45647.18
573.35	45438.28
573.55	45438.28
573.75	45669.70
573.95	45563.21
574.15	45505.87
574.35	45454.67
574.55	45727.05
574.75	45735.24
574.95	45806.92
575.15	45542.73
575.34	45870.40
575.54	46243.13
575.74	45806.92
575.94	46024.00
576.14	46015.81
576.34	46265.66
576.54	46409.02
576.74	46212.41
576.94	46693.69
577.14	46341.44
577.34	47148.34
577.54	46183.74
577.74	46591.29
577.94	46523.71
578.14	46521.66
578.34	47144.24
578.54	46515.51
578.74	46497.08
578.94	46824.76
579.14	47349.04
579.34	46605.62
579.54	47156.53
579.74	47381.80
579.94	47174.96
580.13	47318.32
580.33	46978.36
580.53	47398.19
580.73	47668.52
580.93	47346.99
581.13	47568.17
581.33	47564.07
581.53	47949.09
581.73	47551.79
581.93	48010.53
582.13	47955.24
582.33	47869.22
582.53	47789.35
582.73	47797.54
582.92	47691.05
583.12	48387.36
583.32	48014.63
583.52	47983.91
583.72	48315.68
583.92	47822.12
584.12	48557.34
584.32	48559.39
584.52	48149.79
584.72	48145.70
584.92	48438.56
585.11	48553.24
585.31	48762.14
585.51	48776.47
585.71	48397.60
585.91	48997.65
586.11	48747.80
586.31	48618.78
586.51	48788.76
586.71	48588.06
586.91	49048.85
587.10	49429.77
587.30	48946.45
587.50	49149.20
587.70	48973.08
587.90	49306.90
588.10	49124.63
588.30	49444.11
588.50	49700.11
