SpectraSuite Data File
++++++++++++++++++++++++++++++++++++
Date: Fri Jun 02 14:48:00 CEST 2017
User: INFO_000
Dark Spectrum Present: No
Reference Spectrum Present: No
Number of Sampled Component Spectra: 1
Spectrometers: USB4H00879
Integration Time (usec): 80000 (USB4H00879)
Spectra Averaged: 1 (USB4H00879)
Boxcar Smoothing: 0 (USB4H00879)
Correct for Electrical Dark: No (USB4H00879)
Strobe/Lamp Enabled: No (USB4H00879)
Correct for Detector Non-linearity: No (USB4H00879)
Correct for Stray Light: No (USB4H00879)
Number of Pixels in Processed Spectrum: 3648
>>>>>Begin Processed Spectral Data<<<<<
345.13	1349.61
345.34	1349.61
345.56	1349.61
345.78	1290.22
345.99	1337.32
346.21	1757.16
346.42	1667.05
346.64	1669.09
346.86	1839.08
347.07	1669.09
347.29	1701.86
347.50	1642.47
347.72	1683.43
347.94	1757.16
348.15	1556.46
348.37	1624.04
348.59	1724.39
348.80	1646.57
349.02	1767.40
349.23	1875.94
349.45	1810.40
349.67	1873.89
349.88	1761.25
350.10	1880.04
350.31	1800.16
350.53	1789.92
350.75	1957.86
350.96	1810.40
351.18	1839.08
351.39	1826.79
351.61	1839.08
351.82	1908.71
352.04	2007.01
352.26	1757.16
352.47	1918.95
352.69	1894.37
352.90	1798.12
353.12	1804.26
353.34	1832.93
353.55	1935.33
353.77	1990.63
353.98	1814.50
354.20	1802.21
354.41	1925.09
354.63	1986.53
354.85	1990.63
355.06	1867.75
355.28	1804.26
355.49	1929.19
355.71	1826.79
355.92	1808.36
356.14	1945.57
356.35	1900.52
356.57	1869.80
356.79	1861.60
357.00	1888.23
357.22	2039.78
357.43	1943.52
357.65	2013.15
357.86	1884.13
358.08	1859.56
358.29	1882.08
358.51	1961.95
358.72	1923.04
358.94	1855.46
359.16	1822.69
359.37	1959.91
359.59	1951.71
359.80	1978.34
360.02	1908.71
360.23	2019.30
360.45	1935.33
360.66	1937.38
360.88	1900.52
361.09	1894.37
361.31	2004.96
361.52	1923.04
361.74	2113.50
361.95	1964.00
362.17	1945.57
362.38	2015.20
362.60	1994.72
362.81	1992.67
363.03	1966.05
363.24	2023.39
363.46	2058.21
363.67	2072.54
363.89	1982.43
364.10	2039.78
364.32	1908.71
364.53	2068.45
364.75	1957.86
364.96	2031.58
365.18	1986.53
365.39	2000.87
365.61	1945.57
365.82	2056.16
366.04	1998.82
366.25	1951.71
366.47	2023.39
366.68	2072.54
366.90	1988.58
367.11	2056.16
367.33	1980.39
367.54	2088.93
367.76	1978.34
367.97	2115.55
368.19	2009.06
368.40	2054.11
368.62	2043.87
368.83	1961.95
369.05	2060.26
369.26	1966.05
369.48	1902.56
369.69	1984.48
369.91	2017.25
370.12	2043.87
370.33	2150.37
370.55	1939.43
370.76	2019.30
370.98	2043.87
371.19	2095.07
371.41	2015.20
371.62	2054.11
371.84	1968.10
372.05	2263.01
372.27	2088.93
372.48	2058.21
372.69	2068.45
372.91	2084.83
373.12	2199.52
373.34	2105.31
373.55	2109.41
373.77	2181.09
373.98	2086.88
374.20	2224.09
374.41	2234.33
374.62	2072.54
374.84	2146.27
375.05	2224.09
375.27	2123.74
375.48	2197.47
375.70	2222.05
375.91	2168.80
376.12	2258.91
376.34	2160.61
376.55	2125.79
376.77	2279.39
376.98	2115.55
377.19	2168.80
377.41	2156.51
377.62	2187.23
377.84	2322.40
378.05	2322.40
378.27	2197.47
378.48	2320.35
378.69	2287.58
378.91	2385.88
379.12	2263.01
379.34	2170.85
379.55	2316.25
379.76	2281.44
379.98	2246.62
380.19	2244.57
380.41	2383.84
380.62	2287.58
380.83	2185.18
381.05	2277.34
381.26	2506.71
381.47	2193.37
381.69	2293.72
381.90	2394.08
382.12	2326.49
382.33	2273.25
382.54	2357.21
382.76	2277.34
382.97	2299.87
383.19	2279.39
383.40	2310.11
383.61	2299.87
383.83	2238.43
384.04	2324.44
384.25	2463.71
384.47	2330.59
384.68	2295.77
384.89	2308.06
385.11	2336.73
385.32	2328.54
385.54	2392.03
385.75	2338.78
385.96	2504.67
386.18	2361.31
386.39	2392.03
386.60	2392.03
386.82	2412.51
387.03	2381.79
387.24	2500.57
387.46	2410.46
387.67	2504.67
387.88	2516.95
388.10	2420.70
388.31	2469.85
388.52	2613.21
388.74	2469.85
388.95	2478.04
389.16	2539.48
389.38	2465.75
389.59	2551.77
389.80	2617.30
390.02	2572.25
390.23	2699.22
390.44	2602.97
390.66	2559.96
390.87	2449.37
391.08	2680.79
391.30	2695.13
391.51	2660.31
391.72	2633.69
391.94	2605.02
392.15	2648.02
392.36	2555.86
392.58	2594.78
392.79	2717.65
393.00	2693.08
393.22	2768.85
393.43	2707.41
393.64	2768.85
393.85	2729.94
394.07	2705.37
394.28	2781.14
394.49	2797.53
394.71	2660.31
394.92	2818.00
395.13	2621.40
395.35	2713.56
395.56	2674.65
395.77	2738.13
395.98	2871.25
396.20	2809.81
396.41	2779.09
396.62	2867.16
396.84	2754.52
397.05	2918.36
397.26	2846.68
397.47	2912.21
397.69	2809.81
397.90	3155.92
398.11	2906.07
398.32	2949.08
398.54	2926.55
398.75	2811.86
398.96	2953.17
399.18	3039.19
399.39	2942.93
399.60	2955.22
399.81	3051.47
400.03	2895.83
400.24	3289.04
400.45	3139.54
400.66	3114.96
400.88	3008.47
401.09	3176.40
401.30	3094.48
401.51	3235.79
401.73	3145.68
401.94	3114.96
402.15	3110.86
402.36	3082.19
402.58	3094.48
402.79	3190.74
403.00	3119.06
403.21	3205.07
403.43	3246.03
403.64	3321.81
403.85	3041.23
404.06	3264.46
404.27	3033.04
404.49	3157.97
404.70	3133.39
404.91	3248.08
405.12	3297.23
405.34	3246.03
405.55	3418.06
405.76	3166.16
405.97	3231.69
406.19	3350.48
406.40	3221.45
406.61	3289.04
406.82	3397.58
407.03	3254.22
407.25	3254.22
407.46	3379.15
407.67	3483.59
407.88	3430.35
408.09	3297.23
408.31	3295.18
408.52	3387.34
408.73	3325.90
408.94	3289.04
409.15	3407.82
409.37	3436.49
409.58	3450.83
409.79	3526.60
410.00	3452.88
410.21	3450.83
410.43	3399.63
410.64	3471.31
410.85	3559.37
411.06	3502.03
411.27	3585.99
411.48	3643.34
411.70	3493.83
411.91	3579.85
412.12	3606.47
412.33	3538.89
412.54	3596.23
412.76	3610.57
412.97	3837.89
413.18	3450.83
413.39	3606.47
413.60	3696.58
413.81	3585.99
414.03	3653.58
414.24	3502.03
414.45	3858.37
414.66	3682.25
414.87	3835.85
415.08	3772.36
415.30	3633.10
415.51	3612.62
415.72	3655.62
415.93	3784.65
416.14	3717.06
416.35	3876.80
416.56	3811.27
416.78	3692.49
416.99	3823.56
417.20	3862.47
417.41	3915.72
417.62	3848.13
417.83	3907.52
418.04	3909.57
418.26	3876.80
418.47	3907.52
418.68	3905.48
418.89	3934.15
419.10	4085.70
419.31	4003.78
419.52	4038.59
419.73	4079.55
419.95	4024.26
420.16	3899.33
420.37	3907.52
420.58	3983.30
420.79	3909.57
421.00	4161.47
421.21	4163.52
421.42	3991.49
421.63	4130.75
421.85	4140.99
422.06	4091.84
422.27	4179.90
422.48	4267.97
422.69	4198.34
422.90	4198.34
423.11	4241.34
423.32	4286.40
423.53	4421.56
423.75	4401.08
423.96	4388.80
424.17	4343.74
424.38	4550.59
424.59	4413.37
424.80	4505.53
425.01	4493.24
425.22	4450.24
425.43	4452.28
425.64	4546.49
425.85	4556.73
426.06	4577.21
426.28	4497.34
426.49	4386.75
426.70	4581.31
426.91	4556.73
427.12	4554.68
427.33	4644.79
427.54	4476.86
427.75	4693.94
427.96	4872.12
428.17	4798.39
428.38	4769.72
428.59	4857.78
428.80	4741.05
429.01	4769.72
429.23	4816.82
429.44	4913.08
429.65	4958.13
429.86	4804.53
430.07	4870.07
430.28	4911.03
430.49	5048.24
430.70	5040.05
430.91	5078.96
431.12	5003.19
431.33	4972.47
431.54	5156.79
431.75	5148.59
431.96	5148.59
432.17	5212.08
432.38	5023.67
432.59	5351.34
432.80	5253.04
433.01	5207.98
433.22	5195.70
433.43	5332.91
433.64	5330.86
433.85	5224.37
434.06	5375.92
434.27	5210.03
434.49	5482.41
434.70	5478.32
434.91	5435.31
435.12	5550.00
435.33	5482.41
435.54	5494.70
435.75	5361.58
435.96	5334.96
436.17	5371.82
436.38	5539.76
436.59	5537.71
436.80	5502.89
437.01	5736.36
437.22	5814.18
437.43	5791.66
437.64	5506.99
437.85	5652.39
438.06	5695.40
438.27	5558.19
438.48	5504.94
438.69	5767.08
438.90	5713.83
439.11	5644.20
439.32	5869.48
439.53	5719.98
439.74	5754.79
439.95	5982.12
440.16	5818.28
440.37	5834.66
440.57	5894.05
440.78	5996.45
440.99	5889.96
441.20	6074.28
441.41	5867.43
441.62	5957.54
441.83	5894.05
442.04	6129.57
442.25	6090.66
442.46	5984.16
442.67	6176.67
442.88	6528.92
443.09	6016.93
443.30	6090.66
443.51	6184.87
443.72	6410.14
443.93	6133.67
444.14	6451.10
444.35	6115.23
444.56	6352.80
444.77	6238.11
444.98	6246.30
445.19	6332.32
445.40	6258.59
445.61	6328.22
445.81	6457.25
446.02	6440.86
446.23	6428.57
446.44	6342.56
446.65	6463.39
446.86	6455.20
447.07	6696.86
447.28	6674.33
447.49	6604.70
447.70	6477.73
447.91	6571.93
448.12	6604.70
448.33	6756.25
448.54	6760.34
448.74	6633.37
448.95	6692.76
449.16	6621.08
449.37	6918.04
449.58	6750.10
449.79	7026.58
450.00	6793.11
450.21	6934.42
450.42	6981.53
450.63	6983.57
450.84	6983.57
451.05	6954.90
451.25	6854.55
451.46	6774.68
451.67	7096.21
451.88	7286.67
452.09	7057.30
452.30	7038.87
452.51	7092.12
452.72	7180.18
452.93	7571.34
453.13	7020.44
453.34	7094.16
453.55	7301.01
453.76	7280.53
453.97	7663.50
454.18	7325.58
454.39	7593.87
454.60	7333.78
454.81	7456.65
455.01	7643.02
455.22	7161.75
455.43	7604.11
455.64	7563.15
455.85	7718.79
456.06	7892.87
456.27	7636.88
456.48	7720.84
456.68	7872.39
456.89	7950.21
457.10	7890.82
457.31	7937.93
457.52	7860.10
457.73	8038.28
457.94	8165.25
458.14	8021.89
458.35	8212.35
458.56	8277.89
458.77	8333.18
458.98	8130.44
459.19	8243.07
459.39	8388.48
459.60	8433.54
459.81	8171.40
460.02	8478.59
460.23	8499.07
460.44	8716.16
460.65	8781.69
460.85	8716.16
461.06	8564.61
461.27	8658.81
461.48	8847.22
461.69	8875.90
461.89	8679.29
462.10	8941.43
462.31	8701.82
462.52	9043.83
462.73	9101.17
462.94	9133.94
463.14	9060.21
463.35	9035.64
463.56	9682.80
463.77	9367.41
463.98	9084.79
464.18	9133.94
464.39	9404.27
464.60	9475.95
464.81	9566.06
465.02	9478.00
465.23	9674.60
465.43	9645.93
465.64	9758.57
465.85	9764.72
466.06	9576.30
466.27	9936.74
466.47	9903.98
466.68	9981.80
466.89	9914.22
467.10	10022.76
467.30	9807.72
467.51	10055.53
467.72	10442.59
467.93	10123.11
468.14	10252.13
468.34	10567.52
468.55	10379.11
468.76	10250.08
468.97	10444.64
469.17	10612.57
469.38	10680.16
469.59	10821.47
469.80	10657.63
470.01	10809.18
470.21	10831.71
470.42	10915.67
470.63	11208.53
470.84	10919.77
471.04	11167.57
471.25	11253.59
471.46	11247.44
471.67	11644.75
471.87	11448.15
472.08	11304.79
472.29	11687.76
472.50	11460.43
472.70	11450.19
472.91	11601.74
473.12	11827.02
473.33	12040.01
473.53	12056.39
473.74	11757.39
473.95	12205.89
474.16	12158.79
474.36	12314.44
474.57	12558.14
474.78	12595.01
474.99	12715.84
475.19	12447.55
475.40	12812.09
475.61	12814.14
475.81	12752.70
476.02	13352.76
476.23	12889.92
476.44	13131.58
476.64	13375.28
476.85	13526.83
477.06	13229.88
477.27	13528.88
477.47	13874.99
477.68	13836.08
477.89	13864.75
478.09	13762.35
478.30	13762.35
478.51	13915.95
478.71	14186.28
478.92	14206.76
479.13	14159.66
479.34	14436.13
479.54	14632.74
479.75	14528.29
479.96	14466.85
480.16	14640.93
480.37	14651.17
480.58	14927.64
480.78	15071.00
480.99	15124.25
481.20	15271.70
481.41	15214.36
481.61	15419.16
481.82	15572.75
482.03	15275.80
482.23	15472.40
482.44	15925.00
482.65	15849.23
482.85	15900.43
483.06	16129.80
483.27	16283.40
483.47	15949.58
483.68	16156.43
483.89	16060.17
484.09	16410.37
484.30	16604.93
484.51	16707.33
484.71	16578.31
484.92	16518.92
485.13	16992.00
485.33	16918.27
485.54	16961.28
485.75	17088.25
485.95	17223.42
486.16	17354.49
486.37	17506.04
486.57	17272.57
486.78	17383.16
486.98	17450.74
487.19	17696.50
487.40	17819.38
487.60	17835.76
487.81	18104.04
488.02	17968.88
488.22	18054.89
488.43	18099.95
488.64	18433.77
488.84	18153.20
489.05	18726.63
489.25	18591.46
489.46	18687.71
489.67	18853.60
489.87	18855.65
490.08	18935.52
490.29	18933.47
490.49	19363.54
490.70	19173.08
490.90	19285.72
491.11	19285.72
491.32	19406.55
491.52	19762.90
491.73	19517.14
491.94	19728.08
492.14	19617.49
492.35	19687.12
492.55	20027.09
492.76	20123.34
492.97	20387.53
493.17	20209.36
493.38	20506.31
493.58	20563.65
493.79	20577.99
494.00	20461.26
494.20	20727.49
494.41	20819.65
494.61	21102.27
494.82	20862.66
495.02	20932.29
495.23	21118.65
495.44	20917.95
495.64	21341.88
495.85	21499.58
496.05	21493.43
496.26	21649.08
496.47	21739.19
496.67	21321.40
496.88	21941.94
497.08	21747.38
497.29	21825.20
497.49	21919.41
497.70	22107.82
497.91	22197.93
498.11	22105.77
498.32	22286.00
498.52	22621.86
498.73	22933.15
498.93	22292.14
499.14	22890.15
499.34	22560.42
499.55	22861.48
499.76	22724.26
499.96	22738.60
500.17	22859.43
500.37	23277.21
500.58	23445.15
500.78	22980.26
500.99	23377.56
501.19	23518.87
501.40	23742.10
501.60	23076.51
501.81	23445.15
502.02	23260.83
502.22	23637.66
502.43	23752.34
502.63	23813.78
502.84	24213.13
503.04	23787.16
503.25	23721.62
503.45	24084.11
503.66	24362.64
503.86	24188.56
504.07	24450.70
504.27	24376.97
504.48	24258.19
504.68	24686.22
504.89	24899.20
505.09	24743.56
505.30	24854.15
505.50	25058.95
505.71	24907.40
505.91	24874.63
506.12	25251.45
506.32	25206.40
506.53	25212.54
506.73	25030.27
506.94	25314.94
507.14	25415.29
507.35	25613.95
507.55	25435.77
507.76	25114.24
507.96	25333.37
508.17	25673.34
508.37	25484.92
508.58	25540.22
508.78	25529.98
508.99	26060.40
509.19	25974.39
509.40	26224.24
509.60	25949.81
509.81	26209.90
510.01	26087.03
510.22	26123.89
510.42	26455.66
510.63	26633.83
510.83	26361.45
511.04	26535.53
511.24	26744.42
511.44	26445.42
511.65	26295.92
511.85	26588.78
512.06	26828.39
512.26	26867.30
512.47	27051.62
512.67	26721.90
512.88	26852.97
513.08	26470.00
513.29	27012.71
513.49	26852.97
513.69	26992.23
513.90	27215.46
514.10	27270.75
514.31	27278.94
514.51	27170.40
514.72	27289.18
514.92	27219.55
515.13	27268.70
515.33	27160.16
515.53	27358.81
515.74	27731.54
515.94	27723.35
516.15	27387.49
516.35	27737.69
516.56	27932.25
516.76	28008.02
516.96	27715.16
517.17	28294.74
517.37	27987.54
517.58	28276.30
517.78	28542.54
517.99	28427.85
518.19	28356.18
518.39	28116.56
518.60	28415.57
518.80	28261.97
519.01	28681.80
519.21	28638.80
519.41	28896.84
519.62	28784.20
519.82	28915.27
520.03	29054.53
520.23	28753.48
520.43	28782.15
520.64	29050.44
520.84	29531.71
521.05	29410.88
521.25	29097.54
521.45	29466.17
521.66	29605.44
521.86	29623.87
522.07	29546.05
522.27	29627.96
522.47	29838.90
522.68	29806.14
522.88	29900.34
523.08	30021.17
523.29	30060.09
523.49	30045.75
523.70	30256.69
523.90	30615.08
524.10	30230.07
524.31	30588.46
524.51	29935.16
524.71	31090.21
524.92	30670.38
525.12	30553.65
525.33	30684.72
525.53	30983.72
525.73	31198.76
525.94	31335.97
526.14	31202.85
526.34	31342.11
526.55	31520.29
526.75	31403.55
526.95	31315.49
527.16	31295.01
527.36	31458.85
527.56	31395.36
527.77	31952.41
527.97	31704.60
528.17	31835.67
528.38	31884.83
528.58	31999.51
528.78	32192.02
528.99	32165.40
529.19	32599.57
529.39	32278.04
529.60	32691.73
529.80	32450.06
530.00	32722.44
530.21	32450.06
530.41	32949.77
530.61	32767.50
530.82	32806.41
531.02	32808.46
531.22	33455.62
531.43	32767.50
531.63	33113.61
531.83	33277.44
532.04	33721.85
532.24	33404.42
532.44	33680.89
532.64	33781.24
532.85	33811.96
533.05	34129.40
533.25	33943.03
533.46	33818.11
533.66	34373.11
533.86	33936.89
534.07	34573.81
534.27	34332.15
534.47	34690.54
534.67	34772.46
534.88	34192.89
535.08	34831.85
535.28	34981.35
535.49	35216.87
535.69	35290.60
535.89	35093.99
536.09	35311.08
536.30	35309.03
536.50	35143.14
536.70	35667.42
536.91	35268.07
537.11	35913.18
537.31	35796.45
537.51	35790.30
537.72	36183.51
537.92	35794.40
538.12	36537.81
538.32	36023.77
538.53	36414.93
538.73	35948.00
538.93	36517.33
539.13	36181.46
539.34	36468.18
539.54	36724.18
539.74	36847.05
539.94	36935.12
540.15	36869.58
540.35	36976.08
540.55	36912.59
540.75	37156.30
540.96	37332.42
541.16	36924.88
541.36	37115.34
541.56	37180.87
541.77	37510.60
541.97	37426.63
542.17	37830.08
542.37	37787.07
542.58	37699.01
542.78	37746.11
542.98	37703.10
543.18	37780.93
543.38	38374.84
543.59	38118.84
543.79	38049.21
543.99	38006.20
544.19	38073.79
544.40	38012.35
544.60	38149.56
544.80	38383.03
545.00	38284.73
545.20	38880.69
545.41	38473.14
545.61	38661.55
545.81	38790.58
546.01	38825.39
546.21	38888.88
546.42	39022.00
546.62	39208.36
546.82	39187.88
547.02	39079.34
547.22	39040.43
547.43	38944.17
547.63	39568.80
547.83	39724.45
548.03	39138.73
548.23	39572.90
548.44	39523.75
548.64	39318.95
548.84	39773.60
549.04	39673.25
549.24	40015.26
549.45	39921.05
549.65	39921.05
549.85	39759.27
550.05	39951.77
550.25	39863.71
550.45	40490.39
550.66	40203.67
550.86	39859.62
551.06	40498.58
551.26	40469.91
551.46	40742.29
551.66	40908.18
551.87	40410.52
552.07	40398.23
552.27	40639.89
552.47	40793.49
552.67	40785.30
552.87	40545.69
553.07	41094.54
553.28	40908.18
553.48	40902.03
553.68	40971.66
553.88	41254.28
554.08	41190.80
554.28	41094.54
554.48	41065.87
554.69	41383.30
554.89	41217.42
555.09	41598.34
555.29	41307.53
555.49	41143.69
555.69	41381.26
555.89	41663.88
556.10	41883.01
556.30	41596.29
556.50	41629.06
556.70	41504.13
556.90	42016.13
557.10	41887.10
557.30	41735.56
557.50	42317.18
557.70	41923.97
557.91	42126.72
558.11	41999.74
558.31	42362.23
558.51	41950.59
558.71	42243.45
558.91	42397.05
559.11	42304.89
559.31	42243.45
559.51	42284.41
559.72	42288.51
559.92	42739.06
560.12	42104.19
560.32	42597.75
560.52	42616.18
560.72	42870.13
560.92	42855.79
561.12	43011.44
561.32	43222.38
561.52	42665.33
561.72	43351.40
561.93	42610.04
562.13	42956.14
562.33	42720.63
562.53	43316.59
562.73	42993.01
562.93	42962.29
563.13	43199.85
563.33	43267.44
563.53	43677.03
563.73	43122.03
563.93	43154.80
564.13	43930.98
564.33	43461.99
564.53	43531.62
564.74	43623.78
564.94	43593.06
565.14	43683.17
565.34	43279.72
565.54	43795.81
565.74	43941.22
565.94	44143.97
566.14	43980.13
566.34	43570.54
566.54	44203.36
566.74	43791.72
566.94	44127.58
567.14	44557.66
567.34	43578.73
567.54	44004.70
567.74	44332.38
567.94	43994.46
568.14	44209.50
568.34	44305.76
568.54	44277.08
568.74	44488.03
568.94	44082.53
569.14	44428.63
569.34	44385.63
569.54	44651.86
569.75	44436.83
569.95	44361.05
570.15	44485.98
570.35	44612.95
570.55	45071.70
570.75	44823.89
570.95	44928.34
571.15	45096.27
571.35	45333.84
571.55	44983.63
571.75	44911.95
571.95	44942.67
572.15	45057.36
572.35	45274.45
572.55	45419.85
572.75	45305.16
572.95	45374.80
573.15	45270.35
573.35	45342.03
573.55	45032.78
573.75	45548.87
573.95	45661.51
574.15	45194.57
574.35	45405.52
574.55	45524.30
574.75	45170.00
574.95	45679.94
575.15	45536.59
575.34	46021.95
575.54	45894.98
575.74	45989.19
575.94	45917.51
576.14	46120.26
576.34	45915.46
576.54	46085.44
576.74	46437.69
576.94	46230.85
577.14	46519.61
577.34	46497.08
577.54	45948.23
577.74	46153.02
577.94	46271.81
578.14	46470.46
578.34	46748.98
578.54	46306.62
578.74	46421.31
578.94	46216.51
579.14	46519.61
579.34	46525.75
579.54	46931.25
579.74	46916.92
579.94	46857.52
580.13	46855.48
580.33	47267.12
580.53	47017.27
580.73	47152.43
580.93	47349.04
581.13	47101.23
581.33	47668.52
581.53	47260.97
581.73	47387.95
581.93	47043.89
582.13	47351.09
582.33	47287.60
582.53	47480.11
582.73	47287.60
582.92	47437.10
583.12	47766.82
583.32	47660.33
583.52	47246.64
583.72	47889.70
583.92	47402.28
584.12	47805.73
584.32	48020.77
584.52	48299.30
584.72	47899.94
584.92	47748.39
585.11	48475.42
585.31	48170.27
585.51	48364.83
585.71	47996.20
585.91	48766.23
586.11	48207.14
586.31	48452.89
586.51	48461.08
586.71	48592.15
586.91	48454.94
587.10	48733.46
587.30	48788.76
587.50	48475.42
587.70	48880.92
587.90	48782.62
588.10	48979.22
588.30	48553.24
588.50	49310.99
