SpectraSuite Data File
++++++++++++++++++++++++++++++++++++
Date: Fri Jun 02 14:47:54 CEST 2017
User: INFO_000
Dark Spectrum Present: No
Reference Spectrum Present: No
Number of Sampled Component Spectra: 1
Spectrometers: USB4H00879
Integration Time (usec): 80000 (USB4H00879)
Spectra Averaged: 1 (USB4H00879)
Boxcar Smoothing: 0 (USB4H00879)
Correct for Electrical Dark: No (USB4H00879)
Strobe/Lamp Enabled: No (USB4H00879)
Correct for Detector Non-linearity: No (USB4H00879)
Correct for Stray Light: No (USB4H00879)
Number of Pixels in Processed Spectrum: 3648
>>>>>Begin Processed Spectral Data<<<<<
345.13	1224.69
345.34	1224.69
345.56	1224.69
345.78	1224.69
345.99	1255.40
346.21	1718.25
346.42	1710.05
346.64	1673.19
346.86	1787.88
347.07	1581.03
347.29	1687.53
347.50	1630.18
347.72	1665.00
347.94	1789.92
348.15	1640.42
348.37	1601.51
348.59	1691.62
348.80	1632.23
349.02	1730.53
349.23	1837.03
349.45	1667.05
349.67	1816.55
349.88	1748.97
350.10	1931.23
350.31	1769.44
350.53	1730.53
350.75	1927.14
350.96	1755.11
351.18	1826.79
351.39	1773.54
351.61	1781.73
351.82	1806.31
352.04	1839.08
352.26	1794.02
352.47	1843.17
352.69	1861.60
352.90	1714.15
353.12	1808.36
353.34	1787.88
353.55	1853.41
353.77	1869.80
353.98	1820.64
354.20	1869.80
354.41	1828.84
354.63	1839.08
354.85	2021.35
355.06	1783.78
355.28	1724.39
355.49	1808.36
355.71	1740.77
355.92	1855.46
356.14	1894.37
356.35	1759.21
356.57	1822.69
356.79	1898.47
357.00	1869.80
357.22	1933.28
357.43	1714.15
357.65	1920.99
357.86	1798.12
358.08	1898.47
358.29	1841.12
358.51	1955.81
358.72	1904.61
358.94	1857.51
359.16	1933.28
359.37	1880.04
359.59	1888.23
359.80	1970.15
360.02	1953.76
360.23	1920.99
360.45	1941.47
360.66	1920.99
360.88	1861.60
361.09	1820.64
361.31	1953.76
361.52	1849.32
361.74	1994.72
361.95	2021.35
362.17	1941.47
362.38	1966.05
362.60	1957.86
362.81	1974.24
363.03	1886.18
363.24	1894.37
363.46	2037.73
363.67	1966.05
363.89	1865.70
364.10	1992.67
364.32	1880.04
364.53	2007.01
364.75	1904.61
364.96	2027.49
365.18	1990.63
365.39	1980.39
365.61	1920.99
365.82	2047.97
366.04	2013.15
366.25	1880.04
366.47	2033.63
366.68	1966.05
366.90	1877.99
367.11	2013.15
367.33	2033.63
367.54	2052.06
367.76	1937.38
367.97	2056.16
368.19	1939.43
368.40	2076.64
368.62	1912.80
368.83	1951.71
369.05	2052.06
369.26	2017.25
369.48	1966.05
369.69	1929.19
369.91	2017.25
370.12	1961.95
370.33	2054.11
370.55	1972.19
370.76	1994.72
370.98	2064.35
371.19	2043.87
371.41	1982.43
371.62	2019.30
371.84	1931.23
372.05	2152.42
372.27	2017.25
372.48	2052.06
372.69	2115.55
372.91	2146.27
373.12	2088.93
373.34	2013.15
373.55	2072.54
373.77	2117.60
373.98	2035.68
374.20	2174.94
374.41	2269.15
374.62	2088.93
374.84	2109.41
375.05	2144.22
375.27	2158.56
375.48	2187.23
375.70	2111.46
375.91	2174.94
376.12	2297.82
376.34	2078.69
376.55	2078.69
376.77	2166.75
376.98	2097.12
377.19	2105.31
377.41	2164.70
377.62	2166.75
377.84	2201.57
378.05	2371.55
378.27	2146.27
378.48	2281.44
378.69	2275.29
378.91	2287.58
379.12	2213.85
379.34	2254.81
379.55	2293.72
379.76	2207.71
379.98	2254.81
380.19	2281.44
380.41	2183.13
380.62	2265.05
380.83	2189.28
381.05	2252.77
381.26	2418.65
381.47	2224.09
381.69	2236.38
381.90	2392.03
382.12	2322.40
382.33	2183.13
382.54	2322.40
382.76	2293.72
382.97	2365.40
383.19	2234.33
383.40	2410.46
383.61	2265.05
383.83	2295.77
384.04	2306.01
384.25	2346.97
384.47	2336.73
384.68	2338.78
384.89	2342.88
385.11	2312.16
385.32	2318.30
385.54	2289.63
385.75	2338.78
385.96	2449.37
386.18	2361.31
386.39	2414.56
386.60	2299.87
386.82	2435.03
387.03	2420.70
387.24	2494.43
387.46	2529.24
387.67	2396.12
387.88	2486.23
388.10	2516.95
388.31	2394.08
388.52	2496.47
388.74	2496.47
388.95	2404.32
389.16	2447.32
389.38	2519.00
389.59	2582.49
389.80	2529.24
390.02	2523.10
390.23	2551.77
390.44	2648.02
390.66	2570.20
390.87	2516.95
391.08	2600.92
391.30	2645.98
391.51	2660.31
391.72	2650.07
391.94	2553.82
392.15	2621.40
392.36	2592.73
392.58	2637.78
392.79	2609.11
393.00	2738.13
393.22	2756.57
393.43	2787.29
393.64	2793.43
393.85	2805.72
394.07	2650.07
394.28	2764.76
394.49	2707.41
394.71	2746.33
394.92	2838.48
395.13	2723.80
395.35	2736.09
395.56	2760.66
395.77	2822.10
395.98	2789.33
396.20	2861.01
396.41	2877.40
396.62	2881.49
396.84	2813.91
397.05	2756.57
397.26	2846.68
397.47	2936.79
397.69	2795.48
397.90	2914.26
398.11	2951.12
398.32	2887.64
398.54	2762.71
398.75	2930.64
398.96	2842.58
399.18	3045.33
399.39	2981.84
399.60	2992.08
399.81	2977.75
400.03	2885.59
400.24	3209.17
400.45	3006.42
400.66	3067.86
400.88	3100.62
401.09	3084.24
401.30	3125.20
401.51	3256.27
401.73	3035.09
401.94	3086.29
402.15	3155.92
402.36	3117.01
402.58	3145.68
402.79	3129.30
403.00	3176.40
403.21	3182.54
403.43	3205.07
403.64	3293.13
403.85	3194.83
404.06	3256.27
404.27	3149.78
404.49	3186.64
404.70	3157.97
404.91	3284.94
405.12	3258.32
405.34	3305.42
405.55	3377.10
405.76	3149.78
405.97	3223.50
406.19	3465.16
406.40	3192.78
406.61	3262.41
406.82	3295.18
407.03	3248.08
407.25	3260.37
407.46	3471.31
407.67	3375.05
407.88	3383.24
408.09	3348.43
408.31	3346.38
408.52	3262.41
408.73	3364.81
408.94	3260.37
409.15	3362.76
409.37	3477.45
409.58	3502.03
409.79	3477.45
410.00	3528.65
410.21	3485.64
410.43	3418.06
410.64	3321.81
410.85	3579.85
411.06	3442.64
411.27	3424.20
411.48	3596.23
411.70	3579.85
411.91	3561.42
412.12	3608.52
412.33	3622.86
412.54	3512.27
412.76	3653.58
412.97	3649.48
413.18	3493.83
413.39	3665.86
413.60	3717.06
413.81	3690.44
414.03	3594.19
414.24	3583.95
414.45	3829.70
414.66	3643.34
414.87	3612.62
415.08	3645.38
415.30	3715.02
415.51	3770.31
415.72	3651.53
415.93	3784.65
416.14	3706.82
416.35	3680.20
416.56	3895.24
416.78	3821.51
416.99	3833.80
417.20	3878.85
417.41	3905.48
417.62	3915.72
417.83	3897.28
418.04	3841.99
418.26	3960.77
418.47	3909.57
418.68	3958.72
418.89	3954.63
419.10	4065.22
419.31	3952.58
419.52	4020.16
419.73	3964.87
419.95	4038.59
420.16	4052.93
420.37	3962.82
420.58	4075.46
420.79	4001.73
421.00	4071.36
421.21	4136.90
421.42	4108.23
421.63	4091.84
421.85	4011.97
422.06	4157.38
422.27	4208.58
422.48	4284.35
422.69	4220.86
422.90	4300.73
423.11	4198.34
423.32	4304.83
423.53	4435.90
423.75	4247.49
423.96	4489.15
424.17	4396.99
424.38	4460.48
424.59	4372.41
424.80	4454.33
425.01	4497.34
425.22	4353.98
425.43	4364.22
425.64	4468.67
425.85	4622.27
426.06	4476.86
426.28	4599.74
426.49	4394.94
426.70	4521.92
426.91	4546.49
427.12	4636.60
427.33	4648.89
427.54	4585.40
427.75	4804.53
427.96	4730.81
428.17	4673.46
428.38	4716.47
428.59	4835.25
428.80	4693.94
429.01	4816.82
429.23	4796.34
429.44	4921.27
429.65	4837.30
429.86	4988.85
430.07	4886.45
430.28	4892.60
430.49	4853.69
430.70	5003.19
430.91	5107.63
431.12	4978.61
431.33	5097.39
431.54	5095.35
431.75	5185.46
431.96	4949.94
432.17	5015.48
432.38	5142.45
432.59	5291.95
432.80	5298.10
433.01	5160.88
433.22	5152.69
433.43	5287.86
433.64	5253.04
433.85	5195.70
434.06	5394.35
434.27	5185.46
434.49	5412.78
434.70	5375.92
434.91	5427.12
435.12	5343.15
435.33	5345.20
435.54	5509.04
435.75	5210.03
435.96	5439.40
436.17	5412.78
436.38	5568.43
436.59	5644.20
436.80	5416.88
437.01	5840.81
437.22	5652.39
437.43	5552.04
437.64	5506.99
437.85	5631.91
438.06	5674.92
438.27	5519.28
438.48	5765.03
438.69	5875.62
438.90	5795.75
439.11	5781.42
439.32	5820.33
439.53	5760.94
439.74	5808.04
439.95	5842.85
440.16	5955.49
440.37	5814.18
440.57	5730.22
440.78	5892.01
440.99	5941.16
441.20	5830.57
441.41	5877.67
441.62	5957.54
441.83	5803.94
442.04	6168.48
442.25	6061.99
442.46	6043.56
442.67	6223.78
442.88	6485.92
443.09	6133.67
443.30	6131.62
443.51	6127.52
443.72	6457.25
443.93	6156.19
444.14	6293.41
444.35	6098.85
444.56	6289.31
444.77	6332.32
444.98	6211.49
445.19	6358.94
445.40	6182.82
445.61	6338.46
445.81	6432.67
446.02	6428.57
446.23	6447.01
446.44	6270.88
446.65	6467.49
446.86	6432.67
447.07	6414.24
447.28	6746.01
447.49	6541.21
447.70	6623.13
447.91	6518.68
448.12	6561.69
448.33	6707.10
448.54	6678.43
448.74	6772.63
448.95	6684.57
449.16	6829.98
449.37	7026.58
449.58	6703.00
449.79	6959.00
450.00	6748.06
450.21	7098.26
450.42	6989.72
450.63	6897.56
450.84	6922.13
451.05	6995.86
451.25	7061.40
451.46	6821.78
451.67	7231.38
451.88	7301.01
452.09	7112.60
452.30	7126.93
452.51	7083.92
452.72	7157.65
452.93	7364.50
453.13	7081.88
453.34	7184.27
453.55	7055.25
453.76	7233.43
453.97	7823.24
454.18	7180.18
454.39	7446.41
454.60	7384.98
454.81	7329.68
455.01	7782.28
455.22	7475.09
455.43	7421.84
455.64	7608.20
455.85	7837.58
456.06	7921.54
456.27	7737.23
456.48	7694.22
456.68	7759.75
456.89	7860.10
457.10	7919.50
457.31	7978.89
457.52	7810.95
457.73	7958.41
457.94	8146.82
458.14	8064.90
458.35	8204.16
458.56	8025.99
458.77	7995.27
458.98	8095.62
459.19	8368.00
459.39	8269.70
459.60	8494.97
459.81	8277.89
460.02	8339.33
460.23	8515.45
460.44	8669.05
460.65	8675.20
460.85	8531.84
461.06	8568.70
461.27	8417.15
461.48	8912.76
461.69	9066.36
461.89	8517.50
462.10	8718.20
462.31	8683.39
462.52	8753.02
462.73	8861.56
462.94	8976.25
463.14	9025.40
463.35	8996.73
463.56	9201.52
463.77	9441.14
463.98	8990.58
464.18	9148.28
464.39	9326.45
464.60	9592.69
464.81	9598.83
465.02	9400.18
465.23	9766.76
465.43	9496.43
465.64	9719.66
465.85	9662.32
466.06	9613.17
466.27	10149.73
466.47	9910.12
466.68	9944.94
466.89	9781.10
467.10	10059.62
467.30	9918.31
467.51	10207.08
467.72	10325.86
467.93	9838.44
468.14	10221.41
468.34	10420.06
468.55	10461.02
468.76	10522.46
468.97	10489.70
469.17	10504.03
469.38	10616.67
469.59	10837.85
469.80	10723.16
470.01	10757.98
470.21	10909.53
470.42	11165.53
470.63	11192.15
470.84	10768.22
471.04	11011.93
471.25	11124.57
471.46	11034.46
471.67	11546.45
471.87	11497.30
472.08	11525.97
472.29	11732.81
472.50	11376.47
472.70	11550.54
472.91	11775.82
473.12	11880.27
473.33	11900.75
473.53	12246.85
473.74	11898.70
473.95	12269.38
474.16	12324.68
474.36	12365.64
474.57	12502.85
474.78	12453.70
474.99	12488.51
475.19	12275.52
475.40	12971.83
475.61	12980.03
475.81	12951.35
476.02	13184.82
476.23	13123.38
476.44	13082.42
476.64	13481.78
476.85	13502.26
477.06	13287.22
477.27	13559.60
477.47	13844.27
477.68	13594.42
477.89	13926.19
478.09	13981.48
478.30	13741.87
478.51	13965.10
478.71	14059.31
478.92	14165.80
479.13	14219.05
479.34	14458.66
479.54	14370.60
479.75	14491.43
479.96	14626.59
480.16	14634.78
480.37	14716.70
480.58	15011.61
480.78	15095.58
480.99	14968.60
481.20	14870.30
481.41	15372.05
481.61	15449.88
481.82	15472.40
482.03	15423.25
482.23	15546.13
482.44	15681.30
482.65	16013.07
482.85	16002.83
483.06	15998.73
483.27	16045.84
483.47	16056.08
483.68	16015.12
483.89	16236.30
484.09	16273.16
484.30	16453.38
484.51	16723.71
484.71	16713.47
484.92	16776.96
485.13	16807.68
485.33	17086.20
485.54	16797.44
485.75	17211.13
485.95	17256.18
486.16	17080.06
486.37	17465.08
486.57	17196.79
486.78	17442.55
486.98	17622.77
487.19	17551.09
487.40	17776.37
487.60	17571.57
487.81	18089.71
488.02	17923.82
488.22	17968.88
488.43	18319.08
488.64	18210.54
488.84	18323.18
489.05	18570.98
489.25	18249.45
489.46	18657.00
489.67	18671.33
489.87	18736.87
490.08	18919.14
490.29	18826.98
490.49	19482.33
490.70	19117.79
490.90	19158.75
491.11	19259.10
491.32	19381.98
491.52	19652.31
491.73	19359.45
491.94	19674.84
492.14	19572.44
492.35	19979.98
492.55	20043.47
492.76	20203.21
492.97	20096.72
493.17	20176.59
493.38	20096.72
493.58	20698.82
493.79	20395.72
494.00	20510.41
494.20	20481.74
494.41	20594.37
494.61	20723.40
494.82	20686.53
495.02	20645.57
495.23	21032.64
495.44	21042.88
495.64	21436.09
495.85	21176.00
496.05	21319.35
496.26	21362.36
496.47	21739.19
496.67	21470.90
496.88	21968.56
497.08	21720.76
497.29	21382.84
497.49	21798.58
497.70	22015.66
497.91	22009.52
498.11	22245.04
498.32	22116.01
498.52	22490.79
498.73	22507.18
498.93	22621.86
499.14	22679.21
499.34	22433.45
499.55	22869.67
499.76	22654.63
499.96	23090.85
500.17	22937.25
500.37	23123.62
500.58	23002.78
500.78	23074.46
500.99	23273.12
501.19	23350.94
501.40	23482.01
501.60	23332.51
501.81	23527.06
502.02	23797.40
502.22	23695.00
502.43	23912.08
502.63	23903.89
502.84	23948.95
503.04	24008.34
503.25	23809.68
503.45	24153.74
503.66	24327.82
503.86	24352.40
504.07	24082.06
504.27	24202.89
504.48	24823.43
504.68	24977.03
504.89	25046.66
505.09	24960.64
505.30	24903.30
505.50	24942.21
505.71	24854.15
505.91	25241.21
506.12	24749.70
506.32	25056.90
506.53	25101.95
506.73	25132.67
506.94	25484.92
507.14	25167.49
507.35	25323.13
507.55	25874.04
507.76	25523.83
507.96	25579.13
508.17	25720.44
508.37	25661.05
508.58	25765.49
508.78	25601.66
508.99	25992.82
509.19	25806.45
509.40	26144.37
509.60	26035.83
509.81	26236.53
510.01	25998.96
510.22	26414.70
510.42	26404.46
510.63	26418.80
510.83	26234.48
511.04	26422.89
511.24	26531.44
511.44	26513.00
511.65	26685.03
511.85	26543.72
512.06	26660.46
512.26	26451.56
512.47	27213.41
512.67	26932.84
512.88	26826.34
513.08	26658.41
513.29	26664.55
513.49	27070.05
513.69	27047.52
513.90	26906.21
514.10	27061.86
514.31	27184.74
514.51	27303.52
514.72	27139.68
514.92	27137.63
515.13	27295.33
515.33	27479.64
515.53	27629.15
515.74	27655.77
515.94	27647.58
516.15	27588.19
516.35	27512.41
516.56	27784.79
516.76	27633.24
516.96	27625.05
517.17	28165.71
517.37	28218.96
517.58	27885.14
517.78	28292.69
517.99	28180.05
518.19	28139.09
518.39	28755.53
518.60	28257.87
518.80	28413.52
519.01	28464.72
519.21	28374.61
519.41	28563.02
519.62	28814.92
519.82	28468.81
520.03	28933.70
520.23	28778.06
520.43	28659.27
520.64	29089.35
520.84	28978.76
521.05	29015.62
521.25	29161.03
521.45	29021.77
521.66	29572.67
521.86	29179.46
522.07	29306.43
522.27	29666.88
522.47	29412.93
522.68	29670.97
522.88	29922.87
523.08	29617.72
523.29	29726.27
523.49	29967.93
523.70	29926.97
523.90	29994.55
524.10	29951.54
524.31	30086.71
524.51	29892.15
524.71	30576.17
524.92	30690.86
525.12	30398.00
525.33	30426.67
525.53	30684.72
525.73	30895.66
525.94	30621.23
526.14	30862.89
526.34	30950.95
526.55	30838.31
526.75	31223.33
526.95	31405.60
527.16	31217.19
527.36	31024.68
527.56	31209.00
527.77	31823.39
527.97	31514.14
528.17	31510.05
528.38	31467.04
528.58	31960.60
528.78	31938.07
528.99	31796.76
529.19	32056.85
529.39	31591.97
529.60	32452.11
529.80	32302.61
530.00	32069.14
530.21	32687.63
530.41	32615.95
530.61	32867.85
530.82	32738.83
531.02	32677.39
531.22	33031.69
531.43	32634.38
531.63	33048.07
531.83	33463.81
532.04	33693.18
532.24	33410.56
532.44	33396.23
532.64	33580.54
532.85	33836.54
533.05	33807.87
533.25	33938.94
533.46	34092.54
533.66	34260.47
533.86	34061.82
534.07	34018.81
534.27	34242.04
534.47	34829.80
534.67	34631.15
534.88	34424.31
535.08	34852.33
535.28	35059.18
535.49	35014.12
535.69	35024.36
535.89	35220.97
536.09	35288.55
536.30	35544.55
536.50	35472.87
536.70	35591.65
536.91	35841.50
537.11	35845.60
537.31	35859.93
537.51	35882.46
537.72	36021.72
537.92	36214.23
538.12	36459.99
538.32	36459.99
538.53	36761.04
538.73	36570.58
538.93	36492.76
539.13	36328.92
539.34	36724.18
539.54	36564.43
539.74	37246.41
539.94	37146.06
540.15	36738.51
540.35	37416.39
540.55	37174.73
540.75	37125.58
540.96	37625.28
541.16	37123.53
541.36	37496.26
541.56	37557.70
541.77	37963.20
541.97	37856.70
542.17	37803.46
542.37	37901.76
542.58	37762.50
542.78	37918.14
542.98	38028.73
543.18	38307.26
543.38	38884.78
543.59	38559.16
543.79	38174.14
543.99	38487.48
544.19	38407.61
544.40	38679.99
544.60	39058.86
544.80	38743.47
545.00	39032.24
545.20	39101.87
545.41	38983.09
545.61	38878.64
545.81	39196.07
546.01	39450.02
546.21	39345.58
546.42	39347.62
546.62	39703.97
546.82	39034.28
547.02	39237.03
547.22	39763.36
547.43	39407.01
547.63	39456.17
547.83	39773.60
548.03	39685.54
548.23	39691.68
548.44	39876.00
548.64	40201.63
548.84	40048.03
549.04	40289.69
549.24	40043.93
549.45	40752.53
549.65	40246.68
549.85	40269.21
550.05	40568.21
550.25	40086.94
550.45	40822.16
550.66	40349.08
550.86	40471.96
551.06	40650.13
551.26	40451.48
551.46	40826.26
551.66	40717.71
551.87	40813.97
552.07	41022.86
552.27	40730.00
552.47	41188.75
552.67	41325.96
552.87	40850.83
553.07	40613.27
553.28	41051.53
553.48	41248.14
553.68	41350.54
553.88	41442.70
554.08	41139.60
554.28	41188.75
554.48	41076.11
554.69	41661.83
554.89	41657.73
555.09	41624.96
555.29	41100.68
555.49	41706.88
555.69	41362.82
555.89	41444.74
556.10	41889.15
556.30	41215.37
556.50	41819.52
556.70	41477.51
556.90	41311.63
557.10	42243.45
557.30	41590.15
557.50	41846.15
557.70	41962.88
557.91	42306.94
558.11	42130.81
558.31	42030.46
558.51	41479.56
558.71	42190.20
558.91	41942.40
559.11	41680.26
559.31	41891.20
559.51	41809.28
559.72	42284.41
559.92	42151.29
560.12	42026.37
560.32	42448.25
560.52	41868.67
560.72	42487.16
560.92	42483.06
561.12	42100.09
561.32	42759.54
561.52	42376.57
561.72	42726.77
561.93	42272.12
562.13	42902.90
562.33	42575.22
562.53	43017.58
562.73	42583.41
562.93	42659.19
563.13	42724.72
563.33	42476.92
563.53	42890.61
563.73	42679.67
563.93	42782.07
564.13	43435.37
564.33	42978.67
564.53	43093.36
564.74	43455.85
564.94	43138.41
565.14	42900.85
565.34	42700.15
565.54	43029.87
565.74	43177.33
565.94	43146.61
566.14	43046.26
566.34	43453.80
566.54	43662.69
566.74	43212.14
566.94	43300.20
567.14	43523.43
567.34	43406.70
567.54	43611.49
567.74	43279.72
567.94	43283.82
568.14	43701.61
568.34	43443.56
568.54	43644.26
568.74	44062.05
568.94	43900.26
569.14	43883.87
569.34	43887.97
569.54	43840.87
569.75	43896.16
569.95	43773.28
570.15	44225.89
570.35	43980.13
570.55	44125.53
570.75	44037.47
570.95	44033.38
571.15	44492.12
571.35	44522.84
571.55	44301.66
571.75	44197.21
571.95	44107.10
572.15	44326.24
572.35	44997.97
572.55	44764.50
572.75	44795.22
572.95	44610.90
573.15	44793.17
573.35	44676.44
573.55	44891.48
573.75	44774.74
573.95	44885.33
574.15	45139.28
574.35	45108.56
574.55	45286.73
574.75	44518.74
574.95	44924.24
575.15	44909.91
575.34	45032.78
575.54	45319.50
575.74	45266.25
575.94	45561.16
576.14	45450.57
576.34	45847.88
576.54	45753.67
576.74	45800.77
576.94	45284.68
577.14	45815.11
577.34	46484.79
577.54	45653.32
577.74	45878.60
577.94	46009.67
578.14	45991.23
578.34	46593.34
578.54	45675.85
578.74	45995.33
578.94	46888.24
579.14	46060.87
579.34	46554.43
579.54	46630.20
579.74	46658.87
579.94	46314.81
580.13	47002.93
580.33	46730.55
580.53	46964.02
580.73	46765.37
580.93	46843.19
581.13	46998.83
581.33	47254.83
581.53	47101.23
581.73	47351.09
581.93	47381.80
582.13	47154.48
582.33	47525.16
582.53	47101.23
582.73	47523.11
582.92	47822.12
583.12	47789.35
583.32	47346.99
583.52	47150.38
583.72	47809.83
583.92	47842.60
584.12	47838.50
584.32	48420.13
584.52	48071.97
584.72	48049.44
584.92	48295.20
585.11	48633.11
585.31	47754.54
585.51	48438.56
585.71	48004.39
585.91	48633.11
586.11	48518.43
586.31	48487.71
586.51	48842.01
586.71	48428.32
586.91	48772.38
587.10	48776.47
587.30	48600.35
587.50	49116.43
587.70	48524.57
587.90	48907.54
588.10	49151.25
588.30	48813.34
588.50	49278.22
