SpectraSuite Data File
++++++++++++++++++++++++++++++++++++
Date: Fri Jun 02 14:47:58 CEST 2017
User: INFO_000
Dark Spectrum Present: No
Reference Spectrum Present: No
Number of Sampled Component Spectra: 1
Spectrometers: USB4H00879
Integration Time (usec): 80000 (USB4H00879)
Spectra Averaged: 1 (USB4H00879)
Boxcar Smoothing: 0 (USB4H00879)
Correct for Electrical Dark: No (USB4H00879)
Strobe/Lamp Enabled: No (USB4H00879)
Correct for Detector Non-linearity: No (USB4H00879)
Correct for Stray Light: No (USB4H00879)
Number of Pixels in Processed Spectrum: 3648
>>>>>Begin Processed Spectral Data<<<<<
345.13	1327.08
345.34	1327.08
345.56	1327.08
345.78	1234.93
345.99	1236.97
346.21	1714.15
346.42	1683.43
346.64	1585.13
346.86	1787.88
347.07	1644.52
347.29	1730.53
347.50	1601.51
347.72	1703.91
347.94	1720.29
348.15	1550.31
348.37	1662.95
348.59	1671.14
348.80	1703.91
349.02	1808.36
349.23	1796.07
349.45	1796.07
349.67	1884.13
349.88	1748.97
350.10	1935.33
350.31	1834.98
350.53	1759.21
350.75	1992.67
350.96	1716.20
351.18	1890.28
351.39	1806.31
351.61	1798.12
351.82	1826.79
352.04	1908.71
352.26	1843.17
352.47	1896.42
352.69	1902.56
352.90	1830.88
353.12	1863.65
353.34	1834.98
353.55	1900.52
353.77	1863.65
353.98	1839.08
354.20	1884.13
354.41	1937.38
354.63	1980.39
354.85	1951.71
355.06	1869.80
355.28	1816.55
355.49	1834.98
355.71	1886.18
355.92	1920.99
356.14	1888.23
356.35	1888.23
356.57	1828.84
356.79	1959.91
357.00	1826.79
357.22	2015.20
357.43	1839.08
357.65	1925.09
357.86	1933.28
358.08	1986.53
358.29	1927.14
358.51	2007.01
358.72	2021.35
358.94	1923.04
359.16	1949.67
359.37	1871.84
359.59	1859.56
359.80	1945.57
360.02	1974.24
360.23	1998.82
360.45	1988.58
360.66	1968.10
360.88	1918.95
361.09	1916.90
361.31	1929.19
361.52	2031.58
361.74	2009.06
361.95	2080.74
362.17	1970.15
362.38	2015.20
362.60	1994.72
362.81	2002.91
363.03	2000.87
363.24	1957.86
363.46	2090.98
363.67	2045.92
363.89	1943.52
364.10	2058.21
364.32	2013.15
364.53	2121.70
364.75	1871.84
364.96	2060.26
365.18	2054.11
365.39	2035.68
365.61	1964.00
365.82	2158.56
366.04	2086.88
366.25	1959.91
366.47	2074.59
366.68	2101.22
366.90	2015.20
367.11	2041.82
367.33	2050.02
367.54	2150.37
367.76	2000.87
367.97	2090.98
368.19	2060.26
368.40	2084.83
368.62	2007.01
368.83	1959.91
369.05	2054.11
369.26	1982.43
369.48	1986.53
369.69	1961.95
369.91	2146.27
370.12	2011.11
370.33	2047.97
370.55	2007.01
370.76	2054.11
370.98	2119.65
371.19	2047.97
371.41	2084.83
371.62	2035.68
371.84	2052.06
372.05	2148.32
372.27	2074.59
372.48	2045.92
372.69	2054.11
372.91	2111.46
373.12	2193.37
373.34	2101.22
373.55	2127.84
373.77	2220.00
373.98	2070.50
374.20	2172.89
374.41	2125.79
374.62	2150.37
374.84	2156.51
375.05	2140.13
375.27	2154.46
375.48	2131.94
375.70	2234.33
375.91	2172.89
376.12	2289.63
376.34	2148.32
376.55	2144.22
376.77	2136.03
376.98	2164.70
377.19	2125.79
377.41	2099.17
377.62	2246.62
377.84	2238.43
378.05	2365.40
378.27	2140.13
378.48	2263.01
378.69	2392.03
378.91	2283.49
379.12	2234.33
379.34	2133.98
379.55	2256.86
379.76	2160.61
379.98	2140.13
380.19	2269.15
380.41	2248.67
380.62	2340.83
380.83	2269.15
381.05	2191.33
381.26	2342.88
381.47	2234.33
381.69	2244.57
381.90	2330.59
382.12	2275.29
382.33	2387.93
382.54	2283.49
382.76	2396.12
382.97	2369.50
383.19	2252.77
383.40	2377.69
383.61	2420.70
383.83	2336.73
384.04	2351.07
384.25	2349.02
384.47	2365.40
384.68	2389.98
384.89	2351.07
385.11	2285.53
385.32	2451.42
385.54	2336.73
385.75	2320.35
385.96	2398.17
386.18	2432.99
386.39	2389.98
386.60	2324.44
386.82	2308.06
387.03	2418.65
387.24	2469.85
387.46	2357.21
387.67	2475.99
387.88	2559.96
388.10	2349.02
388.31	2389.98
388.52	2562.01
388.74	2525.15
388.95	2535.39
389.16	2557.91
389.38	2445.27
389.59	2568.15
389.80	2574.30
390.02	2572.25
390.23	2613.21
390.44	2545.63
390.66	2613.21
390.87	2381.79
391.08	2543.58
391.30	2666.46
391.51	2650.07
391.72	2650.07
391.94	2682.84
392.15	2600.92
392.36	2637.78
392.58	2643.93
392.79	2670.55
393.00	2682.84
393.22	2695.13
393.43	2725.85
393.64	2725.85
393.85	2662.36
394.07	2707.41
394.28	2605.02
394.49	2641.88
394.71	2822.10
394.92	2875.35
395.13	2775.00
395.35	2699.22
395.56	2770.90
395.77	2764.76
395.98	2789.33
396.20	2781.14
396.41	2852.82
396.62	2824.15
396.84	2875.35
397.05	2805.72
397.26	2932.69
397.47	2957.27
397.69	2785.24
397.90	2965.46
398.11	2826.20
398.32	2893.78
398.54	2836.44
398.75	2891.73
398.96	2854.87
399.18	3016.66
399.39	2953.17
399.60	3010.51
399.81	2873.30
400.03	2908.12
400.24	3133.39
400.45	3000.27
400.66	3016.66
400.88	2961.36
401.09	3147.73
401.30	2987.99
401.51	3069.91
401.73	3102.67
401.94	3174.35
402.15	3117.01
402.36	3157.97
402.58	3112.91
402.79	3135.44
403.00	3186.64
403.21	3112.91
403.43	3252.17
403.64	3297.23
403.85	2990.03
404.06	3325.90
404.27	3049.43
404.49	3217.36
404.70	3135.44
404.91	3205.07
405.12	3270.61
405.34	3291.09
405.55	3313.61
405.76	3180.50
405.97	3188.69
406.19	3413.96
406.40	3170.26
406.61	3141.58
406.82	3379.15
407.03	3225.55
407.25	3368.91
407.46	3389.39
407.67	3336.14
407.88	3442.64
408.09	3479.50
408.31	3405.77
408.52	3286.99
408.73	3399.63
408.94	3385.29
409.15	3420.11
409.37	3522.51
409.58	3373.00
409.79	3459.02
410.00	3489.74
410.21	3463.12
410.43	3553.23
410.64	3444.68
410.85	3499.98
411.06	3491.79
411.27	3567.56
411.48	3534.79
411.70	3430.35
411.91	3629.00
412.12	3571.66
412.33	3555.27
412.54	3622.86
412.76	3616.71
412.97	3542.99
413.18	3473.36
413.39	3669.96
413.60	3710.92
413.81	3561.42
414.03	3579.85
414.24	3534.79
414.45	3819.46
414.66	3633.10
414.87	3657.67
415.08	3692.49
415.30	3665.86
415.51	3682.25
415.72	3704.78
415.93	3608.52
416.14	3702.73
416.35	3776.45
416.56	3778.50
416.78	3862.47
416.99	3823.56
417.20	3809.22
417.41	3864.52
417.62	3864.52
417.83	3934.15
418.04	3788.74
418.26	3987.40
418.47	3872.71
418.68	4018.11
418.89	3975.11
419.10	4169.66
419.31	4016.07
419.52	3989.44
419.73	4075.46
419.95	4149.18
420.16	3825.61
420.37	4038.59
420.58	3999.68
420.79	3930.05
421.00	4046.79
421.21	4071.36
421.42	4011.97
421.63	4040.64
421.85	4026.31
422.06	4165.57
422.27	4073.41
422.48	4186.05
422.69	4235.20
422.90	4114.37
423.11	4267.97
423.32	4208.58
423.53	4409.28
423.75	4325.31
423.96	4409.28
424.17	4333.50
424.38	4560.83
424.59	4421.56
424.80	4640.70
425.01	4333.50
425.22	4382.65
425.43	4382.65
425.64	4601.79
425.85	4657.08
426.06	4452.28
426.28	4612.03
426.49	4530.11
426.70	4503.48
426.91	4497.34
427.12	4587.45
427.33	4630.46
427.54	4575.16
427.75	4673.46
427.96	4765.62
428.17	4624.31
428.38	4718.52
428.59	4911.03
428.80	4779.96
429.01	4728.76
429.23	4628.41
429.44	4980.66
429.65	4872.12
429.86	4984.76
430.07	4802.49
430.28	4827.06
430.49	4943.80
430.70	5117.87
430.91	5015.48
431.12	4894.65
431.33	5081.01
431.54	5246.90
431.75	5050.29
431.96	5220.27
432.17	5124.02
432.38	5003.19
432.59	5461.93
432.80	5308.34
433.01	5173.17
433.22	5302.19
433.43	5205.94
433.64	5246.90
433.85	5232.56
434.06	5187.50
434.27	5193.65
434.49	5435.31
434.70	5492.65
434.91	5474.22
435.12	5349.29
435.33	5580.71
435.54	5339.05
435.75	5289.90
435.96	5543.85
436.17	5361.58
436.38	5593.00
436.59	5613.48
436.80	5550.00
437.01	5760.94
437.22	5826.47
437.43	5646.25
437.64	5515.18
437.85	5887.91
438.06	5771.18
438.27	5574.57
438.48	5691.31
438.69	5840.81
438.90	5728.17
439.11	5603.24
439.32	5873.57
439.53	5840.81
439.74	5820.33
439.95	5988.26
440.16	5916.58
440.37	5947.30
440.57	5709.74
440.78	6004.64
440.99	5889.96
441.20	5906.34
441.41	5754.79
441.62	5984.16
441.83	5750.70
442.04	6021.03
442.25	6176.67
442.46	5928.87
442.67	6137.76
442.88	6557.60
443.09	5871.53
443.30	6107.04
443.51	6047.65
443.72	6389.66
443.93	6170.53
444.14	6410.14
444.35	6074.28
444.56	6270.88
444.77	6293.41
444.98	6326.18
445.19	6317.98
445.40	6227.87
445.61	6307.74
445.81	6401.95
446.02	6483.87
446.23	6500.25
446.44	6356.90
446.65	6582.17
446.86	6438.81
447.07	6573.98
447.28	6762.39
447.49	6840.22
447.70	6643.61
447.91	6623.13
448.12	6698.91
448.33	6752.15
448.54	6827.93
448.74	6483.87
448.95	6614.94
449.16	6670.23
449.37	7016.34
449.58	6684.57
449.79	7047.06
450.00	6731.67
450.21	6907.80
450.42	6918.04
450.63	7010.20
450.84	6862.74
451.05	6991.77
451.25	6872.98
451.46	6907.80
451.67	7194.51
451.88	7163.79
452.09	7188.37
452.30	7186.32
452.51	7063.44
452.72	7350.16
452.93	7368.59
453.13	7049.11
453.34	7104.40
453.55	7348.11
453.76	7126.93
453.97	7593.87
454.18	7532.43
454.39	7458.70
454.60	7409.55
454.81	7393.17
455.01	7632.78
455.22	7364.50
455.43	7434.13
455.64	7751.56
455.85	7874.44
456.06	7866.25
456.27	7710.60
456.48	7589.77
456.68	7696.27
456.89	7739.27
457.10	7987.08
457.31	7796.62
457.52	7911.30
457.73	7790.47
457.94	8206.21
458.14	7921.54
458.35	8294.27
458.56	8243.07
458.77	7931.78
458.98	8335.23
459.19	8126.34
459.39	8304.51
459.60	8390.53
459.81	8284.03
460.02	8529.79
460.23	8384.38
460.44	8630.14
460.65	8564.61
460.85	8564.61
461.06	8585.08
461.27	8341.38
461.48	8888.18
461.69	8789.88
461.89	8609.66
462.10	8857.46
462.31	8640.38
462.52	8834.94
462.73	8871.80
462.94	9185.14
463.14	9138.04
463.35	9111.41
463.56	9291.63
463.77	9052.02
463.98	9101.17
464.18	9154.42
464.39	9299.83
464.60	9547.63
464.81	9455.47
465.02	9324.40
465.23	9621.36
465.43	9414.51
465.64	9770.86
465.85	9695.08
466.06	9564.01
466.27	9738.09
466.47	9981.80
466.68	9996.14
466.89	9940.84
467.10	10026.86
467.30	9871.21
467.51	10149.73
467.72	10213.22
467.93	9873.26
468.14	10383.20
468.34	10499.94
468.55	10442.59
468.76	10405.73
468.97	10164.07
469.17	10473.31
469.38	10598.24
469.59	10925.91
469.80	10766.17
470.01	10821.47
470.21	10948.44
470.42	11018.07
470.63	11161.43
470.84	11044.70
471.04	11208.53
471.25	11304.79
471.46	11177.81
471.67	11480.91
471.87	11450.19
472.08	11525.97
472.29	11595.60
472.50	11415.38
472.70	11460.43
472.91	11530.06
473.12	11880.27
473.33	12054.34
473.53	12048.20
473.74	12052.30
473.95	12281.67
474.16	12339.01
474.36	12463.94
474.57	12562.24
474.78	12705.60
474.99	12320.58
475.19	12500.80
475.40	12754.75
475.61	12773.18
475.81	13125.43
476.02	13205.30
476.23	13125.43
476.44	13254.45
476.64	13283.13
476.85	13565.74
477.06	13438.77
477.27	13653.81
477.47	13762.35
477.68	13723.44
477.89	13774.64
478.09	13950.76
478.30	14038.83
478.51	13950.76
478.71	14161.70
478.92	14268.20
479.13	14491.43
479.34	14473.00
479.54	14597.92
479.75	14559.01
479.96	14737.18
480.16	14800.67
480.37	14853.92
480.58	14872.35
480.78	15083.29
480.99	15253.27
481.20	15277.85
481.41	15453.97
481.61	15718.16
481.82	15781.65
482.03	15353.62
482.23	16064.27
482.44	15963.92
482.65	15982.35
482.85	15927.05
483.06	15916.81
483.27	16307.98
483.47	16148.23
483.68	16158.47
483.89	16430.85
484.09	16449.28
484.30	16547.59
484.51	17086.20
484.71	16908.03
484.92	16781.06
485.13	17096.44
485.33	17467.13
485.54	17012.48
485.75	17174.27
485.95	17247.99
486.16	17319.67
486.37	17583.86
486.57	17512.18
486.78	17618.68
486.98	17868.53
487.19	17936.11
487.40	18233.07
487.60	17938.16
487.81	18046.70
488.02	18128.62
488.22	18194.15
488.43	18366.18
488.64	18433.77
488.84	18458.34
489.05	18644.71
489.25	18712.29
489.46	18917.09
489.67	18749.15
489.87	19109.60
490.08	19152.60
490.29	18826.98
490.49	19478.23
490.70	19371.74
490.90	19537.62
491.11	19521.24
491.32	19355.35
491.52	19586.77
491.73	19721.94
491.94	19560.15
492.14	19650.26
492.35	19775.19
492.55	20104.91
492.76	20049.61
492.97	20207.31
493.17	20260.55
493.38	20524.74
493.58	20432.58
493.79	20227.79
494.00	20430.54
494.20	20606.66
494.41	20965.06
494.61	20760.26
494.82	20963.01
495.02	20852.42
495.23	21071.55
495.44	21118.65
495.64	21262.01
495.85	21446.33
496.05	21509.82
496.26	21249.72
496.47	21614.26
496.67	21350.07
496.88	21737.14
497.08	21632.69
497.29	21872.31
497.49	21581.49
497.70	22103.73
497.91	21911.22
498.11	22111.92
498.32	22419.11
498.52	22458.03
498.73	22404.78
498.93	22531.75
499.14	22498.98
499.34	22476.46
499.55	22613.67
499.76	22945.44
499.96	22896.29
500.17	22785.70
500.37	22871.72
500.58	22955.68
500.78	22986.40
500.99	23129.76
501.19	23125.66
501.40	23375.52
501.60	23103.14
501.81	23404.19
502.02	22916.77
502.22	23451.29
502.43	23578.26
502.63	23494.30
502.84	23559.83
503.04	23389.85
503.25	23613.08
503.45	23658.14
503.66	23817.88
503.86	23781.01
504.07	23852.69
504.27	23723.67
504.48	24493.71
504.68	24379.02
504.89	24567.43
505.09	24401.55
505.30	24571.53
505.50	24620.68
505.71	24626.82
505.91	24921.73
506.12	24780.42
506.32	24614.54
506.53	24878.72
506.73	24856.20
506.94	25005.70
507.14	25003.65
507.35	25063.04
507.55	25316.99
507.76	25423.48
507.96	25200.26
508.17	25319.04
508.37	25642.62
508.58	25470.59
508.78	25712.25
508.99	25615.99
509.19	25726.58
509.40	25953.91
509.60	25906.80
509.81	25941.62
510.01	25820.79
510.22	25775.73
510.42	25943.67
510.63	26246.77
510.83	26222.19
511.04	26060.40
511.24	26496.62
511.44	26418.80
511.65	26537.58
511.85	26388.08
512.06	26500.72
512.26	26807.91
512.47	26953.32
512.67	26568.30
512.88	26734.18
513.08	26922.60
513.29	27022.95
513.49	26807.91
513.69	27045.48
513.90	27098.72
514.10	27092.58
514.31	27270.75
514.51	27498.08
514.72	27444.83
514.92	27237.98
515.13	27512.41
515.33	27709.02
515.53	27567.71
515.74	27203.17
515.94	27623.00
516.15	27864.66
516.35	27397.73
516.56	28186.19
516.76	27940.44
516.96	28268.11
517.17	28204.63
517.37	27946.58
517.58	28216.91
517.78	28235.35
517.99	28446.29
518.19	28651.08
518.39	28403.28
518.60	28964.42
518.80	28612.17
519.01	28362.32
519.21	28528.20
519.41	28786.25
519.62	28991.05
519.82	28982.85
520.03	29265.47
520.23	29064.77
520.43	28927.56
520.64	29445.69
520.84	29390.40
521.05	29302.34
521.25	29711.93
521.45	29675.07
521.66	29814.33
521.86	29693.50
522.07	29556.28
522.27	29740.60
522.47	29701.69
522.68	30180.92
522.88	30148.15
523.08	30541.36
523.29	30498.35
523.49	30451.25
523.70	30359.09
523.90	30643.76
524.10	30529.07
524.31	30811.69
524.51	30803.50
524.71	31063.59
524.92	30750.25
525.12	31131.17
525.33	30914.09
525.53	31108.65
525.73	31262.24
525.94	31266.34
526.14	30934.57
526.34	31536.67
526.55	31639.07
526.75	31503.90
526.95	32138.77
527.16	31667.74
527.36	31823.39
527.56	31821.34
527.77	32226.84
527.97	31872.54
528.17	32405.01
528.38	32544.27
528.58	32085.53
528.78	32478.74
528.99	32300.56
529.19	32845.32
529.39	32450.06
529.60	32816.65
529.80	33127.94
530.00	32722.44
530.21	32765.45
530.41	33265.16
530.61	33193.48
530.82	33170.95
531.02	33357.32
531.22	33336.84
531.43	33633.79
531.63	33807.87
531.83	34190.84
532.04	34166.26
532.24	33654.27
532.44	34123.26
532.64	34313.72
532.85	34199.03
533.05	34250.23
533.25	34321.91
533.46	34196.98
533.66	34659.82
533.86	34586.10
534.07	34964.97
534.27	34797.04
534.47	34530.80
534.67	34606.58
534.88	34649.58
535.08	34948.59
535.28	35214.82
535.49	35472.87
535.69	35794.40
535.89	35462.63
536.09	35595.74
536.30	35479.01
536.50	35632.61
536.70	35573.22
536.91	35544.55
537.11	35724.77
537.31	36003.29
537.51	36009.43
537.72	36492.76
537.92	36273.62
538.12	36779.47
538.32	36437.46
538.53	36525.52
538.73	36488.66
538.93	36447.70
539.13	36271.57
539.34	36308.44
539.54	36627.92
539.74	37076.43
539.94	37014.99
540.15	36691.41
540.35	37082.57
540.55	37152.20
540.75	37004.75
540.96	37430.72
541.16	36949.45
541.36	37160.39
541.56	37348.81
541.77	37715.39
541.97	37041.61
542.17	37793.22
542.37	37785.02
542.58	37668.29
542.78	37635.52
542.98	37465.54
543.18	38147.51
543.38	38133.18
543.59	38331.83
543.79	38016.44
543.99	37957.05
544.19	37885.37
544.40	38368.69
544.60	38419.89
544.80	38303.16
545.00	38297.02
545.20	38737.33
545.41	38313.40
545.61	38481.33
545.81	38712.75
546.01	38776.24
546.21	38389.17
546.42	38639.03
546.62	39302.57
546.82	38968.75
547.02	38858.16
547.22	39167.40
547.43	39017.90
547.63	39138.73
547.83	39048.62
548.03	39022.00
548.23	39402.92
548.44	39247.27
548.64	39376.30
548.84	39245.23
549.04	39536.04
549.24	39703.97
549.45	39910.82
549.65	39998.88
549.85	39744.93
550.05	39781.79
550.25	39429.54
550.45	40191.39
550.66	39849.38
550.86	39542.18
551.06	40201.63
551.26	39837.09
551.46	39992.73
551.66	40287.64
551.87	40381.85
552.07	40125.85
552.27	40549.78
552.47	40474.01
552.67	40181.15
552.87	40187.29
553.07	40813.97
553.28	40498.58
553.48	40635.80
553.68	40201.63
553.88	40766.87
554.08	40854.93
554.28	40545.69
554.48	40437.14
554.69	40799.63
554.89	40703.38
555.09	41119.12
555.29	41080.21
555.49	41024.91
555.69	41053.58
555.89	41201.04
556.10	41282.95
556.30	41368.97
556.50	41170.32
556.70	40881.55
556.90	41477.51
557.10	41766.27
557.30	41307.53
557.50	41751.94
557.70	41944.45
557.91	41821.57
558.11	41563.53
558.31	41790.85
558.51	41612.68
558.71	41508.23
558.91	41825.67
559.11	42132.86
559.31	41522.57
559.51	41545.09
559.72	41809.28
559.92	42448.25
560.12	41856.39
560.32	42098.05
560.52	42136.96
560.72	42110.33
560.92	42472.82
561.12	42425.72
561.32	42911.09
561.52	42472.82
561.72	42835.31
561.93	42601.85
562.13	42589.56
562.33	42122.62
562.53	43081.07
562.73	42483.06
562.93	42431.86
563.13	42849.65
563.33	42646.90
563.53	42802.55
563.73	42812.79
563.93	42796.40
564.13	43699.56
564.33	43136.37
564.53	43111.79
564.74	43441.51
564.94	42931.57
565.14	43525.48
565.34	43292.01
565.54	43629.93
565.74	43142.51
565.94	43588.97
566.14	43400.55
566.34	43648.36
566.54	43513.19
566.74	43709.80
566.94	43732.32
567.14	43965.79
567.34	43578.73
567.54	44004.70
567.74	43816.29
567.94	43607.40
568.14	43988.32
568.34	44121.44
568.54	43914.59
568.74	44213.60
568.94	44389.72
569.14	44268.89
569.34	43961.70
569.54	44793.17
569.75	44025.18
569.95	44465.50
570.15	44782.93
570.35	44682.58
570.55	44426.59
570.75	44643.67
570.95	44617.05
571.15	45249.87
571.35	44774.74
571.55	44832.08
571.75	44887.38
571.95	44791.12
572.15	44725.59
572.35	44979.54
572.55	45280.59
572.75	44578.14
572.95	45364.56
573.15	45202.77
573.35	45170.00
573.55	45356.36
573.75	44995.92
573.95	45536.59
574.15	45581.64
574.35	45851.97
574.55	45643.08
574.75	45600.07
574.95	46142.78
575.15	45725.00
575.34	45665.61
575.54	45929.80
575.74	45970.75
575.94	45940.04
576.14	46130.50
576.34	46515.51
576.54	46427.45
576.74	46583.10
576.94	46357.82
577.14	46630.20
577.34	46822.71
577.54	46449.98
577.74	46531.90
577.94	46646.58
578.14	46748.98
578.34	46611.77
578.54	46388.54
578.74	46923.06
578.94	46691.64
579.14	46603.58
579.34	46701.88
579.54	46779.70
579.74	47359.28
579.94	47209.78
580.13	47367.47
580.33	47351.09
580.53	47461.68
580.73	47670.57
580.93	47631.66
581.13	47428.91
581.33	47357.23
581.53	47707.43
581.73	47957.28
581.93	47988.00
582.13	47836.45
582.33	47654.18
582.53	47377.71
582.73	47781.16
582.92	48311.58
583.12	48268.58
583.32	48108.83
583.52	48096.55
583.72	48227.62
583.92	47938.85
584.12	48641.31
584.32	48645.40
584.52	48477.47
584.72	48440.60
584.92	48534.81
585.11	48901.40
585.31	48880.92
585.51	48612.63
585.71	48538.91
585.91	49067.28
586.11	48469.28
586.31	49130.77
586.51	48811.29
586.71	49042.71
586.91	49272.08
587.10	48858.39
587.30	49009.94
587.50	49229.07
587.70	49216.78
587.90	49575.18
588.10	49437.97
588.30	49583.37
588.50	49290.51
