SpectraSuite Data File
++++++++++++++++++++++++++++++++++++
Date: Fri Jun 02 14:47:59 CEST 2017
User: INFO_000
Dark Spectrum Present: No
Reference Spectrum Present: No
Number of Sampled Component Spectra: 1
Spectrometers: USB4H00879
Integration Time (usec): 80000 (USB4H00879)
Spectra Averaged: 1 (USB4H00879)
Boxcar Smoothing: 0 (USB4H00879)
Correct for Electrical Dark: No (USB4H00879)
Strobe/Lamp Enabled: No (USB4H00879)
Correct for Detector Non-linearity: No (USB4H00879)
Correct for Stray Light: No (USB4H00879)
Number of Pixels in Processed Spectrum: 3648
>>>>>Begin Processed Spectral Data<<<<<
345.13	1286.12
345.34	1286.12
345.56	1286.12
345.78	1318.89
345.99	1196.01
346.21	1716.20
346.42	1695.72
346.64	1744.87
346.86	1794.02
347.07	1650.66
347.29	1714.15
347.50	1624.04
347.72	1652.71
347.94	1751.01
348.15	1599.46
348.37	1683.43
348.59	1736.68
348.80	1646.57
349.02	1798.12
349.23	1861.60
349.45	1834.98
349.67	1961.95
349.88	1826.79
350.10	1968.10
350.31	1816.55
350.53	1740.77
350.75	1968.10
350.96	1726.44
351.18	1826.79
351.39	1929.19
351.61	1804.26
351.82	1880.04
352.04	1880.04
352.26	1830.88
352.47	1869.80
352.69	1847.27
352.90	1757.16
353.12	1871.84
353.34	1853.41
353.55	1908.71
353.77	1822.69
353.98	1863.65
354.20	1849.32
354.41	1929.19
354.63	1880.04
354.85	2047.97
355.06	1857.51
355.28	1818.60
355.49	1839.08
355.71	1916.90
355.92	1822.69
356.14	1927.14
356.35	1882.08
356.57	1900.52
356.79	1929.19
357.00	1814.50
357.22	1984.48
357.43	1873.89
357.65	1875.94
357.86	1886.18
358.08	1880.04
358.29	2015.20
358.51	1877.99
358.72	1937.38
358.94	1880.04
359.16	1961.95
359.37	1949.67
359.59	2105.31
359.80	1961.95
360.02	2009.06
360.23	1925.09
360.45	1871.84
360.66	1927.14
360.88	1910.75
361.09	1865.70
361.31	1970.15
361.52	2019.30
361.74	2064.35
361.95	2185.18
362.17	1949.67
362.38	2090.98
362.60	2035.68
362.81	1904.61
363.03	1920.99
363.24	1937.38
363.46	1986.53
363.67	2093.02
363.89	1994.72
364.10	2072.54
364.32	2027.49
364.53	2056.16
364.75	1837.03
364.96	2070.50
365.18	2101.22
365.39	2058.21
365.61	1998.82
365.82	2060.26
366.04	1953.76
366.25	1912.80
366.47	2009.06
366.68	2115.55
366.90	1976.29
367.11	2033.63
367.33	2084.83
367.54	2088.93
367.76	2052.06
367.97	2119.65
368.19	2039.78
368.40	2052.06
368.62	1925.09
368.83	2021.35
369.05	2142.18
369.26	1935.33
369.48	2007.01
369.69	1937.38
369.91	2115.55
370.12	2039.78
370.33	2052.06
370.55	1984.48
370.76	2037.73
370.98	2101.22
371.19	2060.26
371.41	2035.68
371.62	2045.92
371.84	1951.71
372.05	2131.94
372.27	2064.35
372.48	2066.40
372.69	1990.63
372.91	2144.22
373.12	2226.14
373.34	2117.60
373.55	2127.84
373.77	2084.83
373.98	2125.79
374.20	2127.84
374.41	2144.22
374.62	2164.70
374.84	2183.13
375.05	2156.51
375.27	2183.13
375.48	2103.26
375.70	2189.28
375.91	2080.74
376.12	2256.86
376.34	2162.66
376.55	2129.89
376.77	2170.85
376.98	2060.26
377.19	2047.97
377.41	2103.26
377.62	2133.98
377.84	2250.72
378.05	2340.83
378.27	2195.42
378.48	2408.41
378.69	2322.40
378.91	2248.67
379.12	2160.61
379.34	2201.57
379.55	2349.02
379.76	2172.89
379.98	2273.25
380.19	2176.99
380.41	2250.72
380.62	2324.44
380.83	2265.05
381.05	2232.29
381.26	2359.26
381.47	2273.25
381.69	2234.33
381.90	2377.69
382.12	2201.57
382.33	2338.78
382.54	2271.20
382.76	2308.06
382.97	2256.86
383.19	2203.61
383.40	2308.06
383.61	2297.82
383.83	2275.29
384.04	2328.54
384.25	2340.83
384.47	2330.59
384.68	2437.08
384.89	2277.34
385.11	2312.16
385.32	2336.73
385.54	2330.59
385.75	2326.49
385.96	2396.12
386.18	2437.08
386.39	2379.74
386.60	2459.61
386.82	2428.89
387.03	2412.51
387.24	2490.33
387.46	2461.66
387.67	2471.90
387.88	2484.19
388.10	2400.22
388.31	2527.19
388.52	2463.71
388.74	2570.20
388.95	2482.14
389.16	2525.15
389.38	2541.53
389.59	2521.05
389.80	2568.15
390.02	2564.06
390.23	2650.07
390.44	2537.43
390.66	2521.05
390.87	2441.18
391.08	2570.20
391.30	2656.22
391.51	2645.98
391.72	2639.83
391.94	2633.69
392.15	2617.30
392.36	2551.77
392.58	2631.64
392.79	2668.50
393.00	2699.22
393.22	2715.61
393.43	2760.66
393.64	2762.71
393.85	2758.61
394.07	2748.37
394.28	2680.79
394.49	2801.62
394.71	2713.56
394.92	2842.58
395.13	2740.18
395.35	2699.22
395.56	2754.52
395.77	2740.18
395.98	2734.04
396.20	2793.43
396.41	2791.38
396.62	2822.10
396.84	2869.20
397.05	2736.09
397.26	2813.91
397.47	2869.20
397.69	2781.14
397.90	2957.27
398.11	2912.21
398.32	2895.83
398.54	2844.63
398.75	2834.39
398.96	2922.45
399.18	2975.70
399.39	2957.27
399.60	3010.51
399.81	2953.17
400.03	3000.27
400.24	3172.30
400.45	2887.64
400.66	3026.90
400.88	3043.28
401.09	3239.89
401.30	3057.62
401.51	3067.86
401.73	3194.83
401.94	3119.06
402.15	2983.89
402.36	3057.62
402.58	3225.55
402.79	3108.82
403.00	3051.47
403.21	3196.88
403.43	3284.94
403.64	3184.59
403.85	2934.74
404.06	3291.09
404.27	3059.67
404.49	3217.36
404.70	3147.73
404.91	3383.24
405.12	3278.80
405.34	3256.27
405.55	3454.92
405.76	3110.86
405.97	3141.58
406.19	3274.70
406.40	3239.89
406.61	3313.61
406.82	3258.32
407.03	3256.27
407.25	3387.34
407.46	3286.99
407.67	3420.11
407.88	3401.68
408.09	3313.61
408.31	3286.99
408.52	3325.90
408.73	3370.96
408.94	3409.87
409.15	3440.59
409.37	3516.36
409.58	3426.25
409.79	3454.92
410.00	3530.70
410.21	3514.31
410.43	3522.51
410.64	3405.77
410.85	3520.46
411.06	3467.21
411.27	3633.10
411.48	3641.29
411.70	3510.22
411.91	3667.91
412.12	3686.34
412.33	3674.06
412.54	3545.03
412.76	3588.04
412.97	3657.67
413.18	3420.11
413.39	3528.65
413.60	3663.82
413.81	3766.21
414.03	3723.21
414.24	3545.03
414.45	3839.94
414.66	3536.84
414.87	3721.16
415.08	3682.25
415.30	3678.15
415.51	3784.65
415.72	3672.01
415.93	3676.10
416.14	3733.45
416.35	3790.79
416.56	3735.50
416.78	3764.17
416.99	3866.56
417.20	3895.24
417.41	3901.38
417.62	3796.93
417.83	3866.56
418.04	3801.03
418.26	3968.96
418.47	3786.69
418.68	4042.69
418.89	3932.10
419.10	4034.50
419.31	4124.61
419.52	3930.05
419.73	3948.48
419.95	4108.23
420.16	3977.16
420.37	4030.40
420.58	4177.86
420.79	3805.13
421.00	4067.27
421.21	4077.51
421.42	4005.83
421.63	4001.73
421.85	4075.46
422.06	4204.48
422.27	4153.28
422.48	4130.75
422.69	4243.39
422.90	4204.48
423.11	4186.05
423.32	4257.73
423.53	4321.21
423.75	4300.73
423.96	4411.32
424.17	4300.73
424.38	4571.07
424.59	4448.19
424.80	4550.59
425.01	4423.61
425.22	4257.73
425.43	4456.38
425.64	4681.66
425.85	4612.03
426.06	4423.61
426.28	4466.62
426.49	4501.44
426.70	4386.75
426.91	4538.30
427.12	4646.84
427.33	4618.17
427.54	4495.29
427.75	4712.38
427.96	4790.20
428.17	4771.77
428.38	4906.93
428.59	4839.35
428.80	4720.57
429.01	4708.28
429.23	4861.88
429.44	5013.43
429.65	4870.07
429.86	4933.56
430.07	4878.26
430.28	4775.86
430.49	4988.85
430.70	5091.25
430.91	4951.99
431.12	4884.41
431.33	5142.45
431.54	5158.83
431.75	5058.48
431.96	5068.72
432.17	5126.07
432.38	5109.68
432.59	5386.16
432.80	5304.24
433.01	5330.86
433.22	5337.01
433.43	5195.70
433.64	5332.91
433.85	5214.13
434.06	5263.28
434.27	5277.62
434.49	5449.64
434.70	5494.70
434.91	5353.39
435.12	5478.32
435.33	5435.31
435.54	5429.17
435.75	5365.68
435.96	5498.80
436.17	5398.45
436.38	5562.28
436.59	5572.52
436.80	5468.08
437.01	5740.46
437.22	5724.07
437.43	5617.58
437.64	5404.59
437.85	5709.74
438.06	5724.07
438.27	5687.21
438.48	5609.39
438.69	5892.01
438.90	5738.41
439.11	5640.11
439.32	5857.19
439.53	5756.84
439.74	5836.71
439.95	5781.42
440.16	5912.49
440.37	5873.57
440.57	5803.94
440.78	5846.95
440.99	6039.46
441.20	5879.72
441.41	5795.75
441.62	5932.97
441.83	5873.57
442.04	6074.28
442.25	6094.76
442.46	5945.25
442.67	6217.63
442.88	6492.06
443.09	5986.21
443.30	6016.93
443.51	6078.37
443.72	6315.94
443.93	6125.47
444.14	6358.94
444.35	5973.92
444.56	6219.68
444.77	6170.53
444.98	6320.03
445.19	6311.84
445.40	6363.04
445.61	6315.94
445.81	6453.15
446.02	6479.77
446.23	6252.45
446.44	6324.13
446.65	6481.82
446.86	6434.72
447.07	6348.70
447.28	6688.67
447.49	6676.38
447.70	6295.46
447.91	6737.82
448.12	6678.43
448.33	6721.43
448.54	6569.88
448.74	6506.40
448.95	6752.15
449.16	6518.68
449.37	6971.29
449.58	6573.98
449.79	7012.24
450.00	6670.23
450.21	6838.17
450.42	7069.59
450.63	6989.72
450.84	6944.66
451.05	7155.60
451.25	6952.85
451.46	6893.46
451.67	7045.01
451.88	7188.37
452.09	7094.16
452.30	6936.47
452.51	7122.84
452.72	7266.19
452.93	7243.67
453.13	7010.20
453.34	7171.99
453.55	7350.16
453.76	7294.86
453.97	7600.01
454.18	7282.58
454.39	7495.57
454.60	7251.86
454.81	7477.13
455.01	7702.41
455.22	7208.85
455.43	7466.89
455.64	7772.04
455.85	7802.76
456.06	7774.09
456.27	7806.86
456.48	7733.13
456.68	7794.57
456.89	7731.08
457.10	7800.71
457.31	7667.60
457.52	7909.26
457.73	7931.78
457.94	8193.92
458.14	7829.38
458.35	8161.16
458.56	8210.31
458.77	8132.48
458.98	8429.44
459.19	8255.36
459.39	8368.00
459.60	8470.40
459.81	8193.92
460.02	8349.57
460.23	8425.34
460.44	8402.82
460.65	8722.30
460.85	8638.33
461.06	8949.62
461.27	8415.10
461.48	8828.79
461.69	8916.86
461.89	8638.33
462.10	8916.86
462.31	8781.69
462.52	8855.42
462.73	8939.38
462.94	9138.04
463.14	9097.08
463.35	9205.62
463.56	9514.86
463.77	9320.31
463.98	9244.53
464.18	9074.55
464.39	9463.66
464.60	9375.60
464.81	9402.22
465.02	9314.16
465.23	9727.85
465.43	9639.79
465.64	9811.82
465.85	9699.18
466.06	9621.36
466.27	9944.94
466.47	9989.99
466.68	9908.07
466.89	9903.98
467.10	10073.96
467.30	9850.73
467.51	10293.09
467.72	10559.33
467.93	10100.58
468.14	10194.79
468.34	10438.50
468.55	10747.74
468.76	10547.04
468.97	10289.00
469.17	10913.63
469.38	10725.21
469.59	10624.86
469.80	10540.90
470.01	10821.47
470.21	10803.04
470.42	10956.63
470.63	10991.45
470.84	11038.55
471.04	11104.09
471.25	11409.23
471.46	11224.92
471.67	11468.62
471.87	11466.58
472.08	11564.88
472.29	11710.29
472.50	11349.84
472.70	11568.98
472.91	11661.13
473.12	11945.80
473.33	11902.79
473.53	12121.93
473.74	11990.86
473.95	12181.32
474.16	12506.95
474.36	12441.41
474.57	12427.07
474.78	12549.95
474.99	12508.99
475.19	12515.14
475.40	12631.87
475.61	12998.46
475.81	13018.94
476.02	13227.83
476.23	12961.59
476.44	13115.19
476.64	13313.84
476.85	13360.95
477.06	13457.20
477.27	13911.85
477.47	13526.83
477.68	13862.70
477.89	13803.31
478.09	13780.78
478.30	13989.67
478.51	14022.44
478.71	13999.91
478.92	14178.09
479.13	14335.78
479.34	14479.14
479.54	14370.60
479.75	14677.79
479.96	14757.66
480.16	14628.64
480.37	14772.00
480.58	15060.76
480.78	15054.62
480.99	14915.36
481.20	15331.09
481.41	15253.27
481.61	15413.01
481.82	15404.82
482.03	15525.65
482.23	15576.85
482.44	15783.70
482.65	15838.99
482.85	16062.22
483.06	15812.37
483.27	16002.83
483.47	16051.98
483.68	16017.16
483.89	16328.45
484.09	16314.12
484.30	16504.58
484.51	16772.86
484.71	16639.75
484.92	16781.06
485.13	16817.92
485.33	17059.58
485.54	16809.73
485.75	17159.93
485.95	17200.89
486.16	17252.09
486.37	17307.38
486.57	17364.73
486.78	17430.26
486.98	17485.56
487.19	17549.04
487.40	17821.42
487.60	17864.43
487.81	18138.86
488.02	17911.53
488.22	18341.61
488.43	18128.62
488.64	18018.03
488.84	18480.87
489.05	18501.35
489.25	18468.58
489.46	18800.35
489.67	18669.28
489.87	19015.39
490.08	18597.60
490.29	19054.30
490.49	18966.24
490.70	19230.43
490.90	19146.46
491.11	19377.88
491.32	19216.09
491.52	19261.15
491.73	19255.00
491.94	19623.64
492.14	19535.57
492.35	19953.36
492.55	20020.94
492.76	19949.26
492.97	20164.30
493.17	20250.32
493.38	20240.08
493.58	20498.12
493.79	20432.58
494.00	20287.18
494.20	20547.27
494.41	20698.82
494.61	20647.62
494.82	20913.86
495.02	20960.96
495.23	21046.97
495.44	20997.82
495.64	21223.10
495.85	21100.22
496.05	21526.20
496.26	21257.92
496.47	21612.21
496.67	21569.21
496.88	21581.49
497.08	21565.11
497.29	22027.95
497.49	21683.89
497.70	21972.66
497.91	22171.31
498.11	22025.90
498.32	22060.72
498.52	22437.55
498.73	22724.26
498.93	22316.72
499.14	22574.76
499.34	22458.03
499.55	22914.72
499.76	22648.49
499.96	22998.69
500.17	22963.87
500.37	22769.32
500.58	22990.50
500.78	23242.40
500.99	22982.31
501.19	23361.18
501.40	23121.57
501.60	23479.96
501.81	23201.44
502.02	23443.10
502.22	23418.52
502.43	23625.37
502.63	23649.94
502.84	23674.52
503.04	23940.75
503.25	23946.90
503.45	23969.43
503.66	24118.93
503.86	24135.31
504.07	24272.53
504.27	23873.17
504.48	24594.06
504.68	24508.04
504.89	24716.93
505.09	24491.66
505.30	24743.56
505.50	24690.31
505.71	24823.43
505.91	24725.13
506.12	25081.47
506.32	24948.36
506.53	25147.01
506.73	25009.79
506.94	25013.89
507.14	25249.41
507.35	25282.17
507.55	25364.09
507.76	25403.00
507.96	24884.87
508.17	25515.64
508.37	25478.78
508.58	25773.69
508.78	25790.07
508.99	26121.84
509.19	25988.72
509.40	25732.73
509.60	26127.99
509.81	26017.40
510.01	26154.61
510.22	26113.65
510.42	26355.31
510.63	26025.59
510.83	26146.42
511.04	26461.80
511.24	26572.39
511.44	26177.14
511.65	26404.46
511.85	26314.35
512.06	26875.49
512.26	26680.94
512.47	27111.01
512.67	26789.48
512.88	26773.10
513.08	26599.02
513.29	27070.05
513.49	27035.24
513.69	26981.99
513.90	27235.94
514.10	27111.01
514.31	27104.87
514.51	27164.26
514.72	27158.11
514.92	27270.75
515.13	27539.04
515.33	27453.02
515.53	27567.71
515.74	27442.78
515.94	27813.46
516.15	28157.52
516.35	27487.84
516.56	27782.74
516.76	27580.00
516.96	27913.81
517.17	28139.09
517.37	28126.80
517.58	28335.70
517.78	28192.34
517.99	28048.98
518.19	28417.61
518.39	28388.94
518.60	28603.98
518.80	28450.38
519.01	28890.70
519.21	28644.94
519.41	28653.13
519.62	28716.62
519.82	28868.17
520.03	29347.39
520.23	29277.76
520.43	29050.44
520.64	29265.47
520.84	29062.72
521.05	28907.08
521.25	29511.23
521.45	29609.53
521.66	29525.57
521.86	29433.41
522.07	29361.73
522.27	29615.68
522.47	29611.58
522.68	30006.84
522.88	29787.71
523.08	30594.61
523.29	30043.70
523.49	30078.52
523.70	30371.38
523.90	30197.30
524.10	30488.11
524.31	30617.13
524.51	30113.33
524.71	30598.70
524.92	30336.56
525.12	30746.15
525.33	30809.64
525.53	31002.15
525.73	30832.17
525.94	31401.50
526.14	30973.48
526.34	31145.51
526.55	31542.81
526.75	31149.60
526.95	31614.49
527.16	31614.49
527.36	31581.73
527.56	31833.63
527.77	32013.85
527.97	31542.81
528.17	31766.04
528.38	32294.42
528.58	31948.31
528.78	32359.95
528.99	31917.59
529.19	32450.06
529.39	32046.62
529.60	32726.54
529.80	32370.19
530.00	32476.69
530.21	33070.60
530.41	32937.48
530.61	32835.08
530.82	32945.67
531.02	32876.04
531.22	32986.63
531.43	32962.06
531.63	33426.95
531.83	33678.85
532.04	33574.40
532.24	33515.01
532.44	33824.25
532.64	33625.60
532.85	33994.23
533.05	33971.71
533.25	34061.82
533.46	33914.36
533.66	33811.96
533.86	34426.35
534.07	34115.06
534.27	34248.18
534.47	34440.69
534.67	34489.84
534.88	34516.47
535.08	34403.83
535.28	35341.80
535.49	35081.70
535.69	35280.36
535.89	35161.58
536.09	35284.45
536.30	35655.14
536.50	35161.58
536.70	35456.48
536.91	35440.10
537.11	35589.60
537.31	35894.75
537.51	35864.03
537.72	36085.21
537.92	36339.16
538.12	36392.40
538.32	36029.91
538.53	36345.30
538.73	36115.93
538.93	36015.58
539.13	36210.14
539.34	36509.14
539.54	36271.57
539.74	36636.11
539.94	36548.05
540.15	36586.96
540.35	37137.87
540.55	36621.78
540.75	36953.55
540.96	36820.43
541.16	37344.71
541.36	37213.64
541.56	37152.20
541.77	37445.06
541.97	37635.52
542.17	37326.28
542.37	37612.99
542.58	37649.86
542.78	37400.01
542.98	37797.31
543.18	37426.63
543.38	38116.79
543.59	37975.48
543.79	37807.55
543.99	37619.14
544.19	38032.83
544.40	37625.28
544.60	38571.44
544.80	38491.57
545.00	38143.42
545.20	38704.56
545.41	38284.73
545.61	38362.55
545.81	38743.47
546.01	38870.45
546.21	38618.55
546.42	38856.11
546.62	39110.06
546.82	38796.72
547.02	38530.48
547.22	39191.98
547.43	38555.06
547.63	39288.23
547.83	39310.76
548.03	39439.78
548.23	39357.86
548.44	39148.97
548.64	39413.16
548.84	39521.70
549.04	39312.81
549.24	39863.71
549.45	39613.86
549.65	39564.71
549.85	39765.41
550.05	39656.87
550.25	39640.48
550.45	40105.37
550.66	40093.08
550.86	40088.99
551.06	40404.38
551.26	40164.76
551.46	40078.75
551.66	40301.98
551.87	40404.38
552.07	40396.18
552.27	40529.30
552.47	40574.36
552.67	40398.23
552.87	40572.31
553.07	40725.91
553.28	40799.63
553.48	41067.92
553.68	40783.25
553.88	40965.52
554.08	40902.03
554.28	41211.28
554.48	40664.47
554.69	41022.86
554.89	41067.92
555.09	41268.62
555.29	41463.18
555.49	41538.95
555.69	41504.13
555.89	41133.45
556.10	41602.44
556.30	41348.49
556.50	41960.83
556.70	41350.54
556.90	41844.10
557.10	41598.34
557.30	41739.65
557.50	42089.85
557.70	41627.01
557.91	42050.94
558.11	41995.65
558.31	41964.93
558.51	41758.08
558.71	41852.29
558.91	42300.79
559.11	42335.61
559.31	42157.44
559.51	42200.44
559.72	42229.12
559.92	42745.20
560.12	41993.60
560.32	42714.48
560.52	42403.19
560.72	42501.50
560.92	43046.26
561.12	42847.60
561.32	43033.97
561.52	42612.09
561.72	43275.63
561.93	42429.82
562.13	42753.40
562.33	42732.92
562.53	43341.16
562.73	43101.55
562.93	42898.80
563.13	43048.30
563.33	43132.27
563.53	43771.24
563.73	43191.66
563.93	43289.96
564.13	43537.77
564.33	43568.49
564.53	43142.51
564.74	43169.13
564.94	43378.03
565.14	43361.64
565.34	43363.69
565.54	43722.08
565.74	43476.33
565.94	43658.60
566.14	43875.68
566.34	43550.06
566.54	44143.97
566.74	43689.32
566.94	43814.24
567.14	44369.24
567.34	43996.51
567.54	44074.34
567.74	43957.60
567.94	43922.79
568.14	44528.98
568.34	44268.89
568.54	44217.69
568.74	44242.27
568.94	43959.65
569.14	44473.69
569.34	44711.25
569.54	44621.14
569.75	43982.18
569.95	44844.37
570.15	44748.12
570.35	44801.36
570.55	44422.49
570.75	44516.70
570.95	44801.36
571.15	44647.77
571.35	44776.79
571.55	45229.39
571.75	44635.48
571.95	45094.22
572.15	44965.20
572.35	44774.74
572.55	45235.53
572.75	45124.94
572.95	45235.53
573.15	45292.88
573.35	45256.01
573.55	45004.11
573.75	44830.04
573.95	45651.27
574.15	45184.33
574.35	45339.98
574.55	45184.33
574.75	45288.78
574.95	45860.16
575.15	45245.77
575.34	45677.90
575.54	45694.28
575.74	45552.97
575.94	45739.33
576.14	45645.13
576.34	46089.54
576.54	46208.32
576.74	45911.36
576.94	45835.59
577.14	46140.74
577.34	46417.21
577.54	46075.20
577.74	46531.90
577.94	46361.92
578.14	46368.06
578.34	46550.33
578.54	46140.74
578.74	46230.85
578.94	46779.70
579.14	46681.40
579.34	46181.70
579.54	46136.64
579.74	46896.44
579.94	46464.32
580.13	46773.56
580.33	46810.42
580.53	47236.40
580.73	46994.74
580.93	46976.31
581.13	47027.51
581.33	46966.07
581.53	47138.10
581.73	47428.91
581.93	47273.26
582.13	47275.31
582.33	47754.54
582.53	47805.73
582.73	47443.24
582.92	47390.00
583.12	47686.95
583.32	47717.67
583.52	47136.05
583.72	47650.09
583.92	47473.96
584.12	47811.88
584.32	48143.65
584.52	47922.47
584.72	48037.16
584.92	48028.96
585.11	48799.00
585.31	47951.14
585.51	48491.80
585.71	48293.15
585.91	48823.58
586.11	48258.34
586.31	47924.52
586.51	48276.77
586.71	48389.41
586.91	48559.39
587.10	48921.88
587.30	48803.10
587.50	48862.49
587.70	48928.02
587.90	48434.46
588.10	48604.44
588.30	48661.79
588.50	48825.62
