SpectraSuite Data File
++++++++++++++++++++++++++++++++++++
Date: Fri Jun 02 14:47:56 CEST 2017
User: INFO_000
Dark Spectrum Present: No
Reference Spectrum Present: No
Number of Sampled Component Spectra: 1
Spectrometers: USB4H00879
Integration Time (usec): 80000 (USB4H00879)
Spectra Averaged: 1 (USB4H00879)
Boxcar Smoothing: 0 (USB4H00879)
Correct for Electrical Dark: No (USB4H00879)
Strobe/Lamp Enabled: No (USB4H00879)
Correct for Detector Non-linearity: No (USB4H00879)
Correct for Stray Light: No (USB4H00879)
Number of Pixels in Processed Spectrum: 3648
>>>>>Begin Processed Spectral Data<<<<<
345.13	1273.84
345.34	1273.84
345.56	1273.84
345.78	1265.64
345.99	1253.36
346.21	1722.34
346.42	1761.25
346.64	1613.80
346.86	1740.77
347.07	1716.20
347.29	1757.16
347.50	1630.18
347.72	1636.33
347.94	1665.00
348.15	1552.36
348.37	1560.55
348.59	1830.88
348.80	1587.18
349.02	1855.46
349.23	1890.28
349.45	1837.03
349.67	1865.70
349.88	1810.40
350.10	1914.85
350.31	1826.79
350.53	1824.74
350.75	1906.66
350.96	1845.22
351.18	1822.69
351.39	1851.36
351.61	1810.40
351.82	1867.75
352.04	1947.62
352.26	1892.32
352.47	1931.23
352.69	1912.80
352.90	1783.78
353.12	1818.60
353.34	1853.41
353.55	2009.06
353.77	1884.13
353.98	1869.80
354.20	1820.64
354.41	1904.61
354.63	1970.15
354.85	2027.49
355.06	1929.19
355.28	1865.70
355.49	1898.47
355.71	1880.04
355.92	1925.09
356.14	1916.90
356.35	1824.74
356.57	1851.36
356.79	1875.94
357.00	1916.90
357.22	1976.29
357.43	1875.94
357.65	1902.56
357.86	1826.79
358.08	1837.03
358.29	1892.32
358.51	1951.71
358.72	1937.38
358.94	1961.95
359.16	1861.60
359.37	1888.23
359.59	1943.52
359.80	2019.30
360.02	1925.09
360.23	2019.30
360.45	1968.10
360.66	1978.34
360.88	1951.71
361.09	1931.23
361.31	2062.30
361.52	1894.37
361.74	2105.31
361.95	2037.73
362.17	1920.99
362.38	2125.79
362.60	1980.39
362.81	1925.09
363.03	1982.43
363.24	1935.33
363.46	2041.82
363.67	1990.63
363.89	1990.63
364.10	2029.54
364.32	1943.52
364.53	1994.72
364.75	1933.28
364.96	2013.15
365.18	2031.58
365.39	2058.21
365.61	2009.06
365.82	2162.66
366.04	1918.95
366.25	2011.11
366.47	2039.78
366.68	2017.25
366.90	1992.67
367.11	2013.15
367.33	2029.54
367.54	2093.02
367.76	2033.63
367.97	1964.00
368.19	2054.11
368.40	2029.54
368.62	1916.90
368.83	1966.05
369.05	2082.78
369.26	1925.09
369.48	2033.63
369.69	1953.76
369.91	2043.87
370.12	2004.96
370.33	2111.46
370.55	1943.52
370.76	1988.58
370.98	2054.11
371.19	2111.46
371.41	1988.58
371.62	2050.02
371.84	1939.43
372.05	2119.65
372.27	2002.91
372.48	2035.68
372.69	2099.17
372.91	2111.46
373.12	2131.94
373.34	2064.35
373.55	2158.56
373.77	2097.12
373.98	2025.44
374.20	2099.17
374.41	2172.89
374.62	2107.36
374.84	2224.09
375.05	2074.59
375.27	2172.89
375.48	2205.66
375.70	2197.47
375.91	2263.01
376.12	2310.11
376.34	2205.66
376.55	2119.65
376.77	2287.58
376.98	2113.50
377.19	2099.17
377.41	2156.51
377.62	2170.85
377.84	2254.81
378.05	2283.49
378.27	2170.85
378.48	2332.64
378.69	2346.97
378.91	2263.01
379.12	2295.77
379.34	2283.49
379.55	2209.76
379.76	2238.43
379.98	2232.29
380.19	2181.09
380.41	2277.34
380.62	2357.21
380.83	2336.73
381.05	2181.09
381.26	2359.26
381.47	2252.77
381.69	2217.95
381.90	2432.99
382.12	2279.39
382.33	2252.77
382.54	2224.09
382.76	2287.58
382.97	2312.16
383.19	2228.19
383.40	2328.54
383.61	2332.64
383.83	2234.33
384.04	2322.40
384.25	2340.83
384.47	2377.69
384.68	2328.54
384.89	2222.05
385.11	2285.53
385.32	2287.58
385.54	2365.40
385.75	2338.78
385.96	2375.64
386.18	2398.17
386.39	2398.17
386.60	2340.83
386.82	2387.93
387.03	2349.02
387.24	2469.85
387.46	2437.08
387.67	2457.56
387.88	2502.62
388.10	2424.80
388.31	2424.80
388.52	2568.15
388.74	2420.70
388.95	2441.18
389.16	2432.99
389.38	2488.28
389.59	2576.34
389.80	2541.53
390.02	2572.25
390.23	2465.75
390.44	2586.58
390.66	2559.96
390.87	2486.23
391.08	2609.11
391.30	2676.70
391.51	2531.29
391.72	2627.54
391.94	2602.97
392.15	2615.26
392.36	2566.10
392.58	2588.63
392.79	2492.38
393.00	2633.69
393.22	2633.69
393.43	2742.23
393.64	2764.76
393.85	2854.87
394.07	2678.74
394.28	2766.81
394.49	2645.98
394.71	2824.15
394.92	2676.70
395.13	2693.08
395.35	2713.56
395.56	2801.62
395.77	2731.99
395.98	2766.81
396.20	2762.71
396.41	2828.24
396.62	2877.40
396.84	2742.23
397.05	2852.82
397.26	2824.15
397.47	2942.93
397.69	2822.10
397.90	3084.24
398.11	2807.77
398.32	2828.24
398.54	2922.45
398.75	2891.73
398.96	2996.18
399.18	3088.34
399.39	3014.61
399.60	3157.97
399.81	2965.46
400.03	2914.26
400.24	3250.13
400.45	2899.92
400.66	3014.61
400.88	3000.27
401.09	3164.11
401.30	2971.60
401.51	3131.34
401.73	3190.74
401.94	3108.82
402.15	3112.91
402.36	3129.30
402.58	3246.03
402.79	3164.11
403.00	3141.58
403.21	3246.03
403.43	3266.51
403.64	3170.26
403.85	3149.78
404.06	3270.61
404.27	3125.20
404.49	3182.54
404.70	3196.88
404.91	3340.24
405.12	3217.36
405.34	3233.74
405.55	3416.01
405.76	3157.97
405.97	3278.80
406.19	3424.20
406.40	3170.26
406.61	3258.32
406.82	3293.13
407.03	3350.48
407.25	3239.89
407.46	3420.11
407.67	3575.75
407.88	3428.30
408.09	3436.49
408.31	3295.18
408.52	3346.38
408.73	3330.00
408.94	3176.40
409.15	3295.18
409.37	3446.73
409.58	3426.25
409.79	3428.30
410.00	3518.41
410.21	3401.68
410.43	3461.07
410.64	3315.66
410.85	3573.71
411.06	3555.27
411.27	3530.70
411.48	3715.02
411.70	3534.79
411.91	3657.67
412.12	3559.37
412.33	3612.62
412.54	3514.31
412.76	3592.14
412.97	3614.66
413.18	3428.30
413.39	3680.20
413.60	3708.87
413.81	3811.27
414.03	3528.65
414.24	3518.41
414.45	3790.79
414.66	3665.86
414.87	3760.07
415.08	3792.84
415.30	3708.87
415.51	3831.75
415.72	3590.09
415.93	3762.12
416.14	3712.97
416.35	3729.35
416.56	3731.40
416.78	3760.07
416.99	3825.61
417.20	3803.08
417.41	3893.19
417.62	3768.26
417.83	3809.22
418.04	3946.44
418.26	3860.42
418.47	3844.04
418.68	3938.24
418.89	3985.35
419.10	4114.37
419.31	3950.53
419.52	4007.87
419.73	4003.78
419.95	4085.70
420.16	3968.96
420.37	3960.77
420.58	4014.02
420.79	3870.66
421.00	4026.31
421.21	4184.00
421.42	3975.11
421.63	4067.27
421.85	4067.27
422.06	4145.09
422.27	4284.35
422.48	4140.99
422.69	4091.84
422.90	4194.24
423.11	4265.92
423.32	4241.34
423.53	4378.56
423.75	4263.87
423.96	4368.32
424.17	4448.19
424.38	4446.14
424.59	4251.58
424.80	4452.28
425.01	4411.32
425.22	4292.54
425.43	4360.13
425.64	4597.69
425.85	4734.90
426.06	4507.58
426.28	4464.57
426.49	4323.26
426.70	4566.97
426.91	4571.07
427.12	4583.35
427.33	4544.44
427.54	4571.07
427.75	4575.16
427.96	4790.20
428.17	4708.28
428.38	4753.34
428.59	4689.85
428.80	4698.04
429.01	4868.02
429.23	4829.11
429.44	4923.32
429.65	4878.26
429.86	5060.53
430.07	4808.63
430.28	4808.63
430.49	5035.96
430.70	5019.57
430.91	5076.91
431.12	5136.31
431.33	5138.35
431.54	5173.17
431.75	5124.02
431.96	5115.83
432.17	5101.49
432.38	5138.35
432.59	5279.66
432.80	5230.51
433.01	5269.42
433.22	5365.68
433.43	5283.76
433.64	5291.95
433.85	5369.77
434.06	5377.97
434.27	5220.27
434.49	5513.13
434.70	5386.16
434.91	5447.60
435.12	5377.97
435.33	5459.88
435.54	5570.48
435.75	5287.86
435.96	5388.21
436.17	5308.34
436.38	5625.77
436.59	5719.98
436.80	5240.75
437.01	5793.70
437.22	5703.59
437.43	5867.43
437.64	5537.71
437.85	5795.75
438.06	5799.85
438.27	5679.02
438.48	5734.31
438.69	5889.96
438.90	5756.84
439.11	5648.30
439.32	5914.53
439.53	5824.42
439.74	5908.39
439.95	5810.09
440.16	5869.48
440.37	5908.39
440.57	5824.42
440.78	5980.07
440.99	5930.92
441.20	5961.64
441.41	5928.87
441.62	6006.69
441.83	5945.25
442.04	5994.40
442.25	6098.85
442.46	6178.72
442.67	6180.77
442.88	6469.53
443.09	6080.42
443.30	6045.60
443.51	6201.25
443.72	6375.33
443.93	6154.15
444.14	6436.77
444.35	6068.13
444.56	6203.30
444.77	6332.32
444.98	6254.50
445.19	6299.55
445.40	6490.01
445.61	6498.20
445.81	6473.63
446.02	6455.20
446.23	6510.49
446.44	6352.80
446.65	6340.51
446.86	6528.92
447.07	6586.27
447.28	6651.80
447.49	6705.05
447.70	6604.70
447.91	6582.17
448.12	6649.75
448.33	6915.99
448.54	6576.03
448.74	6692.76
448.95	6674.33
449.16	6520.73
449.37	6846.36
449.58	6770.58
449.79	6940.57
450.00	6643.61
450.21	6727.58
450.42	7010.20
450.63	7112.60
450.84	6881.18
451.05	7047.06
451.25	6989.72
451.46	6885.27
451.67	7061.40
451.88	7198.61
452.09	7110.55
452.30	7079.83
452.51	7094.16
452.72	7251.86
452.93	7413.65
453.13	7049.11
453.34	7171.99
453.55	7319.44
453.76	7204.75
453.97	7686.03
454.18	7272.34
454.39	7421.84
454.60	7313.30
454.81	7282.58
455.01	7559.05
455.22	7307.15
455.43	7579.53
455.64	7710.60
455.85	7714.70
456.06	7909.26
456.27	7767.95
456.48	7604.11
456.68	7688.07
456.89	7819.14
457.10	8011.65
457.31	7954.31
457.52	7909.26
457.73	7978.89
457.94	8103.81
458.14	8064.90
458.35	8146.82
458.56	8320.90
458.77	8107.91
458.98	8216.45
459.19	8171.40
459.39	8198.02
459.60	8480.64
459.81	8255.36
460.02	8390.53
460.23	8259.46
460.44	8636.28
460.65	8431.49
460.85	8652.67
461.06	8687.48
461.27	8349.57
461.48	8863.61
461.69	9062.26
461.89	8667.00
462.10	8624.00
462.31	8675.20
462.52	8765.31
462.73	8822.65
462.94	8980.34
463.14	8918.90
463.35	9035.64
463.56	9385.84
463.77	9215.86
463.98	8947.58
464.18	9189.24
464.39	9314.16
464.60	9633.64
464.81	9457.52
465.02	9559.92
465.23	9688.94
465.43	9500.53
465.64	9613.17
465.85	9721.71
466.06	9840.49
466.27	10030.95
466.47	10004.33
466.68	9858.92
466.89	9846.63
467.10	9953.13
467.30	9924.46
467.51	10121.06
467.72	10334.05
467.93	10211.17
468.14	10176.36
468.34	10364.77
468.55	10360.67
468.76	10514.27
468.97	10338.15
469.17	10725.21
469.38	10796.89
469.59	10768.22
469.80	10624.86
470.01	10766.17
470.21	10747.74
470.42	11118.42
470.63	11120.47
470.84	11151.19
471.04	11233.11
471.25	11349.84
471.46	11112.28
471.67	11718.48
471.87	11315.03
472.08	11493.20
472.29	11679.57
472.50	11540.30
472.70	11581.26
472.91	11669.33
473.12	11849.55
473.33	12027.72
473.53	11927.37
473.74	11927.37
473.95	12150.60
474.16	12392.26
474.36	12332.87
474.57	12549.95
474.78	12576.58
474.99	12556.10
475.19	12568.38
475.40	12941.11
475.61	12859.20
475.81	13082.42
476.02	13227.83
476.23	12971.83
476.44	13231.93
476.64	13389.62
476.85	13520.69
477.06	13526.83
477.27	13586.22
477.47	13909.80
477.68	13844.27
477.89	13932.33
478.09	14108.46
478.30	13961.00
478.51	14100.26
478.71	14223.14
478.92	14329.64
479.13	14341.93
479.34	14411.56
479.54	14712.61
479.75	14454.56
479.96	14796.57
480.16	14735.14
480.37	14786.33
480.58	15134.49
480.78	15097.63
480.99	15363.86
481.20	15175.45
481.41	15408.92
481.61	15607.57
481.82	15406.87
482.03	15533.84
482.23	15402.77
482.44	15820.56
482.65	16033.55
482.85	16068.36
483.06	16152.33
483.27	15955.72
483.47	16113.42
483.68	16412.42
483.89	16539.40
484.09	16348.93
484.30	16449.28
484.51	16895.74
484.71	16834.30
484.92	16729.86
485.13	17055.48
485.33	16813.82
485.54	16895.74
485.75	16969.47
485.95	17262.33
486.16	17475.32
486.37	17659.63
486.57	17364.73
486.78	17759.98
486.98	17612.53
487.19	17696.50
487.40	18095.85
487.60	17712.88
487.81	17948.40
488.02	18274.03
488.22	18179.82
488.43	18355.94
488.64	18398.95
488.84	18374.38
489.05	18357.99
489.25	18390.76
489.46	18665.19
489.67	18542.31
489.87	19001.05
490.08	18884.32
490.29	19005.15
490.49	19255.00
490.70	19257.05
490.90	19590.87
491.11	19369.69
491.32	19650.26
491.52	19500.76
491.73	19537.62
491.94	19703.51
492.14	19642.07
492.35	19928.78
492.55	19961.55
492.76	20215.50
492.97	20297.42
493.17	20321.99
493.38	20311.75
493.58	20197.07
493.79	20534.98
494.00	20250.32
494.20	20602.57
494.41	20635.33
494.61	21034.69
494.82	20790.98
495.02	20616.90
495.23	20952.77
495.44	20973.25
495.64	21098.17
495.85	21384.89
496.05	21309.11
496.26	21276.35
496.47	21614.26
496.67	21530.30
496.88	21780.15
497.08	21235.39
497.29	21638.84
497.49	21665.46
497.70	21997.23
497.91	22070.96
498.11	21937.84
498.32	22257.32
498.52	22251.18
498.73	22544.04
498.93	22222.51
499.14	22345.39
499.34	22415.02
499.55	22781.60
499.76	22726.31
499.96	22906.53
500.17	22716.07
500.37	22931.11
500.58	22763.17
500.78	23025.31
500.99	22943.39
501.19	23142.05
501.40	23193.25
501.60	23172.77
501.81	23320.22
502.02	23699.09
502.22	23385.76
502.43	23572.12
502.63	23742.10
502.84	23905.94
503.04	23801.49
503.25	23940.75
503.45	23785.11
503.66	23905.94
503.86	23924.37
504.07	24250.00
504.27	24155.79
504.48	24555.15
504.68	24280.72
504.89	24317.58
505.09	24596.10
505.30	24610.44
505.50	24620.68
505.71	24858.24
505.91	24921.73
506.12	24755.85
506.32	24899.20
506.53	24761.99
506.73	25054.85
506.94	25046.66
507.14	25294.46
507.35	25400.96
507.55	25435.77
507.76	25278.08
507.96	25458.30
508.17	25499.26
508.37	25374.33
508.58	25245.31
508.78	25775.73
508.99	25749.11
509.19	25751.16
509.40	25876.09
509.60	25900.66
509.81	25966.20
510.01	26209.90
510.22	26142.32
510.42	26138.23
510.63	26175.09
510.83	26044.02
511.04	26146.42
511.24	26414.70
511.44	26437.23
511.65	26740.33
511.85	26635.88
512.06	26594.92
512.26	26590.83
512.47	27094.63
512.67	26857.06
512.88	27139.68
513.08	26357.36
513.29	27078.24
513.49	26721.90
513.69	26830.44
513.90	27008.61
514.10	27485.79
514.31	27481.69
514.51	27293.28
514.72	27176.55
514.92	27407.97
515.13	27440.73
515.33	27647.58
515.53	27348.57
515.74	27989.59
515.94	27852.38
516.15	27760.22
516.35	27711.07
516.56	27999.83
516.76	27901.53
516.96	28165.71
517.17	28628.56
517.37	28077.65
517.58	27897.43
517.78	28227.15
517.99	28350.03
518.19	28606.03
518.39	28522.06
518.60	28954.18
518.80	28618.32
519.01	28966.47
519.21	28851.78
519.41	28530.25
519.62	28757.58
519.82	28778.06
520.03	29064.77
520.23	29238.85
520.43	28935.75
520.64	29400.64
520.84	29566.52
521.05	29507.13
521.25	29730.36
521.45	29875.77
521.66	29644.35
521.86	29431.36
522.07	29445.69
522.27	29656.64
522.47	29963.83
522.68	30375.47
522.88	29836.86
523.08	29982.26
523.29	30197.30
523.49	30463.54
523.70	30518.83
523.90	30715.44
524.10	30234.16
524.31	30869.03
524.51	30533.17
524.71	31129.12
524.92	30957.10
525.12	30776.87
525.33	30987.82
525.53	31022.63
525.73	31536.67
525.94	31456.80
526.14	31225.38
526.34	31475.23
526.55	31323.68
526.75	31663.64
526.95	31950.36
527.16	31792.67
527.36	31784.48
527.56	31958.55
527.77	32179.73
527.97	31960.60
528.17	32163.35
528.38	32327.19
528.58	31983.13
528.78	32497.17
528.99	32472.59
529.19	32736.78
529.39	32278.04
529.60	32898.57
529.80	32394.77
530.00	32732.68
530.21	33228.29
530.41	32917.00
530.61	32732.68
530.82	33199.62
531.02	32982.54
531.22	33086.98
531.43	33134.09
531.63	33781.24
531.83	33805.82
532.04	34031.10
532.24	33523.20
532.44	33875.45
532.64	34063.86
532.85	34045.43
533.05	33955.32
533.25	34430.45
533.46	34194.93
533.66	34444.79
533.86	34180.60
534.07	34745.84
534.27	34315.76
534.47	34616.82
534.67	34895.34
534.88	34418.16
535.08	34833.90
535.28	35042.79
535.49	35298.79
535.69	35036.65
535.89	34928.11
536.09	35376.61
536.30	35306.98
536.50	35534.31
536.70	35616.22
536.91	35409.38
537.11	35759.58
537.31	35560.93
537.51	35829.21
537.72	36314.58
537.92	35952.09
538.12	36433.36
538.32	36443.60
538.53	36492.76
538.73	36566.48
538.93	36521.43
539.13	36609.49
539.34	36271.57
539.54	36683.22
539.74	36597.20
539.94	36433.36
540.15	36623.83
540.35	37033.42
540.55	36918.73
540.75	37025.23
540.96	37232.07
541.16	36744.66
541.36	37139.91
541.56	37266.89
541.77	37367.24
541.97	37144.01
542.17	37389.77
542.37	37381.57
542.58	37727.68
542.78	37313.99
542.98	37449.16
543.18	37770.69
543.38	38262.20
543.59	37930.43
543.79	37680.58
543.99	37545.41
544.19	37965.24
544.40	38067.64
544.60	38264.25
544.80	37959.10
545.00	38671.79
545.20	38409.65
545.41	38823.34
545.61	38241.72
545.81	38612.40
546.01	38366.65
546.21	38751.66
546.42	38323.64
546.62	39097.77
546.82	38890.93
547.02	38600.12
547.22	39028.14
547.43	38780.34
547.63	39206.31
547.83	39173.55
548.03	38829.49
548.23	39546.28
548.44	39237.03
548.64	39355.82
548.84	39335.34
549.04	39482.79
549.24	39966.11
549.45	39579.04
549.65	39382.44
549.85	39622.05
550.05	39759.27
550.25	39783.84
550.45	40132.00
550.66	39738.79
550.86	39519.65
551.06	39957.92
551.26	40027.55
551.46	40535.45
551.66	40005.02
551.87	40322.46
552.07	40199.58
552.27	40406.42
552.47	40387.99
552.67	40539.54
552.87	40304.02
553.07	40701.33
553.28	40707.47
553.48	40375.70
553.68	40318.36
553.88	41096.59
554.08	41061.77
554.28	40957.33
554.48	40621.46
554.69	40723.86
554.89	40940.94
555.09	41047.44
555.29	40768.91
555.49	41115.02
555.69	41106.83
555.89	41250.19
556.10	41287.05
556.30	41328.01
556.50	41151.88
556.70	41620.87
556.90	41387.40
557.10	41551.24
557.30	41321.87
557.50	41680.26
557.70	41973.12
557.91	42014.08
558.11	41899.39
558.31	42245.50
558.51	41848.19
558.71	42048.89
558.91	42032.51
559.11	42007.94
559.31	41827.71
559.51	42089.85
559.72	42489.21
559.92	42552.69
560.12	41966.98
560.32	42384.76
560.52	41932.16
560.72	42315.13
560.92	42513.78
561.12	42812.79
561.32	43046.26
561.52	42648.95
561.72	42788.21
561.93	42360.19
562.13	42669.43
562.33	42591.61
562.53	42939.76
562.73	42542.45
562.93	42814.83
563.13	42882.42
563.33	42743.16
563.53	43320.68
563.73	43093.36
563.93	43146.61
564.13	43681.13
564.33	43300.20
564.53	43640.17
564.74	43545.96
564.94	43586.92
565.14	43713.89
565.34	43216.24
565.54	43638.12
565.74	43586.92
565.94	43660.65
566.14	43609.45
566.34	43959.65
566.54	44080.48
566.74	43619.69
566.94	44379.48
567.14	44021.09
567.34	43660.65
567.54	44154.21
567.74	43789.67
567.94	43908.45
568.14	44049.76
568.34	44332.38
568.54	44354.91
568.74	44682.58
568.94	44275.04
569.14	44473.69
569.34	44662.10
569.54	44957.01
569.75	44602.71
569.95	44866.90
570.15	45065.55
570.35	45014.35
570.55	44815.70
570.75	44893.52
570.95	44678.49
571.15	44823.89
571.35	44559.70
571.55	45065.55
571.75	45323.60
571.95	45299.02
572.15	45086.03
572.35	45231.44
572.55	45231.44
572.75	45182.29
572.95	45514.06
573.15	45546.82
573.35	45829.44
573.55	45653.32
573.75	46169.41
573.95	45407.56
574.15	45499.72
574.35	45890.88
574.55	46040.39
574.75	45391.18
574.95	45593.93
575.15	45878.60
575.34	45796.68
575.54	45819.20
575.74	45819.20
575.94	46171.46
576.14	46134.59
576.34	46882.10
576.54	46441.79
576.74	46187.84
576.94	46183.74
577.14	46466.36
577.34	47076.66
577.54	46337.34
577.74	46759.22
577.94	46349.63
578.14	46683.45
578.34	47148.34
578.54	46171.46
578.74	46466.36
578.94	47273.26
579.14	46697.78
579.34	46853.43
579.54	46966.07
579.74	47469.87
579.94	47002.93
580.13	47668.52
580.33	47338.80
580.53	47473.96
580.73	47392.04
580.93	47031.60
581.13	47346.99
581.33	47500.59
581.53	47662.38
581.73	47764.78
581.93	47957.28
582.13	48012.58
582.33	47895.85
582.53	47645.99
582.73	48022.82
582.92	48004.39
583.12	47693.10
583.32	47648.04
583.52	47879.46
583.72	48149.79
583.92	47643.94
584.12	48110.88
584.32	48594.20
584.52	48110.88
584.72	48389.41
584.92	48721.18
585.11	48684.31
585.31	48878.87
585.51	48569.63
585.71	48586.01
585.91	48915.73
586.11	48700.70
586.31	48583.96
586.51	48665.88
586.71	48592.15
586.91	49116.43
587.10	49075.48
587.30	49065.24
587.50	49141.01
587.70	49141.01
587.90	49214.74
588.10	49136.91
588.30	48768.28
588.50	49745.16
