SpectraSuite Data File
++++++++++++++++++++++++++++++++++++
Date: Fri Jun 02 14:47:54 CEST 2017
User: INFO_000
Dark Spectrum Present: No
Reference Spectrum Present: No
Number of Sampled Component Spectra: 1
Spectrometers: USB4H00879
Integration Time (usec): 80000 (USB4H00879)
Spectra Averaged: 1 (USB4H00879)
Boxcar Smoothing: 0 (USB4H00879)
Correct for Electrical Dark: No (USB4H00879)
Strobe/Lamp Enabled: No (USB4H00879)
Correct for Detector Non-linearity: No (USB4H00879)
Correct for Stray Light: No (USB4H00879)
Number of Pixels in Processed Spectrum: 3648
>>>>>Begin Processed Spectral Data<<<<<
345.13	1273.84
345.34	1273.84
345.56	1273.84
345.78	1333.23
345.99	1279.98
346.21	1728.49
346.42	1677.29
346.64	1589.22
346.86	1757.16
347.07	1667.05
347.29	1712.10
347.50	1560.55
347.72	1642.47
347.94	1705.96
348.15	1626.09
348.37	1640.42
348.59	1724.39
348.80	1619.94
349.02	1755.11
349.23	1859.56
349.45	1794.02
349.67	1865.70
349.88	1775.59
350.10	1925.09
350.31	1806.31
350.53	1794.02
350.75	1976.29
350.96	1724.39
351.18	1892.32
351.39	1863.65
351.61	1775.59
351.82	1959.91
352.04	1853.41
352.26	1769.44
352.47	1853.41
352.69	1943.52
352.90	1773.54
353.12	1794.02
353.34	1798.12
353.55	1896.42
353.77	1857.51
353.98	1791.97
354.20	1855.46
354.41	1871.84
354.63	1892.32
354.85	2035.68
355.06	1855.46
355.28	1755.11
355.49	1892.32
355.71	1880.04
355.92	1892.32
356.14	1894.37
356.35	1869.80
356.57	1814.50
356.79	1875.94
357.00	1812.45
357.22	1953.76
357.43	1775.59
357.65	1943.52
357.86	1779.68
358.08	1927.14
358.29	1875.94
358.51	1947.62
358.72	1980.39
358.94	1980.39
359.16	1957.86
359.37	1906.66
359.59	1959.91
359.80	1990.63
360.02	1931.23
360.23	1933.28
360.45	2011.11
360.66	1947.62
360.88	1855.46
361.09	1890.28
361.31	1996.77
361.52	1972.19
361.74	2047.97
361.95	2060.26
362.17	1955.81
362.38	2029.54
362.60	2033.63
362.81	1994.72
363.03	1877.99
363.24	2004.96
363.46	2084.83
363.67	2050.02
363.89	1929.19
364.10	2047.97
364.32	2007.01
364.53	1966.05
364.75	1820.64
364.96	2050.02
365.18	2043.87
365.39	1976.29
365.61	1988.58
365.82	2136.03
366.04	1943.52
366.25	1931.23
366.47	2093.02
366.68	2070.50
366.90	1984.48
367.11	2025.44
367.33	2033.63
367.54	2107.36
367.76	1974.24
367.97	2076.64
368.19	1947.62
368.40	2142.18
368.62	1941.47
368.83	1957.86
369.05	2080.74
369.26	1968.10
369.48	2004.96
369.69	1961.95
369.91	2148.32
370.12	2047.97
370.33	2158.56
370.55	1966.05
370.76	2004.96
370.98	2113.50
371.19	1966.05
371.41	2019.30
371.62	2113.50
371.84	2099.17
372.05	2207.71
372.27	1980.39
372.48	2090.98
372.69	2056.16
372.91	2162.66
373.12	2166.75
373.34	2093.02
373.55	2158.56
373.77	2183.13
373.98	2117.60
374.20	2131.94
374.41	2234.33
374.62	2127.84
374.84	2174.94
375.05	2207.71
375.27	2164.70
375.48	2222.05
375.70	2181.09
375.91	2197.47
376.12	2289.63
376.34	2176.99
376.55	2154.46
376.77	2140.13
376.98	2131.94
377.19	2172.89
377.41	2172.89
377.62	2299.87
377.84	2209.76
378.05	2439.13
378.27	2166.75
378.48	2271.20
378.69	2334.68
378.91	2328.54
379.12	2211.81
379.34	2207.71
379.55	2322.40
379.76	2271.20
379.98	2203.61
380.19	2244.57
380.41	2220.00
380.62	2346.97
380.83	2242.53
381.05	2240.48
381.26	2351.07
381.47	2256.86
381.69	2334.68
381.90	2361.31
382.12	2318.30
382.33	2236.38
382.54	2381.79
382.76	2256.86
382.97	2324.44
383.19	2269.15
383.40	2363.36
383.61	2283.49
383.83	2252.77
384.04	2310.11
384.25	2340.83
384.47	2402.27
384.68	2330.59
384.89	2248.67
385.11	2326.49
385.32	2314.20
385.54	2267.10
385.75	2353.12
385.96	2389.98
386.18	2420.70
386.39	2387.93
386.60	2353.12
386.82	2473.95
387.03	2455.51
387.24	2516.95
387.46	2461.66
387.67	2353.12
387.88	2531.29
388.10	2469.85
388.31	2475.99
388.52	2668.50
388.74	2502.62
388.95	2496.47
389.16	2562.01
389.38	2494.43
389.59	2580.44
389.80	2641.88
390.02	2588.63
390.23	2623.45
390.44	2504.67
390.66	2523.10
390.87	2506.71
391.08	2648.02
391.30	2715.61
391.51	2488.28
391.72	2721.75
391.94	2541.53
392.15	2676.70
392.36	2611.16
392.58	2576.34
392.79	2731.99
393.00	2656.22
393.22	2715.61
393.43	2711.51
393.64	2840.53
393.85	2865.11
394.07	2658.26
394.28	2652.12
394.49	2709.46
394.71	2846.68
394.92	2865.11
395.13	2695.13
395.35	2768.85
395.56	2699.22
395.77	2787.29
395.98	2748.37
396.20	2918.36
396.41	2869.20
396.62	2869.20
396.84	2867.16
397.05	2803.67
397.26	2942.93
397.47	2895.83
397.69	2863.06
397.90	2992.08
398.11	2936.79
398.32	2844.63
398.54	2756.57
398.75	2969.55
398.96	2957.27
399.18	3100.62
399.39	2973.65
399.60	3067.86
399.81	2809.81
400.03	2959.31
400.24	3274.70
400.45	2885.59
400.66	3045.33
400.88	2920.40
401.09	3233.74
401.30	3043.28
401.51	3213.26
401.73	3157.97
401.94	3129.30
402.15	3168.21
402.36	3162.06
402.58	3131.34
402.79	3203.02
403.00	3188.69
403.21	3217.36
403.43	3172.30
403.64	3196.88
403.85	3084.24
404.06	3289.04
404.27	3157.97
404.49	3172.30
404.70	3153.87
404.91	3268.56
405.12	3182.54
405.34	3121.10
405.55	3409.87
405.76	3178.45
405.97	3246.03
406.19	3305.42
406.40	3207.12
406.61	3342.28
406.82	3330.00
407.03	3344.33
407.25	3262.41
407.46	3379.15
407.67	3444.68
407.88	3286.99
408.09	3321.81
408.31	3362.76
408.52	3450.83
408.73	3286.99
408.94	3340.24
409.15	3383.24
409.37	3487.69
409.58	3418.06
409.79	3540.94
410.00	3559.37
410.21	3438.54
410.43	3383.24
410.64	3397.58
410.85	3522.51
411.06	3368.91
411.27	3592.14
411.48	3467.21
411.70	3436.49
411.91	3547.08
412.12	3678.15
412.33	3620.81
412.54	3508.17
412.76	3635.14
412.97	3684.30
413.18	3579.85
413.39	3665.86
413.60	3575.75
413.81	3749.83
414.03	3618.76
414.24	3653.58
414.45	3760.07
414.66	3553.23
414.87	3649.48
415.08	3710.92
415.30	3762.12
415.51	3778.50
415.72	3780.55
415.93	3700.68
416.14	3878.85
416.35	3907.52
416.56	3704.78
416.78	3731.40
416.99	3700.68
417.20	3844.04
417.41	3854.28
417.62	3968.96
417.83	3862.47
418.04	3790.79
418.26	4036.55
418.47	3899.33
418.68	3952.58
418.89	3944.39
419.10	4005.83
419.31	3993.54
419.52	4054.98
419.73	4128.70
419.95	4091.84
420.16	3991.49
420.37	4034.50
420.58	4130.75
420.79	3880.90
421.00	4097.99
421.21	4188.10
421.42	3993.54
421.63	4249.54
421.85	4134.85
422.06	4239.30
422.27	4114.37
422.48	4241.34
422.69	4257.73
422.90	4210.62
423.11	4212.67
423.32	4290.49
423.53	4323.26
423.75	4358.08
423.96	4526.01
424.17	4396.99
424.38	4499.39
424.59	4530.11
424.80	4597.69
425.01	4560.83
425.22	4392.89
425.43	4468.67
425.64	4720.57
425.85	4650.94
426.06	4505.53
426.28	4716.47
426.49	4474.81
426.70	4515.77
426.91	4540.35
427.12	4796.34
427.33	4687.80
427.54	4677.56
427.75	4765.62
427.96	4812.73
428.17	4652.98
428.38	4589.50
428.59	4863.93
428.80	4683.70
429.01	4935.60
429.23	4771.77
429.44	4935.60
429.65	5113.78
429.86	4949.94
430.07	4825.01
430.28	4874.17
430.49	4923.32
430.70	5115.83
430.91	5087.15
431.12	4890.55
431.33	5027.76
431.54	5138.35
431.75	5025.72
431.96	5013.43
432.17	5054.39
432.38	5099.44
432.59	5285.81
432.80	5173.17
433.01	5291.95
433.22	5228.46
433.43	5171.12
433.64	5306.29
433.85	5259.18
434.06	5271.47
434.27	5271.47
434.49	5248.94
434.70	5410.73
434.91	5343.15
435.12	5277.62
435.33	5386.16
435.54	5410.73
435.75	5328.81
435.96	5523.37
436.17	5269.42
436.38	5504.94
436.59	5640.11
436.80	5470.12
437.01	5648.30
437.22	5679.02
437.43	5593.00
437.64	5554.09
437.85	5742.50
438.06	5691.31
438.27	5494.70
438.48	5695.40
438.69	5787.56
438.90	5683.11
439.11	5609.39
439.32	5881.77
439.53	5978.02
439.74	5791.66
439.95	5803.94
440.16	5881.77
440.37	5980.07
440.57	5584.81
440.78	5785.51
440.99	5877.67
441.20	5828.52
441.41	5820.33
441.62	5851.05
441.83	5771.18
442.04	6070.18
442.25	6076.32
442.46	6082.47
442.67	6066.08
442.88	6397.85
443.09	5918.63
443.30	5978.02
443.51	6180.77
443.72	6393.76
443.93	6131.62
444.14	6320.03
444.35	6004.64
444.56	6221.73
444.77	6197.15
444.98	6262.69
445.19	6303.65
445.40	6258.59
445.61	6195.11
445.81	6506.40
446.02	6487.96
446.23	6274.98
446.44	6156.19
446.65	6471.58
446.86	6436.77
447.07	6586.27
447.28	6645.66
447.49	6768.54
447.70	6563.74
447.91	6621.08
448.12	6752.15
448.33	6703.00
448.54	6809.50
448.74	6659.99
448.95	6844.31
449.16	6557.60
449.37	6893.46
449.58	6854.55
449.79	6936.47
450.00	6764.44
450.21	6969.24
450.42	6965.14
450.63	7114.64
450.84	6991.77
451.05	6956.95
451.25	7100.31
451.46	6950.81
451.67	7298.96
451.88	7182.23
452.09	7335.82
452.30	7051.16
452.51	7233.43
452.72	7344.02
452.93	7557.00
453.13	7090.07
453.34	7212.95
453.55	7301.01
453.76	7339.92
453.97	7618.44
454.18	7309.20
454.39	7683.98
454.60	7303.06
454.81	7483.28
455.01	7581.58
455.22	7352.21
455.43	7511.95
455.64	7747.47
455.85	7894.92
456.06	7974.79
456.27	7669.64
456.48	7751.56
456.68	7946.12
456.89	7827.34
457.10	7921.54
457.31	8120.20
457.52	7919.50
457.73	8064.90
457.94	8245.12
458.14	7896.97
458.35	8449.92
458.56	8253.31
458.77	8128.39
458.98	8341.38
459.19	8343.42
459.39	8523.65
459.60	8437.63
459.81	8195.97
460.02	8486.78
460.23	8511.36
460.44	8828.79
460.65	8621.95
460.85	8675.20
461.06	8763.26
461.27	8470.40
461.48	8937.34
461.69	8853.37
461.89	8646.52
462.10	8914.81
462.31	8683.39
462.52	8767.35
462.73	8933.24
462.94	9129.84
463.14	9041.78
463.35	8892.28
463.56	9570.16
463.77	9463.66
463.98	9072.50
464.18	9203.57
464.39	9482.10
464.60	9668.46
464.81	9445.23
465.02	9559.92
465.23	9674.60
465.43	9668.46
465.64	9670.51
465.85	9711.47
466.06	9830.25
466.27	9957.22
466.47	9916.26
466.68	9969.51
466.89	9877.35
467.10	9934.70
467.30	9740.14
467.51	10264.42
467.72	10293.09
467.93	10010.47
468.14	10110.82
468.34	10338.15
468.55	10309.47
468.76	10530.66
468.97	10434.40
469.17	10655.58
469.38	10725.21
469.59	10796.89
469.80	10483.55
470.01	10825.56
470.21	10700.64
470.42	10874.71
470.63	10985.30
470.84	10819.42
471.04	11106.13
471.25	11009.88
471.46	11157.33
471.67	11435.86
471.87	11296.60
472.08	11489.10
472.29	11583.31
472.50	11153.24
472.70	11442.00
472.91	11575.12
473.12	11745.10
473.33	11822.92
473.53	12062.54
473.74	11693.90
473.95	11859.79
474.16	11986.76
474.36	12166.98
474.57	12351.30
474.78	12470.08
474.99	12527.42
475.19	12445.51
475.40	12627.78
475.61	12812.09
475.81	12832.57
476.02	13143.86
476.23	12894.01
476.44	12975.93
476.64	13209.40
476.85	13444.91
477.06	13332.28
477.27	13598.51
477.47	13518.64
477.68	13625.14
477.89	13897.52
478.09	13825.84
478.30	13911.85
478.51	13870.89
478.71	14036.78
478.92	14331.69
479.13	14262.05
479.34	14372.64
479.54	14413.60
479.75	14346.02
479.96	14622.50
480.16	14704.42
480.37	14772.00
480.58	14872.35
480.78	15265.56
480.99	15013.66
481.20	15415.06
481.41	15433.49
481.61	15320.85
481.82	15421.20
482.03	15445.78
482.23	15472.40
482.44	15894.29
482.65	16051.98
482.85	16105.23
483.06	15826.70
483.27	16267.02
483.47	16303.88
483.68	16391.94
483.89	16393.99
484.09	16447.24
484.30	16408.33
484.51	16707.33
484.71	16774.91
484.92	16627.46
485.13	17032.96
485.33	16844.54
485.54	17016.57
485.75	17286.90
485.95	17497.84
486.16	17483.51
486.37	17608.44
486.57	17518.32
486.78	17538.80
486.98	17684.21
487.19	17811.18
487.40	17927.92
487.60	18069.23
487.81	18327.27
488.02	18022.12
488.22	18333.42
488.43	18362.09
488.64	18444.01
488.84	18593.51
489.05	18988.77
489.25	18816.74
489.46	18984.67
489.67	18921.18
489.87	19164.89
490.08	19236.57
490.29	19121.88
490.49	19717.84
490.70	19443.42
490.90	19830.48
491.11	19472.09
491.32	19783.38
491.52	19777.23
491.73	19877.58
491.94	20051.66
492.14	19906.26
492.35	20455.11
492.55	20238.03
492.76	20336.33
492.97	20584.13
493.17	20588.23
493.38	20459.21
493.58	20795.07
493.79	20752.07
494.00	20913.86
494.20	20915.90
494.41	21122.75
494.61	21147.33
494.82	21018.30
495.02	21251.77
495.23	21315.26
495.44	21339.83
495.64	21472.95
495.85	21679.80
496.05	21761.72
496.26	21655.22
496.47	21907.12
496.67	21542.58
496.88	22062.77
497.08	21843.63
497.29	21995.18
497.49	22075.06
497.70	22337.20
497.91	22419.11
498.11	22482.60
498.32	22582.95
498.52	22486.70
498.73	22660.77
498.93	22726.31
499.14	22652.58
499.34	23027.36
499.55	23013.02
499.76	22988.45
499.96	22871.72
500.17	23080.61
500.37	23252.64
500.58	23215.77
500.78	23248.54
500.99	23213.73
501.19	23537.30
501.40	23522.97
501.60	23152.29
501.81	23338.65
502.02	23664.28
502.22	23322.27
502.43	23611.03
502.63	23950.99
502.84	24018.58
503.04	23903.89
503.25	24170.13
503.45	24133.26
503.66	24280.72
503.86	23850.64
504.07	24272.53
504.27	23946.90
504.48	24805.00
504.68	24344.20
504.89	24673.93
505.09	24645.26
505.30	24569.48
505.50	24708.74
505.71	24626.82
505.91	24979.07
506.12	24706.70
506.32	24813.19
506.53	24602.25
506.73	24950.40
506.94	25216.64
507.14	24850.05
507.35	25040.51
507.55	25067.14
507.76	25374.33
507.96	25099.90
508.17	25280.13
508.37	25554.55
508.58	25464.44
508.78	25333.37
508.99	25722.49
509.19	25665.14
509.40	25919.09
509.60	25794.17
509.81	25966.20
510.01	25601.66
510.22	25894.52
510.42	25904.76
510.63	26277.49
510.83	25884.28
511.04	25996.92
511.24	26041.97
511.44	26193.52
511.65	26373.74
511.85	26150.51
512.06	26312.30
512.26	26353.26
512.47	26566.25
512.67	26513.00
512.88	26654.31
513.08	26369.65
513.29	26873.45
513.49	26848.87
513.69	26707.56
513.90	26797.67
514.10	26701.42
514.31	26844.77
514.51	27260.51
514.72	27168.35
514.92	26943.08
515.13	27006.56
515.33	27061.86
515.53	27178.59
515.74	27440.73
515.94	27197.02
516.15	27399.77
516.35	27264.61
516.56	27680.35
516.76	27539.04
516.96	27487.84
517.17	27874.90
517.37	27752.02
517.58	27799.13
517.78	28190.29
517.99	28235.35
518.19	28321.36
518.39	27893.33
518.60	28200.53
518.80	28454.48
519.01	28307.02
519.21	28499.53
519.41	28458.57
519.62	28671.56
519.82	28780.10
520.03	28935.75
520.23	28923.46
520.43	28728.91
520.64	28839.50
520.84	29197.89
521.05	28923.46
521.25	29079.11
521.45	29279.81
521.66	29316.67
521.86	29122.12
522.07	29572.67
522.27	29527.61
522.47	29578.81
522.68	29961.78
522.88	29779.51
523.08	30062.13
523.29	30185.01
523.49	30094.90
523.70	30092.85
523.90	30297.65
524.10	30613.04
524.31	30307.89
524.51	30225.97
524.71	30883.37
524.92	30963.24
525.12	30920.23
525.33	30647.85
525.53	31077.93
525.73	30961.19
525.94	31426.08
526.14	31217.19
526.34	31243.81
526.55	31391.26
526.75	31462.94
526.95	31723.04
527.16	31469.09
527.36	31452.70
527.56	31921.69
527.77	32005.66
527.97	32171.54
528.17	31827.48
528.38	32331.28
528.58	32564.75
528.78	32382.48
528.99	32419.35
529.19	32808.46
529.39	32550.42
529.60	32744.97
529.80	33211.91
530.00	32833.04
530.21	33347.08
530.41	33664.51
530.61	33306.12
530.82	33146.37
531.02	33293.83
531.22	33752.57
531.43	33674.75
531.63	33535.49
531.83	33730.05
532.04	34053.62
532.24	33891.83
532.44	34115.06
532.64	34225.65
532.85	34168.31
533.05	34266.61
533.25	34289.14
533.46	34233.85
533.66	34924.01
533.86	34493.94
534.07	34649.58
534.27	34436.59
534.47	35192.30
534.67	35268.07
534.88	34989.55
535.08	35220.97
535.28	35347.94
535.49	35775.97
535.69	35468.77
535.89	35821.02
536.09	35667.42
536.30	36107.74
536.50	35741.15
536.70	36216.28
536.91	35896.80
537.11	35972.57
537.31	36412.88
537.51	35970.52
537.72	36435.41
537.92	36591.06
538.12	36877.77
538.32	36500.95
538.53	37103.05
538.73	36496.85
538.93	36752.85
539.13	36920.78
539.34	37078.47
539.54	36584.91
539.74	37176.78
539.94	37086.67
540.15	37105.10
540.35	37561.79
540.55	37483.97
540.75	37465.54
540.96	37383.62
541.16	37393.86
541.36	37782.98
541.56	37537.22
541.77	37971.39
541.97	37967.29
542.17	38299.06
542.37	38139.32
542.58	37934.53
542.78	38116.79
542.98	37950.91
543.18	38413.75
543.38	38514.10
543.59	38716.85
543.79	38014.40
543.99	38421.94
544.19	38702.51
544.40	38378.93
544.60	38821.30
544.80	38213.05
545.00	38684.08
545.20	38720.95
545.41	38983.09
545.61	38630.83
545.81	39214.51
546.01	38931.89
546.21	38856.11
546.42	38991.28
546.62	38921.65
546.82	39038.38
547.02	39232.94
547.22	39445.93
547.43	39261.61
547.63	39134.63
547.83	39501.22
548.03	39425.45
548.23	39699.87
548.44	39302.57
548.64	39447.97
548.84	39724.45
549.04	39663.01
549.24	39851.42
549.45	40242.59
549.65	40037.79
549.85	40041.88
550.05	39882.14
550.25	39847.33
550.45	40551.83
550.66	39779.74
550.86	39984.54
551.06	40426.90
551.26	40404.38
551.46	40256.92
551.66	40048.03
551.87	40025.50
552.07	40492.44
552.27	40078.75
552.47	40531.35
552.67	40482.20
552.87	40605.08
553.07	40787.35
553.28	40783.25
553.48	40924.56
553.68	40158.62
553.88	40936.85
554.08	40979.85
554.28	40981.90
554.48	40711.57
554.69	41291.15
554.89	40908.18
555.09	41217.42
555.29	40654.23
555.49	40897.94
555.69	41178.51
555.89	40983.95
556.10	41403.78
556.30	40988.05
556.50	41600.39
556.70	41131.40
556.90	41530.76
557.10	41414.02
557.30	41137.55
557.50	41643.40
557.70	41219.47
557.91	41979.26
558.11	41919.87
558.31	41723.27
558.51	41368.97
558.71	41864.58
558.91	42087.81
559.11	41780.61
559.31	41485.70
559.51	41620.87
559.72	41833.86
559.92	42020.22
560.12	41766.27
560.32	41944.45
560.52	41825.67
560.72	42177.92
560.92	42003.84
561.12	42192.25
561.32	42382.71
561.52	41643.40
561.72	42493.30
561.93	42104.19
562.13	42452.34
562.33	42065.28
562.53	42990.96
562.73	42632.57
562.93	41842.05
563.13	42741.11
563.33	42337.66
563.53	42823.03
563.73	42491.26
563.93	42741.11
564.13	43101.55
564.33	42806.64
564.53	43001.20
564.74	43244.91
564.94	42902.90
565.14	43111.79
565.34	43064.69
565.54	43240.81
565.74	42976.62
565.94	43586.92
566.14	43433.32
566.34	43195.76
566.54	43943.27
566.74	43111.79
566.94	43461.99
567.14	43922.79
567.34	43042.16
567.54	43865.44
567.74	43603.30
567.94	43832.68
568.14	43812.20
568.34	44002.66
568.54	44070.24
568.74	44272.99
568.94	43726.18
569.14	44250.46
569.34	44447.07
569.54	44436.83
569.75	44109.15
569.95	44498.26
570.15	44735.83
570.35	44170.59
570.55	44180.83
570.75	44535.13
570.95	44340.57
571.15	44549.46
571.35	44791.12
571.55	44866.90
571.75	44471.64
571.95	44840.28
572.15	44797.27
572.35	44737.88
572.55	45360.46
572.75	44930.39
572.95	45206.86
573.15	45141.33
573.35	45118.80
573.55	45006.16
573.75	44905.81
573.95	45770.05
574.15	45325.64
574.35	45542.73
574.55	45464.91
574.75	45696.33
574.95	45618.50
575.15	45628.74
575.34	45602.12
575.54	45950.27
575.74	45950.27
575.94	45882.69
576.14	45839.68
576.34	46064.96
576.54	46320.96
576.74	45970.75
576.94	46064.96
577.14	46232.89
577.34	46984.50
577.54	46181.70
577.74	46650.68
577.94	46380.35
578.14	46597.43
578.34	46806.33
578.54	46048.58
578.74	46642.49
578.94	46730.55
579.14	46689.59
579.34	46579.00
579.54	46945.59
579.74	47144.24
579.94	46959.92
580.13	46890.29
580.33	47140.14
580.53	47095.09
580.73	47586.60
580.93	47533.35
581.13	47279.41
581.33	47699.24
581.53	48078.11
581.73	47744.30
581.93	47779.11
582.13	47797.54
582.33	48047.39
582.53	47344.94
582.73	47748.39
582.92	48166.18
583.12	47945.00
583.32	48129.31
583.52	48272.67
583.72	48424.22
583.92	48143.65
584.12	48297.25
584.32	48850.20
584.52	48465.18
584.72	48407.84
584.92	48631.07
585.11	49157.39
585.31	48616.73
585.51	49018.13
585.71	48612.63
585.91	49227.02
586.11	49022.23
586.31	48608.54
586.51	48645.40
586.71	49247.50
586.91	49566.99
587.10	49069.33
587.30	49210.64
587.50	49196.31
587.70	49292.56
587.90	49517.84
588.10	49538.32
588.30	49114.39
588.50	49616.14
