SpectraSuite Data File
++++++++++++++++++++++++++++++++++++
Date: Fri Jun 02 14:47:57 CEST 2017
User: INFO_000
Dark Spectrum Present: No
Reference Spectrum Present: No
Number of Sampled Component Spectra: 1
Spectrometers: USB4H00879
Integration Time (usec): 80000 (USB4H00879)
Spectra Averaged: 1 (USB4H00879)
Boxcar Smoothing: 0 (USB4H00879)
Correct for Electrical Dark: No (USB4H00879)
Strobe/Lamp Enabled: No (USB4H00879)
Correct for Detector Non-linearity: No (USB4H00879)
Correct for Stray Light: No (USB4H00879)
Number of Pixels in Processed Spectrum: 3648
>>>>>Begin Processed Spectral Data<<<<<
345.13	1329.13
345.34	1329.13
345.56	1329.13
345.78	1333.23
345.99	1279.98
346.21	1708.01
346.42	1650.66
346.64	1621.99
346.86	1738.73
347.07	1712.10
347.29	1722.34
347.50	1640.42
347.72	1648.61
347.94	1746.92
348.15	1607.66
348.37	1681.38
348.59	1701.86
348.80	1626.09
349.02	1777.64
349.23	1841.12
349.45	1822.69
349.67	1892.32
349.88	1759.21
350.10	1966.05
350.31	1804.26
350.53	1744.87
350.75	1957.86
350.96	1820.64
351.18	1830.88
351.39	1839.08
351.61	1810.40
351.82	1888.23
352.04	1892.32
352.26	1875.94
352.47	1912.80
352.69	1937.38
352.90	1769.44
353.12	1816.55
353.34	1853.41
353.55	1957.86
353.77	1869.80
353.98	1816.55
354.20	1765.35
354.41	1943.52
354.63	1923.04
354.85	1994.72
355.06	1834.98
355.28	1755.11
355.49	1853.41
355.71	1884.13
355.92	1875.94
356.14	1908.71
356.35	1888.23
356.57	1851.36
356.79	1902.56
357.00	1910.75
357.22	1943.52
357.43	1828.84
357.65	1904.61
357.86	1834.98
358.08	1865.70
358.29	1955.81
358.51	1998.82
358.72	1974.24
358.94	1947.62
359.16	1890.28
359.37	1912.80
359.59	1992.67
359.80	2013.15
360.02	1892.32
360.23	2009.06
360.45	1996.77
360.66	1880.04
360.88	1814.50
361.09	1955.81
361.31	1910.75
361.52	1908.71
361.74	2041.82
361.95	2050.02
362.17	1978.34
362.38	2066.40
362.60	2000.87
362.81	1931.23
363.03	1923.04
363.24	1992.67
363.46	2121.70
363.67	2068.45
363.89	2043.87
364.10	1970.15
364.32	1943.52
364.53	2103.26
364.75	1923.04
364.96	2009.06
365.18	2039.78
365.39	2023.39
365.61	1923.04
365.82	2019.30
366.04	2019.30
366.25	1888.23
366.47	2039.78
366.68	2058.21
366.90	2033.63
367.11	2017.25
367.33	2052.06
367.54	2066.40
367.76	1980.39
367.97	2002.91
368.19	2035.68
368.40	2183.13
368.62	1980.39
368.83	1914.85
369.05	2076.64
369.26	2019.30
369.48	1955.81
369.69	1943.52
369.91	2041.82
370.12	1998.82
370.33	2142.18
370.55	1949.67
370.76	2004.96
370.98	2084.83
371.19	2150.37
371.41	2037.73
371.62	2047.97
371.84	2000.87
372.05	2181.09
372.27	2068.45
372.48	2090.98
372.69	2035.68
372.91	2058.21
373.12	2123.74
373.34	2007.01
373.55	2105.31
373.77	2205.66
373.98	2125.79
374.20	2138.08
374.41	2236.38
374.62	2117.60
374.84	2201.57
375.05	2131.94
375.27	2131.94
375.48	2121.70
375.70	2185.18
375.91	2244.57
376.12	2269.15
376.34	2131.94
376.55	2133.98
376.77	2220.00
376.98	2111.46
377.19	2152.42
377.41	2123.74
377.62	2215.90
377.84	2293.72
378.05	2281.44
378.27	2144.22
378.48	2252.77
378.69	2344.92
378.91	2271.20
379.12	2238.43
379.34	2201.57
379.55	2330.59
379.76	2306.01
379.98	2179.04
380.19	2240.48
380.41	2269.15
380.62	2236.38
380.83	2232.29
381.05	2154.46
381.26	2326.49
381.47	2217.95
381.69	2330.59
381.90	2463.71
382.12	2279.39
382.33	2215.90
382.54	2291.68
382.76	2387.93
382.97	2271.20
383.19	2248.67
383.40	2375.64
383.61	2330.59
383.83	2340.83
384.04	2312.16
384.25	2277.34
384.47	2410.46
384.68	2361.31
384.89	2349.02
385.11	2428.89
385.32	2342.88
385.54	2283.49
385.75	2365.40
385.96	2332.64
386.18	2377.69
386.39	2437.08
386.60	2355.16
386.82	2437.08
387.03	2455.51
387.24	2447.32
387.46	2408.41
387.67	2441.18
387.88	2502.62
388.10	2494.43
388.31	2539.48
388.52	2547.67
388.74	2502.62
388.95	2445.27
389.16	2568.15
389.38	2453.47
389.59	2611.16
389.80	2592.73
390.02	2484.19
390.23	2658.26
390.44	2490.33
390.66	2574.30
390.87	2586.58
391.08	2590.68
391.30	2740.18
391.51	2602.97
391.72	2607.06
391.94	2676.70
392.15	2652.12
392.36	2695.13
392.58	2523.10
392.79	2729.94
393.00	2693.08
393.22	2707.41
393.43	2744.28
393.64	2762.71
393.85	2824.15
394.07	2590.68
394.28	2652.12
394.49	2746.33
394.71	2740.18
394.92	2748.37
395.13	2703.32
395.35	2834.39
395.56	2783.19
395.77	2744.28
395.98	2758.61
396.20	2901.97
396.41	2793.43
396.62	2850.77
396.84	2740.18
397.05	2787.29
397.26	2836.44
397.47	2951.12
397.69	2789.33
397.90	2908.12
398.11	2910.16
398.32	2965.46
398.54	2801.62
398.75	2965.46
398.96	2834.39
399.18	3049.43
399.39	2973.65
399.60	2985.94
399.81	2944.98
400.03	2893.78
400.24	3153.87
400.45	2990.03
400.66	2992.08
400.88	3008.47
401.09	3135.44
401.30	3014.61
401.51	3059.67
401.73	3166.16
401.94	3100.62
402.15	3106.77
402.36	3207.12
402.58	3135.44
402.79	3119.06
403.00	3127.25
403.21	3166.16
403.43	3184.59
403.64	3239.89
403.85	3108.82
404.06	3219.41
404.27	3076.05
404.49	3155.92
404.70	3096.53
404.91	3264.46
405.12	3241.93
405.34	3192.78
405.55	3352.52
405.76	3213.26
405.97	3182.54
406.19	3456.97
406.40	3246.03
406.61	3434.44
406.82	3393.48
407.03	3233.74
407.25	3301.33
407.46	3506.12
407.67	3471.31
407.88	3508.17
408.09	3459.02
408.31	3332.05
408.52	3477.45
408.73	3350.48
408.94	3428.30
409.15	3405.77
409.37	3403.72
409.58	3471.31
409.79	3379.15
410.00	3411.92
410.21	3352.52
410.43	3538.89
410.64	3342.28
410.85	3456.97
411.06	3557.32
411.27	3606.47
411.48	3526.60
411.70	3559.37
411.91	3635.14
412.12	3659.72
412.33	3665.86
412.54	3526.60
412.76	3612.62
412.97	3592.14
413.18	3624.90
413.39	3700.68
413.60	3717.06
413.81	3694.54
414.03	3581.90
414.24	3512.27
414.45	3786.69
414.66	3526.60
414.87	3831.75
415.08	3635.14
415.30	3692.49
415.51	3743.69
415.72	3760.07
415.93	3786.69
416.14	3755.97
416.35	3825.61
416.56	3764.17
416.78	3778.50
416.99	3809.22
417.20	3805.13
417.41	3841.99
417.62	3831.75
417.83	3987.40
418.04	3745.73
418.26	3860.42
418.47	3913.67
418.68	3903.43
418.89	3997.64
419.10	4116.42
419.31	3938.24
419.52	3899.33
419.73	3956.68
419.95	4020.16
420.16	3821.51
420.37	3940.29
420.58	4077.51
420.79	3905.48
421.00	4054.98
421.21	4046.79
421.42	4005.83
421.63	4122.56
421.85	4097.99
422.06	4122.56
422.27	4112.32
422.48	4196.29
422.69	4155.33
422.90	4118.47
423.11	4241.34
423.32	4251.58
423.53	4501.44
423.75	4335.55
423.96	4407.23
424.17	4253.63
424.38	4411.32
424.59	4374.46
424.80	4487.10
425.01	4399.04
425.22	4345.79
425.43	4343.74
425.64	4511.68
425.85	4581.31
426.06	4470.72
426.28	4571.07
426.49	4380.61
426.70	4464.57
426.91	4509.63
427.12	4560.83
427.33	4616.12
427.54	4644.79
427.75	4773.82
427.96	4726.71
428.17	4646.84
428.38	4745.14
428.59	4919.22
428.80	4689.85
429.01	4839.35
429.23	4677.56
429.44	4849.59
429.65	5009.33
429.86	4861.88
430.07	4802.49
430.28	4868.02
430.49	4876.21
430.70	5074.87
430.91	5218.22
431.12	4880.31
431.33	5173.17
431.54	5089.20
431.75	5158.83
431.96	5058.48
432.17	5119.92
432.38	5132.21
432.59	5400.49
432.80	5234.61
433.01	5107.63
433.22	5388.21
433.43	5169.07
433.64	5232.56
433.85	5277.62
434.06	5384.11
434.27	5255.09
434.49	5431.21
434.70	5580.71
434.91	5435.31
435.12	5523.37
435.33	5306.29
435.54	5443.50
435.75	5248.94
435.96	5576.62
436.17	5388.21
436.38	5654.44
436.59	5590.95
436.80	5599.15
437.01	5797.80
437.22	5697.45
437.43	5541.80
437.64	5519.28
437.85	5619.63
438.06	5803.94
438.27	5656.49
438.48	5744.55
438.69	5781.42
438.90	5726.12
439.11	5666.73
439.32	5914.53
439.53	5975.97
439.74	5894.05
439.95	5787.56
440.16	5898.15
440.37	5963.68
440.57	5832.62
440.78	5996.45
440.99	6068.13
441.20	5894.05
441.41	5887.91
441.62	6064.04
441.83	6008.74
442.04	6205.35
442.25	6041.51
442.46	6115.23
442.67	6236.06
442.88	6518.68
443.09	6072.23
443.30	6023.08
443.51	6098.85
443.72	6348.70
443.93	6186.91
444.14	6438.81
444.35	6291.36
444.56	6360.99
444.77	6434.72
444.98	6244.26
445.19	6254.50
445.40	6410.14
445.61	6338.46
445.81	6440.86
446.02	6590.36
446.23	6350.75
446.44	6352.80
446.65	6387.61
446.86	6608.80
447.07	6598.56
447.28	6743.96
447.49	6713.24
447.70	6588.32
447.91	6696.86
448.12	6754.20
448.33	6950.81
448.54	6659.99
448.74	6604.70
448.95	6809.50
449.16	6696.86
449.37	7057.30
449.58	6766.49
449.79	6918.04
450.00	6731.67
450.21	6819.74
450.42	6997.91
450.63	7112.60
450.84	6821.78
451.05	7133.08
451.25	6963.09
451.46	7018.39
451.67	7120.79
451.88	7092.12
452.09	6983.57
452.30	7161.75
452.51	6995.86
452.72	7141.27
452.93	7335.82
453.13	7110.55
453.34	7063.44
453.55	7204.75
453.76	7163.79
453.97	7679.88
454.18	7294.86
454.39	7462.80
454.60	7268.24
454.81	7419.79
455.01	7485.33
455.22	7153.55
455.43	7466.89
455.64	7790.47
455.85	7880.58
456.06	7696.27
456.27	7731.08
456.48	7724.94
456.68	7729.03
456.89	7677.83
457.10	7968.65
457.31	7939.97
457.52	7864.20
457.73	7790.47
457.94	8179.59
458.14	7876.49
458.35	8394.62
458.56	8152.96
458.77	7950.21
458.98	8417.15
459.19	8310.66
459.39	8343.42
459.60	8173.44
459.81	8120.20
460.02	8439.68
460.23	8392.58
460.44	8562.56
460.65	8589.18
460.85	8439.68
461.06	8638.33
461.27	8425.34
461.48	8890.23
461.69	8945.53
461.89	8609.66
462.10	8712.06
462.31	8607.61
462.52	8523.65
462.73	8765.31
462.94	9060.21
463.14	8853.37
463.35	9080.69
463.56	9404.27
463.77	9387.89
463.98	9023.35
464.18	9293.68
464.39	9326.45
464.60	9529.20
464.81	9396.08
465.02	9338.74
465.23	9774.95
465.43	9439.09
465.64	9721.71
465.85	9484.14
466.06	9705.32
466.27	9836.39
466.47	9899.88
466.68	9885.55
466.89	9629.55
467.10	10116.97
467.30	9891.69
467.51	9957.22
467.72	10188.64
467.93	10162.02
468.14	10157.92
468.34	10350.43
468.55	10397.54
468.76	10248.04
468.97	10252.13
469.17	10540.90
469.38	10585.95
469.59	10706.78
469.80	10534.75
470.01	10653.53
470.21	10884.95
470.42	11063.13
470.63	10895.19
470.84	10889.05
471.04	11290.45
471.25	11122.52
471.46	11036.50
471.67	11358.03
471.87	11466.58
472.08	11505.49
472.29	11646.80
472.50	11405.14
472.70	11493.20
472.91	11773.77
473.12	11820.88
473.33	11917.13
473.53	12212.04
473.74	11839.31
473.95	11927.37
474.16	12238.66
474.36	12169.03
474.57	12386.12
474.78	12597.06
474.99	12306.24
475.19	12607.30
475.40	12595.01
475.61	12947.26
475.81	13225.78
476.02	13317.94
476.23	12996.41
476.44	12957.50
476.64	13543.22
476.85	13446.96
477.06	13539.12
477.27	13682.48
477.47	13762.35
477.68	13696.82
477.89	14004.01
478.09	14118.70
478.30	14092.07
478.51	13805.36
478.71	14253.86
478.92	14274.34
479.13	14319.40
479.34	14458.66
479.54	14589.73
479.75	14685.98
479.96	14802.72
480.16	14972.70
480.37	14782.24
480.58	14997.28
480.78	15107.87
480.99	15435.54
481.20	15470.36
481.41	15568.66
481.61	15533.84
481.82	15576.85
482.03	15632.15
482.23	15378.20
482.44	16088.84
482.65	15875.85
482.85	16152.33
483.06	16150.28
483.27	15992.59
483.47	16248.58
483.68	16365.32
483.89	16426.76
484.09	16649.99
484.30	16729.86
484.51	16819.97
484.71	16795.39
484.92	16828.16
485.13	17075.96
485.33	17147.64
485.54	17006.33
485.75	17565.43
485.95	17696.50
486.16	17671.92
486.37	17762.03
486.57	17540.85
486.78	17678.07
486.98	17612.53
487.19	17942.25
487.40	17899.25
487.60	17960.69
487.81	18319.08
488.02	18165.48
488.22	18005.74
488.43	18130.67
488.64	18370.28
488.84	18357.99
489.05	18689.76
489.25	18902.75
489.46	18796.26
489.67	18855.65
489.87	19171.04
490.08	19222.23
490.29	19216.09
490.49	19465.94
490.70	19371.74
490.90	19650.26
491.11	19259.10
491.32	19635.92
491.52	19549.91
491.73	19807.95
491.94	19779.28
492.14	19758.80
492.35	20039.37
492.55	19984.08
492.76	19994.32
492.97	20365.00
493.17	20131.53
493.38	20319.95
493.58	20758.21
493.79	20629.19
494.00	20838.08
494.20	20702.92
494.41	20893.38
494.61	20883.14
494.82	20846.27
495.02	20799.17
495.23	21075.65
495.44	21429.94
495.64	21382.84
495.85	21339.83
496.05	21499.58
496.26	21401.27
496.47	21870.26
496.67	21552.82
496.88	21817.01
497.08	21421.75
497.29	21919.41
497.49	21866.16
497.70	21771.96
497.91	22052.53
498.11	22105.77
498.32	22435.50
498.52	22337.20
498.73	22394.54
498.93	22570.66
499.14	22343.34
499.34	22509.22
499.55	22634.15
499.76	22386.35
499.96	22589.10
500.17	22705.83
500.37	22619.81
500.58	22822.56
500.78	22845.09
500.99	23070.37
501.19	23105.18
501.40	23105.18
501.60	22787.75
501.81	23293.60
502.02	23305.88
502.22	23213.73
502.43	23535.26
502.63	23668.37
502.84	23781.01
503.04	23312.03
503.25	23549.59
503.45	23746.20
503.66	23762.58
503.86	23893.65
504.07	23875.22
504.27	23883.41
504.48	24503.95
504.68	24094.35
504.89	24628.87
505.09	24401.55
505.30	24379.02
505.50	24479.37
505.71	24669.83
505.91	24665.74
506.12	24645.26
506.32	24794.76
506.53	24899.20
506.73	25050.75
506.94	24759.94
507.14	24792.71
507.35	24473.23
507.55	25255.55
507.76	25108.10
507.96	25310.85
508.17	25341.57
508.37	25476.73
508.58	25296.51
508.78	25515.64
508.99	25497.21
509.19	25857.65
509.40	25845.37
509.60	25495.16
509.81	25982.58
510.01	25720.44
510.22	25630.33
510.42	25978.48
510.63	25843.32
510.83	26095.22
511.04	26074.74
511.24	26144.37
511.44	26123.89
511.65	26431.08
511.85	26599.02
512.06	26271.34
512.26	26556.01
512.47	26480.24
512.67	26590.83
512.88	26916.45
513.08	26441.32
513.29	26795.62
513.49	26875.49
513.69	27018.85
513.90	26881.64
514.10	26936.93
514.31	27086.43
514.51	27092.58
514.72	27039.33
514.92	27059.81
515.13	27283.04
515.33	27600.47
515.53	27342.43
515.74	27524.70
515.94	27493.98
516.15	27610.71
516.35	27473.50
516.56	27864.66
516.76	27770.46
516.96	27711.07
517.17	28087.89
517.37	27909.72
517.58	28143.19
517.78	27991.64
517.99	28008.02
518.19	28489.29
518.39	28556.88
518.60	28327.50
518.80	28417.61
519.01	28706.38
519.21	28630.60
519.41	28898.89
519.62	28782.15
519.82	28700.23
520.03	29206.08
520.23	28761.67
520.43	28689.99
520.64	29144.64
520.84	29453.89
521.05	29077.06
521.25	29656.64
521.45	29466.17
521.66	29625.92
521.86	29576.76
522.07	29486.65
522.27	29832.76
522.47	29752.89
522.68	30088.76
522.88	30127.67
523.08	29976.12
523.29	30537.26
523.49	30449.20
523.70	30367.28
523.90	30852.65
524.10	30662.19
524.31	30838.31
524.51	30287.41
524.71	30631.47
524.92	30778.92
525.12	30557.74
525.33	30864.94
525.53	31022.63
525.73	31213.09
525.94	31551.01
526.14	31254.05
526.34	31405.60
526.55	31684.12
526.75	31688.22
526.95	31497.76
527.16	31901.21
527.36	31796.76
527.56	31970.84
527.77	32259.60
527.97	32067.09
528.17	32364.05
528.38	32235.03
528.58	32382.48
528.78	32572.94
528.99	32478.74
529.19	32775.69
529.39	32206.36
529.60	33037.83
529.80	32912.91
530.00	33019.40
530.21	33117.70
530.41	33408.51
530.61	33347.08
530.82	33488.38
531.02	33474.05
531.22	33476.10
531.43	33545.73
531.63	33760.76
531.83	34203.13
532.04	34354.68
532.24	33646.08
532.44	34133.50
532.64	34383.35
532.85	34305.52
533.05	34354.68
533.25	34172.41
533.46	33977.85
533.66	34790.89
533.86	34278.90
534.07	35200.49
534.27	34829.80
534.47	34809.32
534.67	34668.02
534.88	34792.94
535.08	35087.85
535.28	35100.14
535.49	35476.96
535.69	35522.02
535.89	35366.37
536.09	35337.70
536.30	35847.64
536.50	35892.70
536.70	35853.79
536.91	35366.37
537.11	36042.20
537.31	36214.23
537.51	35921.37
537.72	36658.64
537.92	36290.01
538.12	36558.29
538.32	36349.40
538.53	36376.02
538.73	36660.69
538.93	36408.79
539.13	36330.97
539.34	36748.75
539.54	36515.28
539.74	37268.94
539.94	37082.57
540.15	36687.31
540.35	37148.11
540.55	37637.57
540.75	37264.84
540.96	37103.05
541.16	37287.37
541.36	37545.41
541.56	37430.72
541.77	37633.47
541.97	37549.51
542.17	37662.15
542.37	37574.08
542.58	37838.27
542.78	37737.92
542.98	37881.28
543.18	37809.60
543.38	38188.47
543.59	38065.60
543.79	37733.82
543.99	38034.88
544.19	38458.81
544.40	38329.78
544.60	38352.31
544.80	38139.32
545.00	38419.89
545.20	38720.95
545.41	38786.48
545.61	38565.30
545.81	38743.47
546.01	38628.79
546.21	38530.48
546.42	38702.51
546.62	39148.97
546.82	38700.47
547.02	38692.27
547.22	38753.71
547.43	38874.54
547.63	39435.69
547.83	39124.40
548.03	39024.04
548.23	39169.45
548.44	39450.02
548.64	39458.21
548.84	39335.34
549.04	39660.96
549.24	39583.14
549.45	39654.82
549.65	39472.55
549.85	39568.80
550.05	39663.01
550.25	39736.74
550.45	39968.16
550.66	39816.61
550.86	39515.56
551.06	39894.43
551.26	39679.39
551.46	39962.01
551.66	40179.10
551.87	40197.53
552.07	40048.03
552.27	40230.30
552.47	40211.87
552.67	40033.69
552.87	40441.24
553.07	40025.50
553.28	40121.76
553.48	39998.88
553.68	40641.94
553.88	40480.15
554.08	40357.27
554.28	40924.56
554.48	40338.84
554.69	41076.11
554.89	40424.86
555.09	40641.94
555.29	40555.93
555.49	41024.91
555.69	41035.15
555.89	41065.87
556.10	41026.96
556.30	40785.30
556.50	41211.28
556.70	41235.85
556.90	41596.29
557.10	41153.93
557.30	41397.64
557.50	41368.97
557.70	41569.67
557.91	41502.09
558.11	41334.15
558.31	41708.93
558.51	41469.32
558.71	41471.37
558.91	42100.09
559.11	41536.90
559.31	41952.64
559.51	41575.81
559.72	41608.58
559.92	41991.55
560.12	41631.11
560.32	41880.96
560.52	41878.91
560.72	41782.66
560.92	42118.53
561.12	42139.00
561.32	42628.47
561.52	42175.87
561.72	42384.76
561.93	42034.56
562.13	42321.27
562.33	42200.44
562.53	43011.44
562.73	42366.33
562.93	42548.60
563.13	42472.82
563.33	42233.21
563.53	42806.64
563.73	42503.54
563.93	42655.09
564.13	43255.15
564.33	42937.71
564.53	43093.36
564.74	42982.77
564.94	43072.88
565.14	43101.55
565.34	43171.18
565.54	43218.28
565.74	43083.12
565.94	43521.38
566.14	43193.71
566.34	43408.75
566.54	43605.35
566.74	42882.42
566.94	43640.17
567.14	43771.24
567.34	43677.03
567.54	43396.46
567.74	43478.38
567.94	43474.28
568.14	43726.18
568.34	44096.86
568.54	43586.92
568.74	44209.50
568.94	44004.70
569.14	44479.83
569.34	44217.69
569.54	44266.84
569.75	43967.84
569.95	44414.30
570.15	45004.11
570.35	44580.18
570.55	44725.59
570.75	44451.16
570.95	44449.11
571.15	44713.30
571.35	44602.71
571.55	45604.17
571.75	44879.19
571.95	45233.49
572.15	44713.30
572.35	45208.91
572.55	44930.39
572.75	45264.21
572.95	45385.04
573.15	45446.47
573.35	45088.08
573.55	45278.54
573.75	45034.83
573.95	45452.62
574.15	45350.22
574.35	45565.26
574.55	45524.30
574.75	45380.94
574.95	45704.52
575.15	45376.84
575.34	45897.03
575.54	45845.83
575.74	45813.06
575.94	45761.86
576.14	45940.04
576.34	46097.73
576.54	46290.24
576.74	46456.12
576.94	45794.63
577.14	46294.33
577.34	46552.38
577.54	46230.85
577.74	46753.08
577.94	46515.51
578.14	46587.19
578.34	46902.58
578.54	45919.56
578.74	46921.01
578.94	47047.99
579.14	46787.89
579.34	46822.71
579.54	46800.18
579.74	47203.63
579.94	47256.88
580.13	47482.16
580.33	47473.96
580.53	47441.20
580.73	47420.72
580.93	47371.57
581.13	47390.00
581.33	47990.05
581.53	47904.04
581.73	47559.98
581.93	48270.62
582.13	47564.07
582.33	48055.59
582.53	47856.93
582.73	47990.05
582.92	47770.92
583.12	47852.84
583.32	47977.76
583.52	47689.00
583.72	48948.50
583.92	47951.14
584.12	48497.95
584.32	48653.59
584.52	48645.40
584.72	48760.09
584.92	48620.83
585.11	49222.93
585.31	49009.94
585.51	48956.69
585.71	48799.00
585.91	49130.77
586.11	48786.71
586.31	49214.74
586.51	48776.47
586.71	49104.15
586.91	49321.23
587.10	49181.97
587.30	49120.53
587.50	49394.96
587.70	49386.77
587.90	49267.98
588.10	49470.73
588.30	49210.64
588.50	49663.24
