SpectraSuite Data File
++++++++++++++++++++++++++++++++++++
Date: Fri Jun 02 14:48:01 CEST 2017
User: INFO_000
Dark Spectrum Present: No
Reference Spectrum Present: No
Number of Sampled Component Spectra: 1
Spectrometers: USB4H00879
Integration Time (usec): 80000 (USB4H00879)
Spectra Averaged: 1 (USB4H00879)
Boxcar Smoothing: 0 (USB4H00879)
Correct for Electrical Dark: No (USB4H00879)
Strobe/Lamp Enabled: No (USB4H00879)
Correct for Detector Non-linearity: No (USB4H00879)
Correct for Stray Light: No (USB4H00879)
Number of Pixels in Processed Spectrum: 3648
>>>>>Begin Processed Spectral Data<<<<<
345.13	1312.75
345.34	1312.75
345.56	1312.75
345.78	1273.84
345.99	1263.60
346.21	1679.33
346.42	1662.95
346.64	1691.62
346.86	1779.68
347.07	1621.99
347.29	1777.64
347.50	1617.90
347.72	1728.49
347.94	1718.25
348.15	1611.75
348.37	1601.51
348.59	1718.25
348.80	1654.76
349.02	1808.36
349.23	1890.28
349.45	1853.41
349.67	1935.33
349.88	1808.36
350.10	1972.19
350.31	1839.08
350.53	1886.18
350.75	2027.49
350.96	1777.64
351.18	1845.22
351.39	1847.27
351.61	1820.64
351.82	1918.95
352.04	1896.42
352.26	1802.21
352.47	1914.85
352.69	1882.08
352.90	1751.01
353.12	1855.46
353.34	1785.83
353.55	1892.32
353.77	1918.95
353.98	1818.60
354.20	1843.17
354.41	1974.24
354.63	1931.23
354.85	2041.82
355.06	1900.52
355.28	1781.73
355.49	1912.80
355.71	1877.99
355.92	1900.52
356.14	1984.48
356.35	1865.70
356.57	1894.37
356.79	1918.95
357.00	1849.32
357.22	2004.96
357.43	1855.46
357.65	2025.44
357.86	1802.21
358.08	1875.94
358.29	1951.71
358.51	1941.47
358.72	1914.85
358.94	1982.43
359.16	1929.19
359.37	1925.09
359.59	1902.56
359.80	1945.57
360.02	1910.75
360.23	1986.53
360.45	1994.72
360.66	1908.71
360.88	1804.26
361.09	1929.19
361.31	1996.77
361.52	1931.23
361.74	2056.16
361.95	2023.39
362.17	1949.67
362.38	2035.68
362.60	1974.24
362.81	2058.21
363.03	1910.75
363.24	1990.63
363.46	2123.74
363.67	2033.63
363.89	2052.06
364.10	2023.39
364.32	1992.67
364.53	2025.44
364.75	1832.93
364.96	2039.78
365.18	2025.44
365.39	2009.06
365.61	1925.09
365.82	2093.02
366.04	2000.87
366.25	1945.57
366.47	2041.82
366.68	2074.59
366.90	1992.67
367.11	2039.78
367.33	2070.50
367.54	2004.96
367.76	1955.81
367.97	2054.11
368.19	1994.72
368.40	2150.37
368.62	2093.02
368.83	1972.19
369.05	2093.02
369.26	2054.11
369.48	2043.87
369.69	2052.06
369.91	2103.26
370.12	2037.73
370.33	2097.12
370.55	1912.80
370.76	2064.35
370.98	2097.12
371.19	2035.68
371.41	2035.68
371.62	2095.07
371.84	1990.63
372.05	2205.66
372.27	2062.30
372.48	2097.12
372.69	2107.36
372.91	2191.33
373.12	2158.56
373.34	2035.68
373.55	2097.12
373.77	2222.05
373.98	2099.17
374.20	2197.47
374.41	2306.01
374.62	2168.80
374.84	2222.05
375.05	2232.29
375.27	2138.08
375.48	2127.84
375.70	2158.56
375.91	2248.67
376.12	2287.58
376.34	2166.75
376.55	2154.46
376.77	2228.19
376.98	2101.22
377.19	2197.47
377.41	2158.56
377.62	2265.05
377.84	2222.05
378.05	2312.16
378.27	2265.05
378.48	2281.44
378.69	2398.17
378.91	2338.78
379.12	2244.57
379.34	2222.05
379.55	2461.66
379.76	2281.44
379.98	2181.09
380.19	2234.33
380.41	2256.86
380.62	2363.36
380.83	2238.43
381.05	2289.63
381.26	2389.98
381.47	2193.37
381.69	2291.68
381.90	2426.84
382.12	2410.46
382.33	2308.06
382.54	2293.72
382.76	2295.77
382.97	2326.49
383.19	2301.92
383.40	2367.45
383.61	2260.96
383.83	2289.63
384.04	2422.75
384.25	2385.88
384.47	2471.90
384.68	2435.03
384.89	2293.72
385.11	2361.31
385.32	2328.54
385.54	2404.32
385.75	2355.16
385.96	2551.77
386.18	2428.89
386.39	2465.75
386.60	2293.72
386.82	2529.24
387.03	2465.75
387.24	2547.67
387.46	2465.75
387.67	2523.10
387.88	2465.75
388.10	2504.67
388.31	2453.47
388.52	2543.58
388.74	2537.43
388.95	2486.23
389.16	2484.19
389.38	2463.71
389.59	2613.21
389.80	2600.92
390.02	2523.10
390.23	2594.78
390.44	2574.30
390.66	2559.96
390.87	2527.19
391.08	2623.45
391.30	2721.75
391.51	2664.41
391.72	2674.65
391.94	2668.50
392.15	2701.27
392.36	2658.26
392.58	2600.92
392.79	2635.74
393.00	2748.37
393.22	2731.99
393.43	2811.86
393.64	2781.14
393.85	2838.48
394.07	2736.09
394.28	2736.09
394.49	2897.88
394.71	2719.70
394.92	2836.44
395.13	2756.57
395.35	2852.82
395.56	2707.41
395.77	2942.93
395.98	2889.68
396.20	2801.62
396.41	2805.72
396.62	2881.49
396.84	2854.87
397.05	2795.48
397.26	2865.11
397.47	2975.70
397.69	2908.12
397.90	2928.60
398.11	2936.79
398.32	2969.55
398.54	2877.40
398.75	2873.30
398.96	2879.44
399.18	3063.76
399.39	2963.41
399.60	3016.66
399.81	3102.67
400.03	2973.65
400.24	3289.04
400.45	3020.75
400.66	3170.26
400.88	3114.96
401.09	3217.36
401.30	3127.25
401.51	3182.54
401.73	3219.41
401.94	3190.74
402.15	3149.78
402.36	3166.16
402.58	3166.16
402.79	3278.80
403.00	3194.83
403.21	3190.74
403.43	3250.13
403.64	3397.58
403.85	3104.72
404.06	3330.00
404.27	3223.50
404.49	3188.69
404.70	3262.41
404.91	3342.28
405.12	3243.98
405.34	3270.61
405.55	3497.93
405.76	3157.97
405.97	3286.99
406.19	3411.92
406.40	3311.57
406.61	3436.49
406.82	3442.64
407.03	3291.09
407.25	3313.61
407.46	3502.03
407.67	3577.80
407.88	3522.51
408.09	3272.65
408.31	3375.05
408.52	3573.71
408.73	3395.53
408.94	3383.24
409.15	3436.49
409.37	3524.55
409.58	3514.31
409.79	3598.28
410.00	3575.75
410.21	3491.79
410.43	3528.65
410.64	3624.90
410.85	3538.89
411.06	3522.51
411.27	3542.99
411.48	3631.05
411.70	3639.24
411.91	3678.15
412.12	3686.34
412.33	3665.86
412.54	3659.72
412.76	3643.34
412.97	3739.59
413.18	3620.81
413.39	3661.77
413.60	3778.50
413.81	3723.21
414.03	3794.89
414.24	3659.72
414.45	3850.18
414.66	3674.06
414.87	3882.95
415.08	3743.69
415.30	3858.37
415.51	3782.60
415.72	3780.55
415.93	3839.94
416.14	3919.81
416.35	3839.94
416.56	3827.65
416.78	3864.52
416.99	3872.71
417.20	3887.04
417.41	3913.67
417.62	4007.87
417.83	3975.11
418.04	4106.18
418.26	4040.64
418.47	3919.81
418.68	4011.97
418.89	4046.79
419.10	4257.73
419.31	3952.58
419.52	4134.85
419.73	4075.46
419.95	4323.26
420.16	4087.75
420.37	4100.03
420.58	4200.38
420.79	4014.02
421.00	4155.33
421.21	4177.86
421.42	4089.79
421.63	4196.29
421.85	4214.72
422.06	4374.46
422.27	4280.25
422.48	4276.16
422.69	4220.86
422.90	4321.21
423.11	4335.55
423.32	4433.85
423.53	4485.05
423.75	4483.00
423.96	4554.68
424.17	4458.43
424.38	4599.74
424.59	4513.72
424.80	4741.05
425.01	4333.50
425.22	4505.53
425.43	4532.15
425.64	4753.34
425.85	4808.63
426.06	4779.96
426.28	4581.31
426.49	4673.46
426.70	4569.02
426.91	4857.78
427.12	4798.39
427.33	4853.69
427.54	4771.77
427.75	4884.41
427.96	4927.41
428.17	4884.41
428.38	5019.57
428.59	4913.08
428.80	5038.00
429.01	4949.94
429.23	4976.56
429.44	5195.70
429.65	5130.16
429.86	4935.60
430.07	5044.15
430.28	5113.78
430.49	5103.54
430.70	5277.62
430.91	5255.09
431.12	5162.93
431.33	5205.94
431.54	5220.27
431.75	5341.10
431.96	5250.99
432.17	5130.16
432.38	5294.00
432.59	5521.32
432.80	5246.90
433.01	5392.30
433.22	5476.27
433.43	5418.93
433.64	5582.76
433.85	5502.89
434.06	5648.30
434.27	5484.46
434.49	5496.75
434.70	5638.06
434.91	5568.43
435.12	5623.72
435.33	5676.97
435.54	5666.73
435.75	5515.18
435.96	5652.39
436.17	5455.79
436.38	5672.87
436.59	6004.64
436.80	5623.72
437.01	5840.81
437.22	5918.63
437.43	5754.79
437.64	5648.30
437.85	5795.75
438.06	5951.40
438.27	5670.83
438.48	5912.49
438.69	5998.50
438.90	6037.41
439.11	5808.04
439.32	6086.56
439.53	5877.67
439.74	6133.67
439.95	6102.95
440.16	6160.29
440.37	6211.49
440.57	6014.88
440.78	6021.03
440.99	6293.41
441.20	6121.38
441.41	6199.20
441.62	6268.83
441.83	5892.01
442.04	6281.12
442.25	6172.58
442.46	6139.81
442.67	6449.05
442.88	6639.51
443.09	6172.58
443.30	6272.93
443.51	6465.44
443.72	6604.70
443.93	6293.41
444.14	6571.93
444.35	6399.90
444.56	6461.34
444.77	6404.00
444.98	6614.94
445.19	6576.03
445.40	6549.40
445.61	6537.12
445.81	6768.54
446.02	6692.76
446.23	6588.32
446.44	6430.62
446.65	6772.63
446.86	6676.38
447.07	6729.63
447.28	6991.77
447.49	6856.60
447.70	6803.35
447.91	6860.70
448.12	6887.32
448.33	7081.88
448.54	6940.57
448.74	7045.01
448.95	7161.75
449.16	6942.61
449.37	7260.05
449.58	7081.88
449.79	7288.72
450.00	7061.40
450.21	7124.88
450.42	7327.63
450.63	7157.65
450.84	7186.32
451.05	7327.63
451.25	7212.95
451.46	7178.13
451.67	7292.82
451.88	7434.13
452.09	7350.16
452.30	7301.01
452.51	7366.54
452.72	7567.24
452.93	7702.41
453.13	7344.02
453.34	7325.58
453.55	7530.38
453.76	7579.53
453.97	7954.31
454.18	7729.03
454.39	7858.06
454.60	7610.25
454.81	7708.55
455.01	7759.75
455.22	7522.19
455.43	7794.57
455.64	7874.44
455.85	8042.37
456.06	8175.49
456.27	8030.09
456.48	7819.14
456.68	8081.28
456.89	7993.22
457.10	8122.24
457.31	8433.54
457.52	8099.72
457.73	8279.94
457.94	8572.80
458.14	8333.18
458.35	8634.24
458.56	8472.45
458.77	8343.42
458.98	8656.76
459.19	8490.88
459.39	8630.14
459.60	8959.86
459.81	8728.44
460.02	8785.79
460.23	8787.83
460.44	8963.96
460.65	8959.86
460.85	8968.06
461.06	8970.10
461.27	8720.25
461.48	9072.50
461.69	9344.88
461.89	8882.04
462.10	9242.48
462.31	9154.42
462.52	8986.49
462.73	9277.30
462.94	9365.36
463.14	9244.53
463.35	9531.25
463.56	9738.09
463.77	9713.52
463.98	9271.15
464.18	9660.27
464.39	9705.32
464.60	9879.40
464.81	9899.88
465.02	9848.68
465.23	10004.33
465.43	10008.42
465.64	10190.69
465.85	10116.97
466.06	10006.38
466.27	10391.39
466.47	10372.96
466.68	10311.52
466.89	10346.34
467.10	10524.51
467.30	10270.56
467.51	10526.56
467.72	10643.29
467.93	10325.86
468.14	10653.53
468.34	10743.64
468.55	10776.41
468.76	10848.09
468.97	10815.32
469.17	11140.95
469.38	11233.11
469.59	11165.53
469.80	11063.13
470.01	11075.42
470.21	11143.00
470.42	11351.89
470.63	11517.78
470.84	11425.62
471.04	11663.18
471.25	11554.64
471.46	11620.17
471.67	12013.38
471.87	11820.88
472.08	12261.19
472.29	12132.17
472.50	11718.48
472.70	12058.44
472.91	12216.13
473.12	12416.83
473.33	12449.60
473.53	12603.20
473.74	12537.66
473.95	12615.49
474.16	12752.70
474.36	12877.63
474.57	12889.92
474.78	13086.52
474.99	12822.33
475.19	13000.51
475.40	13051.70
475.61	13375.28
475.81	13561.65
476.02	13598.51
476.23	13432.63
476.44	13494.07
476.64	13881.13
476.85	14096.17
477.06	13829.93
477.27	14169.90
477.47	14255.91
477.68	14298.92
477.89	14288.68
478.09	14546.72
478.30	14429.99
478.51	14714.66
478.71	14645.02
478.92	14759.71
479.13	14888.73
479.34	14960.41
479.54	15075.10
479.75	15101.72
479.96	15204.12
480.16	15392.53
480.37	15224.60
480.58	15460.12
480.78	15638.29
480.99	15599.38
481.20	16092.94
481.41	15820.56
481.61	16135.95
481.82	16367.37
482.03	16240.39
482.23	15892.24
482.44	16412.42
482.65	16615.17
482.85	16787.20
483.06	16736.00
483.27	16676.61
483.47	16731.90
483.68	16899.84
483.89	17151.74
484.09	17049.34
484.30	17469.17
484.51	17440.50
484.71	17542.90
484.92	17395.45
485.13	17716.98
485.33	17757.94
485.54	17669.87
485.75	17657.59
485.95	18015.98
486.16	18169.58
486.37	18239.21
486.57	18253.55
486.78	18239.21
486.98	18282.22
487.19	18433.77
487.40	18779.87
487.60	18609.89
487.81	18794.21
488.02	18685.67
488.22	18706.15
488.43	19119.84
488.64	19082.97
488.84	19300.06
489.05	19439.32
489.25	19316.44
489.46	19656.40
489.67	19574.49
489.87	20256.46
490.08	19877.58
490.29	19736.27
490.49	20211.40
490.70	20233.93
490.90	20475.59
491.11	20311.75
491.32	20152.01
491.52	20756.16
491.73	20346.57
491.94	20502.22
492.14	20471.50
492.35	21085.89
492.55	21096.13
492.76	20764.36
492.97	20995.78
493.17	21079.74
493.38	21345.98
493.58	21634.74
493.79	21577.40
494.00	21350.07
494.20	21640.89
494.41	21741.24
494.61	22163.12
494.82	21821.11
495.02	21784.24
495.23	21921.46
495.44	22144.69
495.64	22263.47
495.85	22181.55
496.05	22492.84
496.26	22388.39
496.47	22605.48
496.67	22380.20
496.88	22849.19
497.08	22781.60
497.29	22849.19
497.49	22732.45
497.70	22970.02
497.91	23074.46
498.11	23412.38
498.32	23269.02
498.52	23658.14
498.73	23914.13
498.93	23512.73
499.14	23781.01
499.34	23576.22
499.55	23692.95
499.76	23830.16
499.96	24108.69
500.17	23539.35
500.37	23643.80
500.58	24086.16
500.78	24385.16
500.99	24159.89
501.19	24319.63
501.40	24721.03
501.60	24391.31
501.81	24467.08
502.02	24612.49
502.22	24501.90
502.43	24704.65
502.63	25104.00
502.84	24999.55
503.04	24839.81
503.25	25052.80
503.45	25214.59
503.66	25460.35
503.86	25595.51
504.07	25419.39
504.27	25288.32
504.48	25583.23
504.68	25697.91
504.89	25929.33
505.09	26011.25
505.30	25835.13
505.50	25876.09
505.71	25935.48
505.91	26105.46
506.12	26103.41
506.32	26166.90
506.53	25945.72
506.73	26195.57
506.94	26005.11
507.14	26365.55
507.35	26605.16
507.55	26676.84
507.76	26717.80
507.96	26527.34
508.17	26635.88
508.37	26965.60
508.58	26928.74
508.78	26594.92
508.99	26986.08
509.19	27336.29
509.40	26687.08
509.60	27201.12
509.81	27201.12
510.01	26928.74
510.22	27119.20
510.42	27571.80
510.63	27264.61
510.83	27076.19
511.04	27813.46
511.24	27371.10
511.44	27666.01
511.65	27899.48
511.85	27561.56
512.06	27858.52
512.26	27985.49
512.47	27942.49
512.67	27776.60
512.88	27960.92
513.08	27747.93
513.29	28169.81
513.49	28055.12
513.69	28184.15
513.90	28546.64
514.10	28167.76
514.31	28442.19
514.51	28378.70
514.72	28454.48
514.92	28464.72
515.13	28522.06
515.33	28616.27
515.53	28569.16
515.74	29038.15
515.94	28798.54
516.15	28745.29
516.35	28442.19
516.56	29077.06
516.76	28878.41
516.96	29085.25
517.17	29359.68
517.37	29576.76
517.58	29220.42
517.78	29328.96
517.99	29361.73
518.19	29572.67
518.39	29335.10
518.60	29711.93
518.80	29830.71
519.01	29810.23
519.21	29843.00
519.41	29988.41
519.62	29879.86
519.82	29877.82
520.03	29974.07
520.23	30164.53
520.43	30117.43
520.64	30260.79
520.84	30428.72
521.05	30094.90
521.25	30303.79
521.45	30889.51
521.66	30682.67
521.86	30529.07
522.07	30420.53
522.27	30750.25
522.47	30490.16
522.68	31014.44
522.88	30924.33
523.08	31421.98
523.29	30883.37
523.49	31505.95
523.70	31514.14
523.90	31714.84
524.10	31548.96
524.31	31716.89
524.51	31421.98
524.71	31940.12
524.92	31774.24
525.12	31989.27
525.33	32157.21
525.53	32009.75
525.73	32237.08
525.94	32364.05
526.14	32437.78
526.34	32232.98
526.55	32634.38
526.75	32851.47
526.95	32880.14
527.16	33041.93
527.36	32937.48
527.56	32982.54
527.77	33394.18
527.97	33166.85
528.17	33316.36
528.38	33285.64
528.58	33527.30
528.78	33535.49
528.99	33533.44
529.19	33603.07
529.39	33693.18
529.60	34162.17
529.80	34024.95
530.00	33711.61
530.21	34246.13
530.41	34319.86
530.61	33871.36
530.82	34434.55
531.02	34188.79
531.22	34559.47
531.43	34711.02
531.63	34801.13
531.83	35149.29
532.04	35243.49
532.24	34840.04
532.44	35134.95
532.64	35188.20
532.85	35489.25
533.05	35335.65
533.25	35694.05
533.46	35638.75
533.66	35648.99
533.86	35859.93
534.07	35827.17
534.27	35780.06
534.47	36333.01
534.67	36527.57
534.88	35972.57
535.08	36107.74
535.28	36742.61
535.49	35984.86
535.69	36842.96
535.89	37060.04
536.09	36464.08
536.30	36900.30
536.50	36859.34
536.70	37168.58
536.91	37246.41
537.11	37187.02
537.31	37422.53
537.51	37330.37
537.72	37658.05
537.92	37477.83
538.12	37965.24
538.32	37713.34
538.53	37866.94
538.73	37858.75
538.93	37905.85
539.13	37770.69
539.34	38221.24
539.54	38225.34
539.74	38546.87
539.94	38370.74
540.15	38202.81
540.35	38643.12
540.55	38458.81
540.75	38622.64
540.96	38864.30
541.16	38864.30
541.36	38747.57
541.56	39398.82
541.77	39654.82
541.97	39550.37
542.17	39464.36
542.37	39407.01
542.58	39312.81
542.78	39327.14
542.98	39699.87
543.18	39824.80
543.38	40056.22
543.59	40035.74
543.79	39683.49
543.99	39613.86
544.19	40209.82
544.40	40101.28
544.60	40293.79
544.80	40543.64
545.00	40203.67
545.20	40238.49
545.41	40533.40
545.61	40576.40
545.81	40637.84
546.01	40732.05
546.21	40928.66
546.42	40910.22
546.62	40777.11
546.82	41020.81
547.02	41424.26
547.22	41067.92
547.43	40969.61
547.63	41280.91
547.83	41164.17
548.03	41307.53
548.23	41403.78
548.44	41270.67
548.64	41280.91
548.84	41778.56
549.04	41424.26
549.24	41954.69
549.45	41678.21
549.65	41971.07
549.85	41962.88
550.05	41936.26
550.25	41704.84
550.45	42282.36
550.66	41854.34
550.86	41928.06
551.06	42331.51
551.26	42106.24
551.46	42304.89
551.66	42507.64
551.87	42315.13
552.07	42376.57
552.27	42012.03
552.47	42579.32
552.67	42571.13
552.87	42784.12
553.07	42591.61
553.28	42919.28
553.48	42755.44
553.68	43072.88
553.88	43017.58
554.08	42882.42
554.28	43132.27
554.48	43001.20
554.69	43015.54
554.89	43216.24
555.09	42827.12
555.29	42927.47
555.49	42980.72
555.69	43261.29
555.89	43201.90
556.10	43828.58
556.30	43318.64
556.50	43459.94
556.70	43709.80
556.90	43398.51
557.10	43611.49
557.30	43435.37
557.50	43998.56
557.70	43953.51
557.91	44070.24
558.11	43824.48
558.31	43564.39
558.51	43847.01
558.71	44080.48
558.91	44039.52
559.11	44201.31
559.31	43855.20
559.51	44029.28
559.72	44377.43
559.92	44426.59
560.12	44076.38
560.32	44637.53
560.52	44250.46
560.72	44717.40
560.92	44453.21
561.12	45131.09
561.32	44508.50
561.52	44815.70
561.72	44600.66
561.93	44324.19
562.13	44438.87
562.33	44858.71
562.53	45112.66
562.73	44422.49
562.93	44524.89
563.13	44895.57
563.33	44596.57
563.53	44942.67
563.73	44463.45
563.93	44813.65
564.13	45382.99
564.33	45061.46
564.53	45030.74
564.74	45264.21
564.94	45051.22
565.14	45364.56
565.34	45063.50
565.54	45129.04
565.74	45364.56
565.94	45987.14
566.14	45217.10
566.34	45522.25
566.54	45892.93
566.74	45108.56
566.94	46081.34
567.14	45839.68
567.34	45811.01
567.54	45679.94
567.74	45544.78
567.94	45479.24
568.14	45878.60
568.34	46208.32
568.54	45770.05
568.74	45899.08
568.94	45817.16
569.14	46284.09
569.34	46357.82
569.54	46490.94
569.75	45772.10
569.95	46478.65
570.15	46587.19
570.35	46239.04
570.55	46251.33
570.75	46662.97
570.95	46609.72
571.15	46771.51
571.35	46421.31
571.55	47050.03
571.75	46810.42
571.95	46980.40
572.15	46744.89
572.35	47027.51
572.55	46734.65
572.75	47058.23
572.95	46880.05
573.15	46982.45
573.35	46882.10
573.55	46777.65
573.75	47058.23
573.95	47123.76
574.15	47078.71
574.35	47502.64
574.55	47240.50
574.75	47349.04
574.95	47439.15
575.15	47228.21
575.34	47228.21
575.54	47392.04
575.74	47529.26
575.94	47398.19
576.14	47234.35
576.34	47596.84
576.54	48170.27
576.74	47748.39
576.94	47744.30
577.14	47969.57
577.34	48264.48
577.54	47897.89
577.74	47760.68
577.94	47938.85
578.14	48256.29
578.34	48473.37
578.54	47494.44
578.74	47488.30
578.94	48198.94
579.14	48186.66
579.34	48235.81
579.54	48520.48
579.74	48764.18
579.94	48594.20
580.13	48319.77
580.33	48842.01
580.53	48700.70
580.73	48856.34
580.93	48960.79
581.13	49118.48
581.33	49026.32
581.53	48887.06
581.73	48903.45
581.93	48796.95
582.13	49245.46
582.33	49310.99
582.53	49382.67
582.73	49184.02
582.92	49190.16
583.12	49329.42
583.32	49534.22
583.52	49235.22
583.72	49888.52
583.92	49292.56
584.12	50011.40
584.32	50099.46
584.52	49960.20
584.72	49825.03
584.92	49929.48
585.11	50234.63
585.31	49915.14
585.51	50175.23
585.71	50033.92
585.91	50232.58
586.11	50273.54
586.31	50023.68
586.51	50326.78
586.71	50345.22
586.91	50476.29
587.10	50316.54
587.30	50623.74
587.50	50588.92
587.70	50623.74
587.90	50861.30
588.10	50572.54
588.30	50760.95
588.50	50877.69
