SpectraSuite Data File
++++++++++++++++++++++++++++++++++++
Date: Fri Jun 02 14:47:55 CEST 2017
User: INFO_000
Dark Spectrum Present: No
Reference Spectrum Present: No
Number of Sampled Component Spectra: 1
Spectrometers: USB4H00879
Integration Time (usec): 80000 (USB4H00879)
Spectra Averaged: 1 (USB4H00879)
Boxcar Smoothing: 0 (USB4H00879)
Correct for Electrical Dark: No (USB4H00879)
Strobe/Lamp Enabled: No (USB4H00879)
Correct for Detector Non-linearity: No (USB4H00879)
Correct for Stray Light: No (USB4H00879)
Number of Pixels in Processed Spectrum: 3648
>>>>>Begin Processed Spectral Data<<<<<
345.13	1267.69
345.34	1267.69
345.56	1267.69
345.78	1255.40
345.99	1300.46
346.21	1705.96
346.42	1658.85
346.64	1689.57
346.86	1798.12
347.07	1650.66
347.29	1748.97
347.50	1630.18
347.72	1771.49
347.94	1662.95
348.15	1568.74
348.37	1615.85
348.59	1681.38
348.80	1673.19
349.02	1746.92
349.23	1837.03
349.45	1869.80
349.67	1861.60
349.88	1837.03
350.10	1986.53
350.31	1710.05
350.53	1773.54
350.75	1896.42
350.96	1888.23
351.18	1900.52
351.39	1808.36
351.61	1841.12
351.82	1857.51
352.04	1882.08
352.26	1791.97
352.47	1894.37
352.69	1937.38
352.90	1822.69
353.12	1855.46
353.34	1867.75
353.55	1871.84
353.77	1877.99
353.98	1863.65
354.20	1804.26
354.41	1914.85
354.63	1918.95
354.85	2025.44
355.06	1955.81
355.28	1755.11
355.49	1859.56
355.71	1906.66
355.92	1880.04
356.14	1943.52
356.35	1834.98
356.57	1927.14
356.79	1972.19
357.00	1843.17
357.22	1945.57
357.43	1855.46
357.65	1949.67
357.86	1798.12
358.08	1935.33
358.29	1894.37
358.51	1939.43
358.72	1959.91
358.94	1935.33
359.16	1957.86
359.37	1957.86
359.59	1929.19
359.80	1996.77
360.02	1968.10
360.23	1996.77
360.45	1982.43
360.66	1892.32
360.88	1861.60
361.09	1937.38
361.31	1990.63
361.52	1929.19
361.74	2017.25
361.95	2054.11
362.17	1982.43
362.38	2095.07
362.60	1953.76
362.81	1988.58
363.03	1941.47
363.24	1970.15
363.46	2070.50
363.67	2023.39
363.89	1970.15
364.10	2041.82
364.32	1970.15
364.53	2004.96
364.75	1927.14
364.96	2002.91
365.18	2031.58
365.39	2011.11
365.61	1947.62
365.82	2090.98
366.04	1990.63
366.25	1857.51
366.47	2015.20
366.68	2013.15
366.90	2035.68
367.11	2113.50
367.33	2080.74
367.54	2082.78
367.76	2021.35
367.97	2080.74
368.19	2019.30
368.40	2013.15
368.62	1935.33
368.83	1863.65
369.05	2011.11
369.26	1976.29
369.48	1978.34
369.69	2023.39
369.91	2043.87
370.12	1988.58
370.33	2142.18
370.55	1929.19
370.76	2072.54
370.98	2127.84
371.19	2023.39
371.41	2017.25
371.62	2076.64
371.84	2021.35
372.05	2119.65
372.27	2115.55
372.48	2027.49
372.69	2105.31
372.91	2129.89
373.12	2140.13
373.34	2017.25
373.55	2144.22
373.77	2138.08
373.98	2113.50
374.20	2199.52
374.41	2220.00
374.62	2148.32
374.84	2150.37
375.05	2111.46
375.27	2168.80
375.48	2181.09
375.70	2179.04
375.91	2207.71
376.12	2301.92
376.34	2187.23
376.55	2224.09
376.77	2226.14
376.98	2136.03
377.19	2076.64
377.41	2140.13
377.62	2254.81
377.84	2308.06
378.05	2357.21
378.27	2211.81
378.48	2330.59
378.69	2332.64
378.91	2232.29
379.12	2220.00
379.34	2273.25
379.55	2338.78
379.76	2326.49
379.98	2199.52
380.19	2291.68
380.41	2297.82
380.62	2342.88
380.83	2236.38
381.05	2187.23
381.26	2430.94
381.47	2248.67
381.69	2301.92
381.90	2428.89
382.12	2291.68
382.33	2199.52
382.54	2260.96
382.76	2344.92
382.97	2240.48
383.19	2222.05
383.40	2322.40
383.61	2320.35
383.83	2285.53
384.04	2326.49
384.25	2318.30
384.47	2478.04
384.68	2334.68
384.89	2287.58
385.11	2254.81
385.32	2336.73
385.54	2435.03
385.75	2369.50
385.96	2375.64
386.18	2449.37
386.39	2369.50
386.60	2359.26
386.82	2494.43
387.03	2318.30
387.24	2459.61
387.46	2394.08
387.67	2504.67
387.88	2498.52
388.10	2496.47
388.31	2463.71
388.52	2533.34
388.74	2557.91
388.95	2514.91
389.16	2508.76
389.38	2420.70
389.59	2453.47
389.80	2605.02
390.02	2547.67
390.23	2711.51
390.44	2580.44
390.66	2549.72
390.87	2533.34
391.08	2529.24
391.30	2572.25
391.51	2656.22
391.72	2592.73
391.94	2637.78
392.15	2584.54
392.36	2639.83
392.58	2590.68
392.79	2658.26
393.00	2559.96
393.22	2834.39
393.43	2766.81
393.64	2744.28
393.85	2736.09
394.07	2691.03
394.28	2705.37
394.49	2818.00
394.71	2731.99
394.92	2826.20
395.13	2789.33
395.35	2715.61
395.56	2770.90
395.77	2785.24
395.98	2697.17
396.20	2881.49
396.41	2887.64
396.62	2904.02
396.84	2811.86
397.05	2779.09
397.26	2836.44
397.47	3037.14
397.69	2889.68
397.90	3067.86
398.11	2895.83
398.32	2910.16
398.54	2977.75
398.75	2846.68
398.96	2924.50
399.18	3086.29
399.39	2912.21
399.60	3016.66
399.81	2928.60
400.03	2926.55
400.24	3303.37
400.45	2949.08
400.66	2985.94
400.88	2996.18
401.09	3213.26
401.30	3024.85
401.51	3076.05
401.73	3088.34
401.94	3104.72
402.15	3192.78
402.36	3024.85
402.58	3149.78
402.79	3180.50
403.00	3121.10
403.21	3203.02
403.43	3186.64
403.64	3295.18
403.85	3055.57
404.06	3305.42
404.27	3149.78
404.49	3250.13
404.70	3170.26
404.91	3342.28
405.12	3348.43
405.34	3268.56
405.55	3432.40
405.76	3157.97
405.97	3215.31
406.19	3342.28
406.40	3266.51
406.61	3370.96
406.82	3276.75
407.03	3284.94
407.25	3274.70
407.46	3317.71
407.67	3444.68
407.88	3413.96
408.09	3239.89
408.31	3301.33
408.52	3434.44
408.73	3336.14
408.94	3231.69
409.15	3280.85
409.37	3545.03
409.58	3499.98
409.79	3301.33
410.00	3610.57
410.21	3387.34
410.43	3432.40
410.64	3309.52
410.85	3459.02
411.06	3622.86
411.27	3467.21
411.48	3585.99
411.70	3368.91
411.91	3583.95
412.12	3768.26
412.33	3536.84
412.54	3600.33
412.76	3712.97
412.97	3522.51
413.18	3493.83
413.39	3487.69
413.60	3753.93
413.81	3661.77
414.03	3704.78
414.24	3561.42
414.45	3655.62
414.66	3497.93
414.87	3780.55
415.08	3768.26
415.30	3729.35
415.51	3774.41
415.72	3798.98
415.93	3741.64
416.14	3778.50
416.35	3833.80
416.56	3747.78
416.78	3723.21
416.99	3753.93
417.20	3837.89
417.41	3848.13
417.62	3897.28
417.83	3915.72
418.04	3987.40
418.26	3880.90
418.47	3782.60
418.68	3870.66
418.89	3829.70
419.10	3995.59
419.31	3948.48
419.52	4050.88
419.73	4038.59
419.95	3954.63
420.16	3887.04
420.37	4032.45
420.58	3989.44
420.79	3829.70
421.00	4034.50
421.21	4063.17
421.42	3946.44
421.63	4108.23
421.85	4097.99
422.06	4136.90
422.27	4247.49
422.48	4220.86
422.69	4257.73
422.90	4227.01
423.11	4159.42
423.32	4229.06
423.53	4431.80
423.75	4261.82
423.96	4419.52
424.17	4380.61
424.38	4519.87
424.59	4401.08
424.80	4712.38
425.01	4345.79
425.22	4390.84
425.43	4458.43
425.64	4607.93
425.85	4724.66
426.06	4556.73
426.28	4644.79
426.49	4431.80
426.70	4573.11
426.91	4691.90
427.12	4767.67
427.33	4700.09
427.54	4614.07
427.75	4759.48
427.96	4863.93
428.17	4698.04
428.38	4894.65
428.59	4956.08
428.80	4759.48
429.01	4868.02
429.23	4925.36
429.44	5173.17
429.65	4831.16
429.86	4913.08
430.07	4796.34
430.28	4829.11
430.49	5003.19
430.70	5187.50
430.91	5101.49
431.12	4962.23
431.33	5177.26
431.54	5138.35
431.75	5095.35
431.96	5078.96
432.17	5048.24
432.38	5201.84
432.59	5525.42
432.80	5064.63
433.01	5238.70
433.22	5287.86
433.43	5337.01
433.64	5195.70
433.85	5234.61
434.06	5304.24
434.27	5443.50
434.49	5492.65
434.70	5568.43
434.91	5482.41
435.12	5474.22
435.33	5482.41
435.54	5484.46
435.75	5377.97
435.96	5392.30
436.17	5365.68
436.38	5461.93
436.59	5576.62
436.80	5590.95
437.01	5812.14
437.22	5695.40
437.43	5627.82
437.64	5539.76
437.85	5670.83
438.06	5783.46
438.27	5492.65
438.48	5672.87
438.69	5719.98
438.90	5818.28
439.11	5713.83
439.32	5896.10
439.53	5748.65
439.74	5826.47
439.95	5885.86
440.16	5789.61
440.37	5791.66
440.57	5742.50
440.78	6049.70
440.99	5984.16
441.20	6002.60
441.41	5795.75
441.62	5849.00
441.83	5840.81
442.04	6070.18
442.25	6080.42
442.46	5844.90
442.67	6125.47
442.88	6401.95
443.09	5947.30
443.30	6047.65
443.51	6168.48
443.72	6320.03
443.93	5969.83
444.14	6301.60
444.35	6131.62
444.56	6317.98
444.77	6096.80
444.98	6172.58
445.19	6207.39
445.40	6440.86
445.61	6291.36
445.81	6389.66
446.02	6555.55
446.23	6436.77
446.44	6256.54
446.65	6451.10
446.86	6551.45
447.07	6567.84
447.28	6561.69
447.49	6588.32
447.70	6520.73
447.91	6596.51
448.12	6547.36
448.33	6817.69
448.54	6694.81
448.74	6588.32
448.95	6588.32
449.16	6655.90
449.37	6928.28
449.58	6696.86
449.79	7073.68
450.00	6696.86
450.21	6856.60
450.42	7020.44
450.63	7002.01
450.84	6936.47
451.05	6875.03
451.25	6786.97
451.46	6987.67
451.67	7122.84
451.88	7034.77
452.09	7057.30
452.30	7131.03
452.51	7210.90
452.72	7194.51
452.93	7436.17
453.13	7102.36
453.34	7102.36
453.55	7233.43
453.76	7337.87
453.97	7587.72
454.18	7475.09
454.39	7407.50
454.60	7384.98
454.81	7544.72
455.01	7546.76
455.22	7405.46
455.43	7509.90
455.64	7899.02
455.85	7843.72
456.06	8025.99
456.27	7661.45
456.48	7655.31
456.68	7825.29
456.89	7880.58
457.10	7989.13
457.31	8062.85
457.52	7806.86
457.73	8025.99
457.94	8286.08
458.14	7813.00
458.35	8396.67
458.56	8175.49
458.77	8310.66
458.98	8114.05
459.19	8275.84
459.39	8441.73
459.60	8456.06
459.81	8310.66
460.02	8482.69
460.23	8554.37
460.44	8605.56
460.65	8490.88
460.85	8652.67
461.06	8867.70
461.27	8527.74
461.48	8892.28
461.69	8984.44
461.89	8492.93
462.10	8963.96
462.31	8779.64
462.52	8937.34
462.73	9117.56
462.94	9183.09
463.14	9140.08
463.35	8998.77
463.56	9469.81
463.77	9420.66
463.98	9242.48
464.18	9391.98
464.39	9543.53
464.60	9486.19
464.81	9527.15
465.02	9572.21
465.23	9826.15
465.43	9613.17
465.64	9885.55
465.85	9832.30
466.06	9666.41
466.27	10151.78
466.47	9858.92
466.68	10069.86
466.89	9981.80
467.10	10088.29
467.30	10151.78
467.51	10116.97
467.72	10438.50
467.93	10174.31
468.14	10356.58
468.34	10598.24
468.55	10489.70
468.76	10536.80
468.97	10469.22
469.17	10854.23
469.38	10694.49
469.59	10846.04
469.80	10817.37
470.01	10739.55
470.21	10950.49
470.42	11132.76
470.63	11208.53
470.84	11161.43
471.04	11163.48
471.25	11149.14
471.46	11183.96
471.67	11431.76
471.87	11566.93
472.08	11407.19
472.29	11685.71
472.50	11374.42
472.70	11480.91
472.91	11708.24
473.12	11794.25
473.33	11984.71
473.53	12214.09
473.74	12040.01
473.95	12011.34
474.16	12351.30
474.36	12144.45
474.57	12562.24
474.78	12660.54
474.99	12515.14
475.19	12355.40
475.40	12748.61
475.61	12916.54
475.81	12943.16
476.02	13061.94
476.23	12889.92
476.44	13086.52
476.64	13150.01
476.85	13483.83
477.06	13279.03
477.27	13547.31
477.47	13637.42
477.68	13539.12
477.89	13858.60
478.09	13825.84
478.30	13737.77
478.51	13602.61
478.71	14049.07
478.92	13963.05
479.13	14329.64
479.34	14391.08
479.54	14503.71
479.75	14194.47
479.96	14655.26
480.16	14427.94
480.37	14778.14
480.58	14743.33
480.78	15118.11
480.99	14874.40
481.20	15054.62
481.41	15240.98
481.61	15324.95
481.82	15386.39
482.03	15290.13
482.23	15462.16
482.44	15609.62
482.65	15787.79
482.85	16086.79
483.06	15865.61
483.27	15693.58
483.47	16037.64
483.68	15849.23
483.89	16248.58
484.09	16086.79
484.30	16363.27
484.51	16434.95
484.71	16617.22
484.92	16490.24
485.13	16828.16
485.33	16645.89
485.54	16875.26
485.75	17110.78
485.95	17211.13
486.16	17071.87
486.37	17252.09
486.57	17321.72
486.78	17415.93
486.98	17280.76
487.19	17678.07
487.40	17780.46
487.60	17743.60
487.81	18257.64
488.02	17915.63
488.22	17837.81
488.43	18102.00
488.64	18026.22
488.84	18405.10
489.05	18632.42
489.25	18405.10
489.46	18745.06
489.67	18538.21
489.87	19054.30
490.08	18947.81
490.29	19005.15
490.49	19091.16
490.70	19062.49
490.90	19594.96
491.11	19496.66
491.32	19351.26
491.52	19449.56
491.73	19779.28
491.94	19828.43
492.14	19609.30
492.35	20248.27
492.55	20164.30
492.76	20317.90
492.97	20471.50
493.17	20387.53
493.38	20446.92
493.58	20920.00
493.79	20616.90
494.00	20573.89
494.20	20541.13
494.41	21008.06
494.61	21016.26
494.82	21280.44
495.02	21010.11
495.23	21266.11
495.44	21569.21
495.64	21423.80
495.85	21341.88
496.05	21614.26
496.26	21563.06
496.47	21923.51
496.67	21634.74
496.88	22027.95
497.08	21649.08
497.29	22322.86
497.49	22294.19
497.70	22476.46
497.91	22476.46
498.11	22431.40
498.32	22369.96
498.52	22679.21
498.73	22949.54
498.93	23096.99
499.14	22924.96
499.34	23056.03
499.55	23117.47
499.76	23019.17
499.96	23316.12
500.17	23383.71
500.37	23432.86
500.58	23531.16
500.78	23488.15
500.99	23549.59
501.19	23629.46
501.40	23830.16
501.60	23701.14
501.81	23856.79
502.02	23815.83
502.22	23807.64
502.43	24354.44
502.63	24348.30
502.84	24356.49
503.04	24264.33
503.25	24295.05
503.45	24446.60
503.66	24778.37
503.86	24510.09
504.07	24725.13
504.27	24546.95
504.48	25118.34
504.68	24723.08
504.89	25069.19
505.09	24895.11
505.30	24936.07
505.50	24983.17
505.71	25099.90
505.91	25204.35
506.12	25208.45
506.32	25267.84
506.53	25321.09
506.73	25554.55
506.94	25491.07
507.14	25394.81
507.35	25730.68
507.55	25570.94
507.76	25648.76
507.96	25900.66
508.17	25673.34
508.37	25826.93
508.58	26041.97
508.78	25890.42
508.99	26068.59
509.19	26173.04
509.40	26470.00
509.60	26386.03
509.81	26381.93
510.01	26441.32
510.22	26566.25
510.42	26283.63
510.63	26625.64
510.83	26637.93
511.04	26846.82
511.24	26533.48
511.44	26619.50
511.65	26869.35
511.85	26855.01
512.06	26809.96
512.26	26855.01
512.47	27053.67
512.67	27014.76
512.88	26969.70
513.08	26596.97
513.29	26885.73
513.49	27305.57
513.69	27545.18
513.90	27264.61
514.10	27287.14
514.31	27725.40
514.51	27256.42
514.72	27033.19
514.92	27321.95
515.13	27369.05
515.33	27536.99
515.53	27336.29
515.74	27524.70
515.94	27962.97
516.15	27854.42
516.35	27661.91
516.56	27893.33
516.76	27551.32
516.96	27723.35
517.17	27969.11
517.37	28059.22
517.58	27844.18
517.78	27874.90
517.99	28048.98
518.19	28401.23
518.39	28286.54
518.60	28237.39
518.80	28608.08
519.01	28526.16
519.21	28692.04
519.41	28728.91
519.62	28651.08
519.82	28493.39
520.03	28829.26
520.23	28601.93
520.43	28739.15
520.64	29087.30
520.84	28989.00
521.05	29089.35
521.25	29218.37
521.45	29283.91
521.66	28862.02
521.86	28714.57
522.07	29249.09
522.27	29310.53
522.47	29306.43
522.68	29470.27
522.88	29240.90
523.08	29636.16
523.29	29740.60
523.49	29681.21
523.70	30045.75
523.90	30090.80
524.10	30086.71
524.31	29845.05
524.51	29961.78
524.71	30555.69
524.92	30058.04
525.12	30148.15
525.33	30217.78
525.53	30608.94
525.73	30584.37
525.94	30778.92
526.14	30391.86
526.34	30742.06
526.55	31065.64
526.75	31063.59
526.95	30934.57
527.16	31067.69
527.36	30981.67
527.56	31516.19
527.77	31454.75
527.97	31499.81
528.17	31352.35
528.38	31229.48
528.58	31430.18
528.78	31989.27
528.99	31725.08
529.19	32239.12
529.39	31716.89
529.60	32097.81
529.80	32151.06
530.00	32001.56
530.21	32564.75
530.41	32527.89
530.61	32478.74
530.82	32706.06
531.02	32423.44
531.22	32794.12
531.43	32728.59
531.63	33005.06
531.83	33289.73
532.04	33465.86
532.24	33281.54
532.44	33748.48
532.64	33674.75
532.85	33816.06
533.05	33838.59
533.25	33949.18
533.46	33879.55
533.66	34518.51
533.86	33916.41
534.07	34256.37
534.27	34328.05
534.47	34174.45
534.67	34506.23
534.88	34336.24
535.08	34389.49
535.28	34776.56
535.49	34676.21
535.69	35245.54
535.89	35444.20
536.09	35292.65
536.30	35329.51
536.50	35458.53
536.70	35423.72
536.91	35456.48
537.11	35784.16
537.31	35657.18
537.51	35528.16
537.72	36220.38
537.92	36449.75
538.12	36470.23
538.32	36488.66
538.53	36812.24
538.73	36433.36
538.93	36261.33
539.13	36808.14
539.34	36689.36
539.54	36642.26
539.74	36888.01
539.94	36957.64
540.15	37201.35
540.35	37004.75
540.55	37279.18
540.75	37340.61
540.96	37459.40
541.16	37357.00
541.36	37840.32
541.56	37789.12
541.77	37864.89
541.97	37887.42
542.17	38243.77
542.37	37877.18
542.58	38213.05
542.78	38010.30
542.98	38362.55
543.18	38553.01
543.38	38890.93
543.59	38667.70
543.79	38567.35
543.99	38352.31
544.19	38563.25
544.40	38575.54
544.60	38944.17
544.80	38888.88
545.00	39022.00
545.20	39581.09
545.41	39327.14
545.61	39120.30
545.81	39431.59
546.01	39216.55
546.21	39476.65
546.42	39634.34
546.62	39671.20
546.82	39699.87
547.02	39851.42
547.22	39863.71
547.43	39824.80
547.63	40029.60
547.83	40158.62
548.03	39271.85
548.23	40367.51
548.44	40447.38
548.64	40125.85
548.84	40043.93
549.04	40381.85
549.24	40643.99
549.45	40930.70
549.65	40474.01
549.85	40385.94
550.05	41164.17
550.25	40732.05
550.45	41231.75
550.66	41147.79
550.86	40555.93
551.06	40951.18
551.26	41207.18
551.46	41074.06
551.66	41401.74
551.87	41082.25
552.07	41430.41
552.27	41411.98
552.47	41647.49
552.67	41516.42
552.87	41670.02
553.07	41522.57
553.28	41694.60
553.48	41766.27
553.68	41678.21
553.88	41901.44
554.08	41858.43
554.28	41837.95
554.48	41680.26
554.69	42028.41
554.89	42003.84
555.09	42087.81
555.29	41569.67
555.49	42268.03
555.69	42167.68
555.89	41944.45
556.10	42360.19
556.30	42235.26
556.50	42333.56
556.70	42149.24
556.90	42286.46
557.10	42743.16
557.30	42593.65
557.50	42325.37
557.70	42452.34
557.91	42739.06
558.11	42784.12
558.31	42978.67
558.51	42392.95
558.71	42833.27
558.91	42737.01
559.11	42423.67
559.31	42497.40
559.51	42374.52
559.72	42710.39
559.92	42835.31
560.12	42712.44
560.32	43095.41
560.52	42962.29
560.72	43242.86
560.92	43308.40
561.12	43173.23
561.32	43224.43
561.52	43206.00
561.72	43408.75
561.93	42950.00
562.13	43443.56
562.33	42677.62
562.53	43697.51
562.73	42888.56
562.93	42763.64
563.13	42898.80
563.33	43267.44
563.53	43349.35
563.73	43285.87
563.93	43492.71
564.13	43492.71
564.33	43660.65
564.53	43505.00
564.74	43793.76
564.94	43505.00
565.14	43687.27
565.34	43304.30
565.54	43709.80
565.74	43652.45
565.94	43939.17
566.14	43529.58
566.34	43855.20
566.54	44139.87
566.74	43416.94
566.94	43943.27
567.14	43787.62
567.34	43353.45
567.54	44098.91
567.74	43949.41
567.94	43711.84
568.14	43859.30
568.34	44295.52
568.54	43877.73
568.74	44242.27
568.94	43791.72
569.14	44131.68
569.34	44107.10
569.54	44031.33
569.75	44049.76
569.95	44559.70
570.15	44754.26
570.35	44080.48
570.55	44406.11
570.75	44242.27
570.95	44107.10
571.15	44408.15
571.35	44473.69
571.55	44475.74
571.75	44303.71
571.95	44520.79
572.15	44342.62
572.35	44590.42
572.55	44709.21
572.75	44440.92
572.95	44596.57
573.15	44553.56
573.35	44547.42
573.55	44383.58
573.75	45143.38
573.95	44914.00
574.15	44449.11
574.35	44717.40
574.55	44778.84
574.75	44815.70
574.95	44903.76
575.15	44467.55
575.34	44914.00
575.54	44967.25
575.74	45415.76
575.94	45020.50
576.14	44791.12
576.34	45368.65
576.54	45393.23
576.74	45225.29
576.94	45294.92
577.14	45571.40
577.34	45356.36
577.54	45421.90
577.74	45280.59
577.94	45567.30
578.14	45731.14
578.34	46110.02
578.54	45200.72
578.74	46038.34
578.94	46017.86
579.14	45831.49
579.34	45794.63
579.54	45942.08
579.74	46368.06
579.94	45999.43
580.13	46280.00
580.33	45966.66
580.53	46159.17
580.73	46167.36
580.93	46486.84
581.13	46384.44
581.33	46572.86
581.53	46562.62
581.73	46443.84
581.93	46597.43
582.13	46474.55
582.33	46789.94
582.53	46613.82
582.73	46372.16
582.92	47058.23
583.12	47185.20
583.32	46556.47
583.52	46634.30
583.72	47043.89
583.92	47222.06
584.12	47265.07
584.32	47615.27
584.52	47645.99
584.72	47056.18
584.92	47514.92
585.11	47537.45
585.31	47377.71
585.51	47469.87
585.71	47494.44
585.91	47895.85
586.11	47781.16
586.31	48031.01
586.51	47723.82
586.71	47848.74
586.91	47926.56
587.10	47715.62
587.30	48086.31
587.50	48313.63
587.70	48098.59
587.90	48395.55
588.10	48280.86
588.30	48354.59
588.50	48712.98
