SpectraSuite Data File
++++++++++++++++++++++++++++++++++++
Date: Fri Jun 02 14:52:29 CEST 2017
User: INFO_000
Dark Spectrum Present: No
Reference Spectrum Present: No
Number of Sampled Component Spectra: 1
Spectrometers: USB4H00879
Integration Time (usec): 80000 (USB4H00879)
Spectra Averaged: 1 (USB4H00879)
Boxcar Smoothing: 0 (USB4H00879)
Correct for Electrical Dark: No (USB4H00879)
Strobe/Lamp Enabled: No (USB4H00879)
Correct for Detector Non-linearity: No (USB4H00879)
Correct for Stray Light: No (USB4H00879)
Number of Pixels in Processed Spectrum: 3648
>>>>>Begin Processed Spectral Data<<<<<
345.13	1275.88
345.34	1275.88
345.56	1275.88
345.78	1300.46
345.99	1320.94
346.21	1712.10
346.42	1708.01
346.64	1689.57
346.86	1769.44
347.07	1736.68
347.29	1683.43
347.50	1624.04
347.72	1650.66
347.94	1753.06
348.15	1609.70
348.37	1621.99
348.59	1722.34
348.80	1652.71
349.02	1796.07
349.23	1839.08
349.45	1857.51
349.67	1869.80
349.88	1837.03
350.10	1964.00
350.31	1830.88
350.53	1814.50
350.75	1986.53
350.96	1746.92
351.18	1843.17
351.39	1857.51
351.61	1785.83
351.82	1902.56
352.04	1923.04
352.26	1810.40
352.47	1920.99
352.69	1904.61
352.90	1755.11
353.12	1855.46
353.34	1847.27
353.55	1935.33
353.77	1826.79
353.98	1822.69
354.20	1865.70
354.41	1918.95
354.63	1935.33
354.85	2029.54
355.06	1888.23
355.28	1810.40
355.49	1906.66
355.71	1935.33
355.92	1832.93
356.14	1929.19
356.35	1884.13
356.57	1865.70
356.79	2029.54
357.00	1863.65
357.22	2029.54
357.43	1910.75
357.65	1994.72
357.86	1859.56
358.08	1888.23
358.29	1949.67
358.51	2078.69
358.72	2000.87
358.94	1910.75
359.16	1882.08
359.37	2035.68
359.59	1968.10
359.80	1941.47
360.02	1957.86
360.23	1951.71
360.45	1943.52
360.66	1933.28
360.88	1822.69
361.09	1955.81
361.31	2043.87
361.52	1957.86
361.74	2125.79
361.95	2115.55
362.17	1943.52
362.38	2123.74
362.60	2021.35
362.81	2041.82
363.03	1986.53
363.24	1945.57
363.46	2093.02
363.67	2105.31
363.89	2023.39
364.10	2068.45
364.32	1959.91
364.53	2123.74
364.75	1875.94
364.96	1976.29
365.18	2027.49
365.39	2043.87
365.61	1992.67
365.82	2113.50
366.04	2074.59
366.25	1961.95
366.47	2045.92
366.68	2037.73
366.90	1980.39
367.11	2039.78
367.33	2140.13
367.54	2088.93
367.76	2015.20
367.97	2064.35
368.19	2043.87
368.40	2160.61
368.62	2019.30
368.83	2045.92
369.05	2052.06
369.26	2058.21
369.48	1978.34
369.69	1994.72
369.91	2125.79
370.12	1974.24
370.33	2103.26
370.55	2019.30
370.76	2068.45
370.98	2066.40
371.19	2035.68
371.41	2045.92
371.62	2078.69
371.84	2064.35
372.05	2176.99
372.27	2033.63
372.48	2097.12
372.69	2076.64
372.91	2140.13
373.12	2154.46
373.34	2170.85
373.55	2119.65
373.77	2174.94
373.98	2162.66
374.20	2117.60
374.41	2320.35
374.62	2138.08
374.84	2179.04
375.05	2191.33
375.27	2244.57
375.48	2213.85
375.70	2195.42
375.91	2240.48
376.12	2363.36
376.34	2068.45
376.55	2228.19
376.77	2093.02
376.98	2150.37
377.19	2150.37
377.41	2195.42
377.62	2174.94
377.84	2297.82
378.05	2361.31
378.27	2324.44
378.48	2301.92
378.69	2381.79
378.91	2301.92
379.12	2263.01
379.34	2273.25
379.55	2230.24
379.76	2277.34
379.98	2187.23
380.19	2281.44
380.41	2314.20
380.62	2365.40
380.83	2316.25
381.05	2172.89
381.26	2451.42
381.47	2303.96
381.69	2324.44
381.90	2359.26
382.12	2379.74
382.33	2361.31
382.54	2285.53
382.76	2326.49
382.97	2383.84
383.19	2256.86
383.40	2437.08
383.61	2275.29
383.83	2328.54
384.04	2369.50
384.25	2365.40
384.47	2381.79
384.68	2363.36
384.89	2248.67
385.11	2367.45
385.32	2330.59
385.54	2357.21
385.75	2371.55
385.96	2416.60
386.18	2383.84
386.39	2410.46
386.60	2254.81
386.82	2471.90
387.03	2394.08
387.24	2519.00
387.46	2463.71
387.67	2471.90
387.88	2539.48
388.10	2502.62
388.31	2535.39
388.52	2590.68
388.74	2531.29
388.95	2537.43
389.16	2504.67
389.38	2516.95
389.59	2629.59
389.80	2557.91
390.02	2557.91
390.23	2676.70
390.44	2576.34
390.66	2570.20
390.87	2559.96
391.08	2512.86
391.30	2660.31
391.51	2621.40
391.72	2703.32
391.94	2668.50
392.15	2678.74
392.36	2611.16
392.58	2570.20
392.79	2731.99
393.00	2748.37
393.22	2820.05
393.43	2754.52
393.64	2731.99
393.85	2791.38
394.07	2736.09
394.28	2760.66
394.49	2801.62
394.71	2729.94
394.92	2928.60
395.13	2662.36
395.35	2803.67
395.56	2791.38
395.77	2809.81
395.98	2826.20
396.20	2820.05
396.41	2858.96
396.62	2940.88
396.84	2887.64
397.05	2879.44
397.26	2861.01
397.47	2973.65
397.69	2842.58
397.90	3067.86
398.11	2994.13
398.32	2901.97
398.54	3010.51
398.75	3006.42
398.96	2987.99
399.18	3057.62
399.39	3059.67
399.60	3112.91
399.81	3018.71
400.03	2998.23
400.24	3317.71
400.45	2992.08
400.66	3008.47
400.88	3090.38
401.09	3286.99
401.30	3182.54
401.51	3088.34
401.73	3168.21
401.94	3149.78
402.15	3192.78
402.36	3192.78
402.58	3207.12
402.79	3305.42
403.00	3284.94
403.21	3258.32
403.43	3258.32
403.64	3268.56
403.85	3274.70
404.06	3262.41
404.27	3180.50
404.49	3237.84
404.70	3235.79
404.91	3336.14
405.12	3358.67
405.34	3309.52
405.55	3434.44
405.76	3157.97
405.97	3250.13
406.19	3463.12
406.40	3297.23
406.61	3379.15
406.82	3303.37
407.03	3370.96
407.25	3436.49
407.46	3399.63
407.67	3588.04
407.88	3616.71
408.09	3475.40
408.31	3364.81
408.52	3524.55
408.73	3588.04
408.94	3444.68
409.15	3489.74
409.37	3592.14
409.58	3583.95
409.79	3504.07
410.00	3604.42
410.21	3540.94
410.43	3557.32
410.64	3540.94
410.85	3608.52
411.06	3592.14
411.27	3567.56
411.48	3688.39
411.70	3633.10
411.91	3731.40
412.12	3809.22
412.33	3704.78
412.54	3751.88
412.76	3770.31
412.97	3655.62
413.18	3641.29
413.39	3764.17
413.60	3776.45
413.81	3700.68
414.03	3835.85
414.24	3594.19
414.45	3837.89
414.66	3739.59
414.87	3825.61
415.08	3764.17
415.30	3766.21
415.51	3925.96
415.72	3704.78
415.93	3796.93
416.14	3903.43
416.35	3985.35
416.56	3801.03
416.78	3968.96
416.99	4022.21
417.20	3805.13
417.41	3895.24
417.62	3903.43
417.83	4040.64
418.04	3960.77
418.26	4057.03
418.47	4050.88
418.68	4155.33
418.89	3962.82
419.10	4114.37
419.31	3983.30
419.52	4286.40
419.73	4075.46
419.95	4075.46
420.16	4048.83
420.37	4202.43
420.58	4175.81
420.79	4073.41
421.00	4229.06
421.21	4169.66
421.42	4020.16
421.63	4206.53
421.85	4190.14
422.06	4247.49
422.27	4237.25
422.48	4220.86
422.69	4290.49
422.90	4323.26
423.11	4315.07
423.32	4345.79
423.53	4442.04
423.75	4444.09
423.96	4542.39
424.17	4403.13
424.38	4503.48
424.59	4501.44
424.80	4569.02
425.01	4564.92
425.22	4513.72
425.43	4409.28
425.64	4648.89
425.85	4597.69
426.06	4591.55
426.28	4616.12
426.49	4564.92
426.70	4677.56
426.91	4593.59
427.12	4706.23
427.33	4616.12
427.54	4603.83
427.75	4755.38
427.96	4820.92
428.17	4777.91
428.38	4820.92
428.59	4798.39
428.80	4820.92
429.01	4863.93
429.23	4849.59
429.44	5009.33
429.65	4960.18
429.86	4949.94
430.07	4863.93
430.28	4927.41
430.49	5042.10
430.70	5199.79
430.91	5150.64
431.12	5025.72
431.33	5279.66
431.54	5113.78
431.75	5162.93
431.96	5130.16
432.17	5152.69
432.38	5193.65
432.59	5304.24
432.80	5232.56
433.01	5322.67
433.22	5308.34
433.43	5285.81
433.64	5298.10
433.85	5308.34
434.06	5398.45
434.27	5328.81
434.49	5463.98
434.70	5619.63
434.91	5347.25
435.12	5437.36
435.33	5541.80
435.54	5615.53
435.75	5402.54
435.96	5451.69
436.17	5523.37
436.38	5670.83
436.59	5623.72
436.80	5513.13
437.01	5785.51
437.22	5623.72
437.43	5787.56
437.64	5433.26
437.85	5726.12
438.06	5728.17
438.27	5793.70
438.48	5777.32
438.69	5719.98
438.90	5676.97
439.11	5808.04
439.32	5935.01
439.53	5926.82
439.74	5871.53
439.95	5932.97
440.16	5957.54
440.37	5951.40
440.57	5824.42
440.78	5969.83
440.99	6131.62
441.20	5992.36
441.41	5849.00
441.62	6074.28
441.83	6045.60
442.04	6072.23
442.25	6102.95
442.46	6213.54
442.67	6227.87
442.88	6709.15
443.09	6178.72
443.30	6348.70
443.51	6301.60
443.72	6563.74
443.93	6213.54
444.14	6645.66
444.35	6240.16
444.56	6522.78
444.77	6524.83
444.98	6506.40
445.19	6723.48
445.40	6594.46
445.61	6602.65
445.81	6670.23
446.02	6643.61
446.23	6610.84
446.44	6332.32
446.65	6635.42
446.86	6754.20
447.07	6811.54
447.28	6772.63
447.49	6901.65
447.70	6733.72
447.91	6768.54
448.12	6748.06
448.33	6934.42
448.54	6981.53
448.74	7038.87
448.95	6954.90
449.16	6850.46
449.37	7190.42
449.58	6975.38
449.79	7188.37
450.00	7055.25
450.21	7090.07
450.42	7262.10
450.63	7305.10
450.84	7235.47
451.05	7274.38
451.25	7200.66
451.46	7196.56
451.67	7360.40
451.88	7442.32
452.09	7417.74
452.30	7251.86
452.51	7272.34
452.72	7542.67
452.93	7767.95
453.13	7399.31
453.34	7458.70
453.55	7477.13
453.76	7366.54
453.97	7966.60
454.18	7640.97
454.39	7866.25
454.60	7735.18
454.81	7833.48
455.01	7839.62
455.22	7737.23
455.43	7899.02
455.64	8112.00
455.85	8019.85
456.06	8191.88
456.27	8064.90
456.48	8042.37
456.68	8277.89
456.89	8241.03
457.10	8118.15
457.31	8150.92
457.52	8349.57
457.73	8308.61
457.94	8660.86
458.14	8124.29
458.35	8769.40
458.56	8497.02
458.77	8421.25
458.98	8724.35
459.19	8531.84
459.39	8486.78
459.60	8742.78
459.81	8634.24
460.02	8976.25
460.23	8753.02
460.44	9181.04
460.65	9045.88
460.85	9179.00
461.06	9148.28
461.27	8759.16
461.48	9285.49
461.69	9248.63
461.89	9084.79
462.10	9318.26
462.31	8869.75
462.52	9041.78
462.73	9205.62
462.94	9717.61
463.14	9334.64
463.35	9301.87
463.56	9580.40
463.77	9877.35
463.98	9641.84
464.18	9568.11
464.39	9998.18
464.60	9846.63
464.81	9934.70
465.02	9899.88
465.23	10104.68
465.43	9746.28
465.64	10164.07
465.85	10071.91
466.06	9977.70
466.27	10274.66
466.47	10258.28
466.68	10227.56
466.89	10221.41
467.10	10469.22
467.30	10307.43
467.51	10299.23
467.72	10706.78
467.93	10514.27
468.14	10698.59
468.34	10848.09
468.55	10817.37
468.76	10772.32
468.97	10708.83
469.17	10968.92
469.38	11022.17
469.59	11046.74
469.80	11114.33
470.01	11153.24
470.21	10999.64
470.42	11435.86
470.63	11509.58
470.84	11243.35
471.04	11329.36
471.25	11376.47
471.46	11556.69
471.67	11829.07
471.87	11587.41
472.08	11874.12
472.29	11814.73
472.50	11609.93
472.70	11726.67
472.91	11919.18
473.12	12146.50
473.33	12025.67
473.53	12365.64
473.74	12146.50
473.95	12564.29
474.16	12552.00
474.36	12672.83
474.57	12769.09
474.78	12934.97
474.99	12697.41
475.19	12523.33
475.40	12896.06
475.61	13131.58
475.81	13211.45
476.02	13203.25
476.23	13166.39
476.44	13281.08
476.64	13381.43
476.85	13594.42
477.06	13797.17
477.27	13975.34
477.47	13670.19
477.68	13621.04
477.89	14018.35
478.09	13776.69
478.30	14055.21
478.51	14100.26
478.71	14249.77
478.92	14268.20
479.13	14495.52
479.34	14731.04
479.54	14645.02
479.75	14604.07
479.96	14925.60
480.16	14761.76
480.37	14831.39
480.58	15204.12
480.78	15386.39
480.99	15228.70
481.20	15533.84
481.41	15494.93
481.61	15587.09
481.82	15820.56
482.03	15621.91
482.23	15552.27
482.44	15873.81
482.65	16062.22
482.85	15920.91
483.06	15910.67
483.27	16209.67
483.47	16002.83
483.68	16246.54
483.89	16383.75
484.09	16457.48
484.30	16523.01
484.51	16830.21
484.71	16897.79
484.92	16871.17
485.13	16901.89
485.33	16946.94
485.54	16987.90
485.75	17243.90
485.95	17313.53
486.16	17260.28
486.37	17682.16
486.57	17487.61
486.78	17467.13
486.98	17608.44
487.19	17843.95
487.40	17817.33
487.60	17798.90
487.81	17950.45
488.02	18210.54
488.22	18249.45
488.43	18401.00
488.64	18343.66
488.84	18499.30
489.05	18718.43
489.25	18630.37
489.46	18915.04
489.67	18872.03
489.87	19230.43
490.08	19261.15
490.29	19193.56
490.49	19687.12
490.70	19635.92
490.90	19588.82
491.11	19535.57
491.32	19678.93
491.52	19777.23
491.73	19801.81
491.94	19558.10
492.14	19783.38
492.35	20158.16
492.55	20391.62
492.76	20367.05
492.97	20666.05
493.17	20594.37
493.38	20842.18
493.58	20659.91
493.79	20795.07
494.00	20803.27
494.20	20827.84
494.41	21059.26
494.61	21434.04
494.82	21343.93
495.02	21219.00
495.23	21671.61
495.44	21550.78
495.64	21716.66
495.85	21733.04
496.05	21937.84
496.26	21706.42
496.47	21989.04
496.67	21778.10
496.88	21999.28
497.08	22257.32
497.29	22396.59
497.49	22101.68
497.70	22642.34
497.91	22568.62
498.11	22671.01
498.32	22728.36
498.52	22779.56
498.73	23279.26
498.93	23154.33
499.14	23096.99
499.34	23357.08
499.55	23473.82
499.76	23127.71
499.96	23602.84
500.17	23430.81
500.37	23615.13
500.58	23686.81
500.78	23973.52
500.99	23781.01
501.19	24063.63
501.40	24098.45
501.60	23768.73
501.81	24127.12
502.02	24336.01
502.22	24176.27
502.43	24555.15
502.63	24637.06
502.84	24778.37
503.04	24419.98
503.25	24731.27
503.45	24708.74
503.66	25040.51
503.86	24788.61
504.07	25175.68
504.27	24999.55
504.48	25532.03
504.68	25228.93
504.89	25773.69
505.09	25798.26
505.30	25575.03
505.50	25939.57
505.71	25650.81
505.91	25726.58
506.12	25564.79
506.32	25994.87
506.53	25882.23
506.73	25947.76
506.94	26361.45
507.14	26277.49
507.35	26117.75
507.55	26508.91
507.76	26373.74
507.96	26375.79
508.17	26594.92
508.37	26693.22
508.58	26463.85
508.78	26848.87
508.99	26914.41
509.19	27078.24
509.40	26949.22
509.60	26889.83
509.81	26988.13
510.01	27280.99
510.22	27168.35
510.42	27500.12
510.63	27633.24
510.83	27399.77
511.04	27567.71
511.24	27545.18
511.44	27749.98
511.65	27899.48
511.85	27543.13
512.06	27745.88
512.26	27850.33
512.47	27883.09
512.67	27829.85
512.88	27924.05
513.08	27489.88
513.29	28419.66
513.49	28014.16
513.69	28147.28
513.90	28347.98
514.10	28481.10
514.31	28442.19
514.51	28655.18
514.72	28741.19
514.92	28653.13
515.13	28712.52
515.33	28550.73
515.53	28970.57
515.74	28960.33
515.94	29103.68
516.15	29034.05
516.35	28864.07
516.56	29265.47
516.76	29167.17
516.96	29351.49
517.17	29457.98
517.37	29406.78
517.58	29181.51
517.78	29392.45
517.99	29507.13
518.19	29873.72
518.39	29818.42
518.60	29996.60
518.80	29617.72
519.01	30207.54
519.21	30283.31
519.41	30264.88
519.62	29802.04
519.82	30340.66
520.03	30371.38
520.23	30144.05
520.43	30365.23
520.64	30733.87
520.84	30864.94
521.05	30457.39
521.25	31034.92
521.45	30877.22
521.66	30748.20
521.86	30885.42
522.07	30932.52
522.27	30996.01
522.47	30971.43
522.68	31305.25
522.88	31290.91
523.08	31706.65
523.29	31256.10
523.49	31639.07
523.70	31419.94
523.90	31925.78
524.10	31622.69
524.31	32200.21
524.51	31716.89
524.71	32341.52
524.92	31917.59
525.12	32511.50
525.33	32216.60
525.53	32370.19
525.73	32327.19
525.94	32497.17
526.14	32564.75
526.34	32794.12
526.55	32777.74
526.75	33021.45
526.95	32636.43
527.16	32679.44
527.36	32914.95
527.56	33273.35
527.77	33037.83
527.97	33441.28
528.17	33068.55
528.38	33156.61
528.58	33355.27
528.78	33822.20
528.99	33590.78
529.19	33730.05
529.39	33256.96
529.60	33861.12
529.80	33732.09
530.00	33873.40
530.21	34033.14
530.41	34311.67
530.61	34018.81
530.82	34354.68
531.02	34551.28
531.22	34110.97
531.43	34037.24
531.63	34760.17
531.83	34596.34
532.04	34946.54
532.24	34932.20
532.44	35128.81
532.64	35067.37
532.85	34991.59
533.05	34846.19
533.25	35261.93
533.46	34850.28
533.66	35552.74
533.86	35374.56
534.07	35536.35
534.27	35593.70
534.47	35839.45
534.67	35575.27
534.88	36005.34
535.08	35550.69
535.28	36058.59
535.49	36177.37
535.69	36236.76
535.89	36281.81
536.09	36394.45
536.30	36677.07
536.50	36693.46
536.70	36597.20
536.91	36296.15
537.11	36730.32
537.31	36754.90
537.51	36834.77
537.72	37199.30
537.92	36953.55
538.12	37494.21
538.32	37223.88
538.53	37363.14
538.73	37178.82
538.93	37408.20
539.13	37062.09
539.34	37817.79
539.54	37295.56
539.74	37662.15
539.94	37537.22
540.15	37336.52
540.35	37942.72
540.55	38081.98
540.75	38034.88
540.96	38243.77
541.16	37819.84
541.36	38194.62
541.56	38079.93
541.77	38653.36
541.97	38518.20
542.17	38337.98
542.37	38350.26
542.58	38329.78
542.78	38395.32
542.98	38481.33
543.18	38636.98
543.38	38839.73
543.59	38991.28
543.79	38550.96
543.99	38817.20
544.19	38925.74
544.40	38874.54
544.60	39312.81
544.80	38507.96
545.00	39083.44
545.20	39429.54
545.41	38782.38
545.61	39386.54
545.81	39230.89
546.01	39298.47
546.21	39314.86
546.42	39253.42
546.62	39447.97
546.82	39613.86
547.02	39503.27
547.22	39523.75
547.43	39744.93
547.63	39812.51
547.83	39865.76
548.03	39372.20
548.23	39808.42
548.44	39912.86
548.64	40005.02
548.84	39775.65
549.04	40228.25
549.24	39851.42
549.45	40478.10
549.65	39947.68
549.85	40308.12
550.05	40189.34
550.25	40029.60
550.45	40867.22
550.66	40383.90
550.86	39949.73
551.06	40715.67
551.26	40652.18
551.46	40535.45
551.66	40578.45
551.87	40842.64
552.07	40867.22
552.27	40861.07
552.47	40789.39
552.67	40994.19
552.87	40746.39
553.07	41102.73
553.28	41215.37
553.48	41205.13
553.68	41024.91
553.88	41528.71
554.08	41416.07
554.28	41153.93
554.48	41117.07
554.69	41194.89
554.89	41225.61
555.09	41727.36
555.29	41223.56
555.49	41645.44
555.69	41753.99
555.89	41489.80
556.10	41577.86
556.30	41461.13
556.50	41592.20
556.70	41686.40
556.90	41923.97
557.10	42124.67
557.30	41627.01
557.50	41907.58
557.70	42212.73
557.91	42128.77
558.11	41964.93
558.31	42247.55
558.51	42007.94
558.71	42288.51
558.91	42034.56
559.11	42063.23
559.31	41989.50
559.51	42274.17
559.72	42364.28
559.92	42517.88
560.12	41858.43
560.32	42882.42
560.52	42243.45
560.72	42061.18
560.92	42466.68
561.12	42612.09
561.32	42763.64
561.52	42214.78
561.72	42884.47
561.93	42605.94
562.13	42796.40
562.33	42489.21
562.53	43445.61
562.73	43011.44
562.93	42839.41
563.13	42714.48
563.33	43003.25
563.53	43230.57
563.73	42694.00
563.93	43031.92
564.13	43584.87
564.33	43183.47
564.53	43490.66
564.74	43492.71
564.94	43535.72
565.14	43636.07
565.34	43500.90
565.54	43789.67
565.74	43775.33
565.94	43892.07
566.14	43869.54
566.34	43476.33
566.54	44162.40
566.74	43693.41
566.94	43896.16
567.14	44094.82
567.34	43992.42
567.54	43912.55
567.74	44146.01
567.94	43857.25
568.14	44246.36
568.34	44496.22
568.54	44129.63
568.74	44461.40
568.94	44340.57
569.14	44408.15
569.34	44832.08
569.54	44590.42
569.75	44479.83
569.95	44805.46
570.15	44887.38
570.35	44725.59
570.55	44297.56
570.75	44698.97
570.95	45258.06
571.15	45219.15
571.35	44815.70
571.55	45245.77
571.75	45225.29
571.95	45313.36
572.15	45047.12
572.35	45167.95
572.55	45417.80
572.75	45159.76
572.95	45294.92
573.15	45532.49
573.35	45503.82
573.55	45387.08
573.75	45555.02
573.95	45940.04
574.15	45325.64
574.35	45997.38
574.55	46093.63
574.75	45839.68
574.95	45942.08
575.15	45993.28
575.34	46110.02
575.54	46306.62
575.74	46345.53
575.94	46341.44
576.14	46093.63
576.34	46863.67
576.54	46701.88
576.74	46771.51
576.94	46587.19
577.14	47119.66
577.34	46900.53
577.54	46599.48
577.74	47213.87
577.94	46964.02
578.14	47035.70
578.34	47482.16
578.54	46863.67
578.74	47242.54
578.94	47482.16
579.14	47240.50
579.34	47887.65
579.54	47846.69
579.74	47707.43
579.94	47734.06
580.13	47942.95
580.33	47994.15
580.53	47527.21
580.73	47844.65
580.93	48278.82
581.13	47805.73
581.33	48803.10
581.53	48547.10
581.73	48610.59
581.93	48799.00
582.13	48633.11
582.33	48469.28
582.53	48524.57
582.73	49124.63
582.92	48743.70
583.12	48796.95
583.32	48698.65
583.52	48825.62
583.72	49100.05
583.92	49227.02
584.12	48960.79
584.32	49732.87
584.52	49278.22
584.72	49394.96
584.92	49282.32
585.11	49759.50
585.31	49792.26
585.51	49888.52
585.71	49460.49
585.91	50193.67
586.11	49667.34
586.31	50025.73
586.51	49814.79
586.71	49804.55
586.91	50291.97
587.10	50390.27
587.30	50431.23
587.50	50779.39
587.70	50271.49
587.90	50511.10
588.10	50507.01
588.30	49849.61
588.50	50869.50
