SpectraSuite Data File
++++++++++++++++++++++++++++++++++++
Date: Fri Jun 02 14:52:25 CEST 2017
User: INFO_000
Dark Spectrum Present: No
Reference Spectrum Present: No
Number of Sampled Component Spectra: 1
Spectrometers: USB4H00879
Integration Time (usec): 80000 (USB4H00879)
Spectra Averaged: 1 (USB4H00879)
Boxcar Smoothing: 0 (USB4H00879)
Correct for Electrical Dark: No (USB4H00879)
Strobe/Lamp Enabled: No (USB4H00879)
Correct for Detector Non-linearity: No (USB4H00879)
Correct for Stray Light: No (USB4H00879)
Number of Pixels in Processed Spectrum: 3648
>>>>>Begin Processed Spectral Data<<<<<
345.13	1257.45
345.34	1257.45
345.56	1257.45
345.78	1304.56
345.99	1251.31
346.21	1728.49
346.42	1636.33
346.64	1640.42
346.86	1761.25
347.07	1716.20
347.29	1708.01
347.50	1607.66
347.72	1646.57
347.94	1757.16
348.15	1572.84
348.37	1667.05
348.59	1730.53
348.80	1703.91
349.02	1771.49
349.23	1898.47
349.45	1863.65
349.67	1845.22
349.88	1769.44
350.10	1918.95
350.31	1798.12
350.53	1773.54
350.75	2009.06
350.96	1918.95
351.18	1847.27
351.39	1863.65
351.61	1884.13
351.82	1882.08
352.04	1945.57
352.26	1830.88
352.47	1902.56
352.69	1953.76
352.90	1765.35
353.12	1888.23
353.34	1888.23
353.55	1941.47
353.77	1886.18
353.98	1859.56
354.20	1808.36
354.41	1953.76
354.63	1931.23
354.85	1920.99
355.06	1941.47
355.28	1818.60
355.49	1812.45
355.71	1888.23
355.92	1859.56
356.14	1898.47
356.35	1880.04
356.57	1816.55
356.79	1877.99
357.00	1839.08
357.22	2023.39
357.43	1845.22
357.65	1953.76
357.86	1820.64
358.08	1966.05
358.29	1851.36
358.51	1947.62
358.72	1931.23
358.94	1947.62
359.16	2011.11
359.37	1939.43
359.59	1933.28
359.80	1986.53
360.02	1935.33
360.23	1933.28
360.45	1978.34
360.66	1968.10
360.88	1918.95
361.09	1933.28
361.31	2029.54
361.52	1959.91
361.74	2013.15
361.95	2115.55
362.17	1865.70
362.38	2193.37
362.60	2099.17
362.81	2033.63
363.03	1929.19
363.24	2029.54
363.46	2019.30
363.67	2035.68
363.89	1945.57
364.10	1990.63
364.32	1998.82
364.53	2082.78
364.75	1935.33
364.96	2013.15
365.18	2019.30
365.39	1949.67
365.61	1939.43
365.82	2146.27
366.04	2052.06
366.25	2035.68
366.47	1992.67
366.68	2099.17
366.90	1908.71
367.11	2084.83
367.33	1970.15
367.54	2150.37
367.76	2060.26
367.97	2090.98
368.19	2029.54
368.40	2119.65
368.62	1959.91
368.83	1990.63
369.05	2072.54
369.26	2027.49
369.48	1978.34
369.69	2021.35
369.91	2093.02
370.12	2064.35
370.33	2105.31
370.55	2056.16
370.76	2074.59
370.98	2160.61
371.19	2043.87
371.41	2052.06
371.62	2090.98
371.84	2025.44
372.05	2205.66
372.27	2009.06
372.48	2068.45
372.69	2052.06
372.91	2115.55
373.12	2164.70
373.34	2142.18
373.55	2101.22
373.77	2224.09
373.98	2088.93
374.20	2250.72
374.41	2195.42
374.62	2160.61
374.84	2168.80
375.05	2234.33
375.27	2152.42
375.48	2207.71
375.70	2158.56
375.91	2240.48
376.12	2277.34
376.34	2125.79
376.55	2228.19
376.77	2232.29
376.98	2099.17
377.19	2164.70
377.41	2324.44
377.62	2263.01
377.84	2351.07
378.05	2256.86
378.27	2258.91
378.48	2351.07
378.69	2387.93
378.91	2293.72
379.12	2273.25
379.34	2283.49
379.55	2326.49
379.76	2265.05
379.98	2199.52
380.19	2295.77
380.41	2277.34
380.62	2318.30
380.83	2353.12
381.05	2232.29
381.26	2346.97
381.47	2260.96
381.69	2269.15
381.90	2465.75
382.12	2301.92
382.33	2187.23
382.54	2203.61
382.76	2273.25
382.97	2312.16
383.19	2254.81
383.40	2375.64
383.61	2445.27
383.83	2285.53
384.04	2385.88
384.25	2353.12
384.47	2467.80
384.68	2400.22
384.89	2344.92
385.11	2320.35
385.32	2363.36
385.54	2379.74
385.75	2369.50
385.96	2379.74
386.18	2424.80
386.39	2502.62
386.60	2426.84
386.82	2428.89
387.03	2416.60
387.24	2559.96
387.46	2510.81
387.67	2514.91
387.88	2500.57
388.10	2465.75
388.31	2463.71
388.52	2613.21
388.74	2516.95
388.95	2494.43
389.16	2539.48
389.38	2562.01
389.59	2572.25
389.80	2617.30
390.02	2541.53
390.23	2625.50
390.44	2562.01
390.66	2564.06
390.87	2562.01
391.08	2592.73
391.30	2742.23
391.51	2658.26
391.72	2678.74
391.94	2674.65
392.15	2633.69
392.36	2633.69
392.58	2555.86
392.79	2826.20
393.00	2721.75
393.22	2672.60
393.43	2775.00
393.64	2830.29
393.85	2734.04
394.07	2768.85
394.28	2799.57
394.49	2711.51
394.71	2830.29
394.92	2875.35
395.13	2811.86
395.35	2818.00
395.56	2824.15
395.77	2746.33
395.98	2799.57
396.20	2842.58
396.41	2912.21
396.62	2938.84
396.84	2756.57
397.05	2838.48
397.26	2826.20
397.47	3024.85
397.69	2803.67
397.90	2994.13
398.11	2916.31
398.32	2908.12
398.54	2873.30
398.75	2942.93
398.96	2979.79
399.18	3123.15
399.39	2949.08
399.60	3082.19
399.81	3069.91
400.03	2891.73
400.24	3260.37
400.45	3008.47
400.66	3076.05
400.88	2947.03
401.09	3149.78
401.30	3106.77
401.51	3088.34
401.73	3094.48
401.94	3121.10
402.15	3250.13
402.36	3141.58
402.58	3127.25
402.79	3295.18
403.00	3266.51
403.21	3178.45
403.43	3178.45
403.64	3313.61
403.85	3063.76
404.06	3276.75
404.27	3184.59
404.49	3311.57
404.70	3239.89
404.91	3272.65
405.12	3311.57
405.34	3286.99
405.55	3438.54
405.76	3117.01
405.97	3190.74
406.19	3385.29
406.40	3342.28
406.61	3383.24
406.82	3354.57
407.03	3313.61
407.25	3362.76
407.46	3508.17
407.67	3383.24
407.88	3514.31
408.09	3391.44
408.31	3303.37
408.52	3407.82
408.73	3477.45
408.94	3319.76
409.15	3450.83
409.37	3540.94
409.58	3510.22
409.79	3497.93
410.00	3577.80
410.21	3461.07
410.43	3506.12
410.64	3485.64
410.85	3622.86
411.06	3518.41
411.27	3647.43
411.48	3692.49
411.70	3645.38
411.91	3700.68
412.12	3729.35
412.33	3776.45
412.54	3651.53
412.76	3706.82
412.97	3821.51
413.18	3594.19
413.39	3721.16
413.60	3686.34
413.81	3712.97
414.03	3755.97
414.24	3698.63
414.45	3833.80
414.66	3684.30
414.87	3960.77
415.08	3813.32
415.30	3817.41
415.51	3782.60
415.72	3774.41
415.93	3837.89
416.14	3977.16
416.35	3858.37
416.56	3874.76
416.78	3917.76
416.99	3934.15
417.20	4001.73
417.41	3977.16
417.62	4087.75
417.83	4044.74
418.04	4116.42
418.26	4112.32
418.47	3925.96
418.68	3950.53
418.89	4050.88
419.10	4255.68
419.31	4083.65
419.52	4108.23
419.73	4108.23
419.95	4216.77
420.16	4042.69
420.37	4140.99
420.58	4216.77
420.79	4026.31
421.00	4067.27
421.21	4286.40
421.42	4130.75
421.63	4284.35
421.85	4175.81
422.06	4159.42
422.27	4132.80
422.48	4243.39
422.69	4368.32
422.90	4304.83
423.11	4374.46
423.32	4435.90
423.53	4429.76
423.75	4431.80
423.96	4636.60
424.17	4407.23
424.38	4657.08
424.59	4462.52
424.80	4677.56
425.01	4632.51
425.22	4573.11
425.43	4417.47
425.64	4763.58
425.85	4839.35
426.06	4562.87
426.28	4655.03
426.49	4591.55
426.70	4530.11
426.91	4575.16
427.12	4659.13
427.33	4695.99
427.54	4710.33
427.75	4753.34
427.96	4900.79
428.17	4779.96
428.38	4892.60
428.59	5048.24
428.80	4794.29
429.01	4884.41
429.23	4941.75
429.44	5054.39
429.65	5117.87
429.86	5072.82
430.07	5023.67
430.28	4790.20
430.49	5105.59
430.70	5294.00
430.91	5373.87
431.12	5156.79
431.33	5263.28
431.54	5316.53
431.75	5171.12
431.96	5279.66
432.17	5072.82
432.38	5150.64
432.59	5529.52
432.80	5400.49
433.01	5414.83
433.22	5406.64
433.43	5394.35
433.64	5257.14
433.85	5296.05
434.06	5558.19
434.27	5351.34
434.49	5490.60
434.70	5607.34
434.91	5537.71
435.12	5556.14
435.33	5519.28
435.54	5531.56
435.75	5320.62
435.96	5519.28
436.17	5410.73
436.38	5609.39
436.59	5885.86
436.80	5541.80
437.01	5955.49
437.22	5834.66
437.43	5855.14
437.64	5541.80
437.85	5832.62
438.06	5793.70
438.27	5830.57
438.48	5887.91
438.69	5857.19
438.90	5863.33
439.11	5672.87
439.32	6006.69
439.53	5949.35
439.74	5963.68
439.95	6096.80
440.16	6078.37
440.37	6004.64
440.57	5873.57
440.78	5984.16
440.99	6076.32
441.20	6006.69
441.41	5971.88
441.62	6100.90
441.83	5947.30
442.04	6289.31
442.25	6098.85
442.46	6107.04
442.67	6268.83
442.88	6391.71
443.09	6123.43
443.30	6191.01
443.51	6115.23
443.72	6473.63
443.93	6191.01
444.14	6449.05
444.35	6336.42
444.56	6408.09
444.77	6328.22
444.98	6346.66
445.19	6551.45
445.40	6490.01
445.61	6442.91
445.81	6621.08
446.02	6614.94
446.23	6393.76
446.44	6424.48
446.65	6510.49
446.86	6571.93
447.07	6791.06
447.28	6698.91
447.49	6815.64
447.70	6547.36
447.91	6815.64
448.12	6641.56
448.33	7063.44
448.54	6737.82
448.74	6786.97
448.95	6809.50
449.16	6768.54
449.37	7192.47
449.58	6932.37
449.79	7020.44
450.00	6682.52
450.21	7147.41
450.42	7128.98
450.63	7006.10
450.84	7063.44
451.05	7282.58
451.25	7110.55
451.46	7079.83
451.67	7204.75
451.88	7360.40
452.09	7286.67
452.30	7251.86
452.51	7364.50
452.72	7446.41
452.93	7753.61
453.13	7258.00
453.34	7231.38
453.55	7387.02
453.76	7514.00
453.97	7907.21
454.18	7475.09
454.39	7577.48
454.60	7546.76
454.81	7683.98
455.01	7745.42
455.22	7470.99
455.43	7907.21
455.64	7921.54
455.85	8087.43
456.06	8134.53
456.27	8038.28
456.48	7913.35
456.68	7982.98
456.89	7993.22
457.10	8251.27
457.31	8290.18
457.52	8050.57
457.73	8214.40
457.94	8406.91
458.14	8281.99
458.35	8458.11
458.56	8374.14
458.77	8220.55
458.98	8572.80
459.19	8523.65
459.39	8593.28
459.60	8619.90
459.81	8537.98
460.02	8757.11
460.23	8742.78
460.44	8724.35
460.65	8771.45
460.85	8875.90
461.06	9029.49
461.27	8814.46
461.48	9150.32
461.69	9144.18
461.89	8763.26
462.10	9084.79
462.31	8894.33
462.52	9078.65
462.73	9197.43
462.94	9179.00
463.14	9123.70
463.35	9244.53
463.56	9815.91
463.77	9615.21
463.98	9715.56
464.18	9385.84
464.39	9777.00
464.60	9836.39
464.81	9807.72
465.02	9842.54
465.23	10129.25
465.43	9856.87
465.64	9934.70
465.85	9846.63
466.06	10110.82
466.27	10133.35
466.47	10258.28
466.68	10368.87
466.89	10336.10
467.10	10272.61
467.30	10227.56
467.51	10407.78
467.72	10682.20
467.93	10581.85
468.14	10817.37
468.34	10837.85
468.55	10770.27
468.76	10880.86
468.97	10889.05
469.17	10819.42
469.38	11153.24
469.59	11300.69
469.80	10993.50
470.01	11005.78
470.21	11112.28
470.42	11353.94
470.63	11405.14
470.84	11304.79
471.04	11528.02
471.25	11597.65
471.46	11624.27
471.67	12005.19
471.87	11741.00
472.08	11978.57
472.29	12322.63
472.50	11712.33
472.70	12195.65
472.91	11888.46
473.12	12339.01
473.33	12457.79
473.53	12582.72
473.74	12281.67
473.95	12652.35
474.16	12783.42
474.36	12658.49
474.57	12721.98
474.78	13072.18
474.99	12953.40
475.19	13088.57
475.40	13059.90
475.61	13070.14
475.81	13512.50
476.02	13752.11
476.23	13418.29
476.44	13739.82
476.64	13823.79
476.85	13905.71
477.06	13721.39
477.27	14233.38
477.47	14098.22
477.68	14100.26
477.89	14290.73
478.09	14196.52
478.30	14321.45
478.51	14425.89
478.71	14497.57
478.92	14501.67
479.13	14710.56
479.34	14929.69
479.54	14931.74
479.75	15189.78
479.96	15056.67
480.16	14982.94
480.37	15120.15
480.58	15572.75
480.78	15677.20
480.99	15441.68
481.20	15357.72
481.41	15736.59
481.61	15882.00
481.82	16101.13
482.03	15838.99
482.23	15965.96
482.44	16535.30
482.65	16101.13
482.85	16373.51
483.06	16430.85
483.27	16506.63
483.47	16396.04
483.68	16348.93
483.89	16692.99
484.09	16834.30
484.30	17121.02
484.51	17022.72
484.71	17129.21
484.92	17356.54
485.13	17254.14
485.33	17397.49
485.54	17633.01
485.75	18018.03
485.95	17571.57
486.16	17901.29
486.37	18073.32
486.57	17972.97
486.78	17993.45
486.98	17970.93
487.19	18128.62
487.40	18243.31
487.60	18278.12
487.81	18605.80
488.02	18460.39
488.22	18325.22
488.43	18904.80
488.64	18783.97
488.84	19062.49
489.05	19050.21
489.25	19093.21
489.46	19187.42
489.67	19248.86
489.87	19427.03
490.08	19461.85
490.29	19402.46
490.49	19855.06
490.70	19777.23
490.90	19678.93
491.11	19697.36
491.32	19932.88
491.52	19795.67
491.73	19883.73
491.94	20192.97
492.14	20131.53
492.35	20522.69
492.55	20534.98
492.76	20354.76
492.97	20856.51
493.17	20651.72
493.38	20825.79
493.58	21049.02
493.79	21157.57
494.00	20897.47
494.20	21149.37
494.41	21276.35
494.61	21733.04
494.82	21374.65
495.02	21157.57
495.23	21415.61
495.44	21632.69
495.64	21886.64
495.85	21941.94
496.05	21687.99
496.26	21749.43
496.47	22165.17
496.67	22253.23
496.88	22574.76
497.08	22122.16
497.29	22333.10
497.49	22324.91
497.70	22535.85
497.91	22845.09
498.11	23037.60
498.32	22980.26
498.52	22886.05
498.73	23056.03
498.93	22918.82
499.14	23271.07
499.34	23195.29
499.55	23426.71
499.76	23029.41
499.96	23352.99
500.17	23631.51
500.37	23363.23
500.58	23385.76
500.78	23934.61
500.99	23772.82
501.19	24116.88
501.40	23705.24
501.60	23643.80
501.81	23703.19
502.02	23981.71
502.22	24188.56
502.43	24034.96
502.63	24356.49
502.84	24549.00
503.04	24215.18
503.25	24376.97
503.45	24444.56
503.66	24444.56
503.86	24557.19
504.07	24841.86
504.27	24321.68
504.48	25136.77
504.68	25050.75
504.89	25179.78
505.09	25245.31
505.30	24811.14
505.50	25089.67
505.71	25351.81
505.91	25575.03
506.12	25646.71
506.32	25429.63
506.53	25550.46
506.73	25943.67
506.94	26068.59
507.14	25587.32
507.35	25595.51
507.55	26031.73
507.76	25992.82
507.96	25902.71
508.17	25839.22
508.37	26191.47
508.58	26125.94
508.78	26066.55
508.99	26418.80
509.19	26443.37
509.40	26334.83
509.60	26588.78
509.81	26400.37
510.01	26373.74
510.22	26863.21
510.42	26609.26
510.63	26793.58
510.83	26699.37
511.04	26783.34
511.24	26926.69
511.44	26941.03
511.65	27246.18
511.85	27283.04
512.06	27350.62
512.26	27260.51
512.47	27203.17
512.67	27240.03
512.88	27424.35
513.08	27389.53
513.29	27479.64
513.49	27201.12
513.69	27489.88
513.90	27702.87
514.10	27545.18
514.31	28208.72
514.51	27815.51
514.72	27741.78
514.92	28223.06
515.13	28200.53
515.33	28120.66
515.53	28200.53
515.74	28100.18
515.94	28350.03
516.15	28130.90
516.35	28538.44
516.56	28712.52
516.76	28382.80
516.96	28782.15
517.17	28980.81
517.37	29148.74
517.58	28902.98
517.78	28802.63
517.99	28991.05
518.19	28952.13
518.39	29263.43
518.60	29378.11
518.80	29308.48
519.01	29480.51
519.21	29462.08
519.41	29646.40
519.62	29523.52
519.82	29816.38
520.03	29617.72
520.23	30133.81
520.43	29814.33
520.64	30213.68
520.84	29922.87
521.05	30281.27
521.25	30221.87
521.45	30416.43
521.66	30414.38
521.86	30271.03
522.07	30557.74
522.27	30479.92
522.47	30549.55
522.68	30885.42
522.88	30717.48
523.08	30955.05
523.29	31188.52
523.49	31077.93
523.70	31137.32
523.90	31256.10
524.10	30996.01
524.31	31442.46
524.51	31194.66
524.71	31766.04
524.92	31598.11
525.12	32036.38
525.33	31782.43
525.53	32044.57
525.73	32112.15
525.94	31933.98
526.14	32052.76
526.34	31897.11
526.55	32407.06
526.75	31964.70
526.95	32585.23
527.16	32607.76
527.36	32970.25
527.56	32693.77
527.77	33355.27
527.97	32865.80
528.17	32759.31
528.38	32863.75
528.58	33310.21
528.78	33394.18
528.99	33535.49
529.19	33578.50
529.39	33371.65
529.60	33611.26
529.80	33902.07
530.00	33465.86
530.21	33648.13
530.41	34145.78
530.61	33963.51
530.82	34184.69
531.02	34143.74
531.22	34432.50
531.43	34188.79
531.63	34512.37
531.83	34950.63
532.04	35044.84
532.24	34907.63
532.44	35106.28
532.64	35200.49
532.85	35296.74
533.05	35161.58
533.25	35605.98
533.46	35405.28
533.66	35849.69
533.86	35567.07
534.07	36120.02
534.27	36046.30
534.47	35896.80
534.67	36265.43
534.88	35923.42
535.08	36203.99
535.28	36296.15
535.49	36210.14
535.69	36738.51
535.89	36748.75
536.09	36928.97
536.30	37352.90
536.50	36849.10
536.70	37154.25
536.91	37129.67
537.11	37240.26
537.31	37164.49
537.51	37383.62
537.72	37719.49
537.92	37692.86
538.12	37707.20
538.32	37606.85
538.53	37821.89
538.73	37555.65
538.93	37711.30
539.13	37701.06
539.34	37840.32
539.54	37893.57
539.74	38198.71
539.94	38286.78
540.15	38170.04
540.35	38112.70
540.55	38542.77
540.75	38510.00
540.96	38557.11
541.16	38450.61
541.36	38983.09
541.56	38868.40
541.77	39114.16
541.97	39026.09
542.17	39056.81
542.37	39003.56
542.58	39323.05
542.78	39245.23
542.98	38942.13
543.18	39364.01
543.38	39445.93
543.59	39490.98
543.79	39564.71
543.99	39239.08
544.19	39884.19
544.40	39611.81
544.60	40050.08
544.80	39957.92
545.00	39624.10
545.20	40318.36
545.41	40140.19
545.61	39810.46
545.81	40267.16
546.01	40232.35
546.21	40195.48
546.42	40213.91
546.62	40983.95
546.82	40297.88
547.02	40560.02
547.22	41414.02
547.43	40531.35
547.63	40687.00
547.83	40684.95
548.03	40564.12
548.23	41047.44
548.44	40809.87
548.64	41024.91
548.84	41067.92
549.04	41096.59
549.24	41184.65
549.45	41360.78
549.65	40854.93
549.85	41274.76
550.05	41604.49
550.25	41176.46
550.45	41735.56
550.66	41598.34
550.86	41004.43
551.06	41780.61
551.26	41692.55
551.46	41739.65
551.66	41727.36
551.87	41721.22
552.07	41801.09
552.27	42005.89
552.47	42124.67
552.67	42038.65
552.87	42044.80
553.07	42009.98
553.28	42360.19
553.48	42227.07
553.68	42114.43
553.88	42354.04
554.08	42294.65
554.28	42261.88
554.48	42063.23
554.69	42300.79
554.89	42263.93
555.09	42687.86
555.29	41895.30
555.49	42397.05
555.69	42495.35
555.89	42425.72
556.10	42464.63
556.30	42333.56
556.50	42659.19
556.70	42458.49
556.90	42558.84
557.10	42718.58
557.30	42362.23
557.50	43017.58
557.70	42960.24
557.91	43203.95
558.11	42968.43
558.31	43283.82
558.51	43326.83
558.71	43382.12
558.91	43330.92
559.11	42595.70
559.31	43029.87
559.51	43113.84
559.72	43244.91
559.92	43449.70
560.12	43150.70
560.32	43345.26
560.52	42999.15
560.72	43281.77
560.92	43492.71
561.12	43406.70
561.32	43611.49
561.52	43011.44
561.72	44156.25
561.93	42990.96
562.13	43574.63
562.33	43339.11
562.53	43513.19
562.73	43490.66
562.93	43613.54
563.13	43890.02
563.33	43234.67
563.53	44275.04
563.73	43261.29
563.93	43873.63
564.13	44090.72
564.33	43847.01
564.53	43789.67
564.74	44475.74
564.94	43842.92
565.14	44021.09
565.34	43650.41
565.54	44381.53
565.74	44078.43
565.94	44379.48
566.14	44469.59
566.34	43732.32
566.54	44326.24
566.74	43971.94
566.94	44438.87
567.14	44346.72
567.34	43961.70
567.54	44301.66
567.74	44371.29
567.94	44180.83
568.14	44406.11
568.34	44660.05
568.54	44412.25
568.74	44957.01
568.94	44311.90
569.14	44746.07
569.34	44698.97
569.54	44649.81
569.75	44571.99
569.95	44756.31
570.15	45135.18
570.35	44889.43
570.55	44660.05
570.75	44940.63
570.95	45034.83
571.15	45206.86
571.35	44682.58
571.55	44971.35
571.75	45286.73
571.95	45399.37
572.15	45151.57
572.35	45393.23
572.55	45096.27
572.75	45491.53
572.95	45266.25
573.15	45466.95
573.35	45385.04
573.55	45479.24
573.75	45817.16
573.95	45872.45
574.15	45251.92
574.35	45679.94
574.55	45700.42
574.75	45565.26
574.95	45669.70
575.15	45811.01
575.34	46167.36
575.54	45940.04
575.74	46236.99
575.94	46406.97
576.14	46179.65
576.34	46173.50
576.54	46548.28
576.74	46566.71
576.94	46044.48
577.14	46738.74
577.34	46888.24
577.54	46183.74
577.74	46566.71
577.94	46243.13
578.14	47205.68
578.34	46583.10
578.54	46130.50
578.74	46114.11
578.94	47238.45
579.14	47084.85
579.34	47052.08
579.54	47084.85
579.74	47533.35
579.94	47037.75
580.13	47334.70
580.33	47441.20
580.53	47562.03
580.73	47635.75
580.93	47283.50
581.13	47238.45
581.33	47789.35
581.53	47621.42
581.73	47607.08
581.93	48020.77
582.13	47996.20
582.33	47826.21
582.53	47965.48
582.73	48049.44
582.92	48450.84
583.12	47955.24
583.32	47480.11
583.52	47654.18
583.72	48258.34
583.92	48227.62
584.12	48565.53
584.32	48553.24
584.52	48387.36
584.72	48678.17
584.92	48870.68
585.11	48813.34
585.31	48641.31
585.51	48952.60
585.71	48461.08
585.91	48858.39
586.11	48874.77
586.31	48997.65
586.51	48893.21
586.71	48674.07
586.91	49462.54
587.10	49071.38
587.30	49354.00
587.50	49181.97
587.70	49306.90
587.90	49624.33
588.10	49657.10
588.30	49253.65
588.50	49820.94
