SpectraSuite Data File
++++++++++++++++++++++++++++++++++++
Date: Fri Jun 02 14:52:24 CEST 2017
User: INFO_000
Dark Spectrum Present: No
Reference Spectrum Present: No
Number of Sampled Component Spectra: 1
Spectrometers: USB4H00879
Integration Time (usec): 80000 (USB4H00879)
Spectra Averaged: 1 (USB4H00879)
Boxcar Smoothing: 0 (USB4H00879)
Correct for Electrical Dark: No (USB4H00879)
Strobe/Lamp Enabled: No (USB4H00879)
Correct for Detector Non-linearity: No (USB4H00879)
Correct for Stray Light: No (USB4H00879)
Number of Pixels in Processed Spectrum: 3648
>>>>>Begin Processed Spectral Data<<<<<
345.13	1212.40
345.34	1212.40
345.56	1212.40
345.78	1290.22
345.99	1249.26
346.21	1710.05
346.42	1642.47
346.64	1605.61
346.86	1769.44
347.07	1695.72
347.29	1654.76
347.50	1675.24
347.72	1634.28
347.94	1716.20
348.15	1554.41
348.37	1646.57
348.59	1732.58
348.80	1679.33
349.02	1728.49
349.23	1947.62
349.45	1791.97
349.67	1906.66
349.88	1841.12
350.10	1914.85
350.31	1875.94
350.53	1853.41
350.75	2000.87
350.96	1775.59
351.18	1902.56
351.39	1847.27
351.61	1851.36
351.82	1947.62
352.04	1877.99
352.26	1871.84
352.47	1900.52
352.69	1867.75
352.90	1748.97
353.12	1847.27
353.34	1841.12
353.55	1927.14
353.77	1839.08
353.98	1839.08
354.20	1884.13
354.41	1902.56
354.63	1904.61
354.85	1970.15
355.06	1912.80
355.28	1816.55
355.49	1812.45
355.71	1910.75
355.92	1908.71
356.14	1920.99
356.35	1906.66
356.57	1824.74
356.79	1822.69
357.00	1812.45
357.22	1988.58
357.43	1834.98
357.65	1980.39
357.86	1796.07
358.08	1941.47
358.29	1951.71
358.51	1939.43
358.72	2039.78
358.94	1906.66
359.16	1927.14
359.37	1855.46
359.59	1937.38
359.80	1994.72
360.02	2000.87
360.23	2011.11
360.45	2060.26
360.66	1966.05
360.88	1896.42
361.09	1880.04
361.31	1951.71
361.52	1927.14
361.74	2045.92
361.95	2070.50
362.17	2009.06
362.38	2031.58
362.60	2023.39
362.81	1986.53
363.03	2025.44
363.24	1978.34
363.46	2105.31
363.67	1988.58
363.89	1943.52
364.10	1994.72
364.32	2004.96
364.53	2021.35
364.75	1908.71
364.96	2084.83
365.18	1974.24
365.39	2007.01
365.61	1990.63
365.82	2115.55
366.04	2078.69
366.25	1957.86
366.47	2074.59
366.68	1978.34
366.90	1929.19
367.11	2121.70
367.33	2109.41
367.54	2127.84
367.76	1996.77
367.97	2058.21
368.19	2066.40
368.40	2080.74
368.62	2072.54
368.83	2004.96
369.05	2099.17
369.26	1996.77
369.48	2084.83
369.69	2007.01
369.91	2076.64
370.12	1992.67
370.33	2093.02
370.55	1931.23
370.76	2021.35
370.98	2138.08
371.19	2082.78
371.41	2000.87
371.62	2109.41
371.84	2047.97
372.05	2277.34
372.27	1982.43
372.48	2066.40
372.69	2029.54
372.91	2154.46
373.12	2148.32
373.34	2093.02
373.55	2158.56
373.77	2148.32
373.98	2097.12
374.20	2211.81
374.41	2220.00
374.62	2138.08
374.84	2156.51
375.05	2119.65
375.27	2174.94
375.48	2234.33
375.70	2224.09
375.91	2234.33
376.12	2248.67
376.34	2156.51
376.55	2240.48
376.77	2265.05
376.98	2125.79
377.19	2111.46
377.41	2115.55
377.62	2181.09
377.84	2328.54
378.05	2324.44
378.27	2207.71
378.48	2359.26
378.69	2402.27
378.91	2422.75
379.12	2232.29
379.34	2289.63
379.55	2336.73
379.76	2297.82
379.98	2316.25
380.19	2265.05
380.41	2250.72
380.62	2377.69
380.83	2299.87
381.05	2256.86
381.26	2453.47
381.47	2303.96
381.69	2349.02
381.90	2430.94
382.12	2324.44
382.33	2361.31
382.54	2369.50
382.76	2265.05
382.97	2303.96
383.19	2351.07
383.40	2396.12
383.61	2344.92
383.83	2254.81
384.04	2342.88
384.25	2400.22
384.47	2475.99
384.68	2389.98
384.89	2328.54
385.11	2369.50
385.32	2379.74
385.54	2402.27
385.75	2369.50
385.96	2437.08
386.18	2432.99
386.39	2430.94
386.60	2377.69
386.82	2469.85
387.03	2557.91
387.24	2500.57
387.46	2457.56
387.67	2437.08
387.88	2529.24
388.10	2514.91
388.31	2551.77
388.52	2525.15
388.74	2465.75
388.95	2398.17
389.16	2539.48
389.38	2519.00
389.59	2648.02
389.80	2645.98
390.02	2609.11
390.23	2650.07
390.44	2426.84
390.66	2637.78
390.87	2557.91
391.08	2551.77
391.30	2635.74
391.51	2721.75
391.72	2678.74
391.94	2680.79
392.15	2650.07
392.36	2648.02
392.58	2721.75
392.79	2709.46
393.00	2744.28
393.22	2721.75
393.43	2818.00
393.64	2729.94
393.85	2783.19
394.07	2658.26
394.28	2686.94
394.49	2729.94
394.71	2865.11
394.92	2858.96
395.13	2793.43
395.35	2746.33
395.56	2723.80
395.77	2840.53
395.98	2797.53
396.20	2949.08
396.41	2887.64
396.62	2813.91
396.84	2904.02
397.05	2887.64
397.26	2940.88
397.47	3033.04
397.69	2789.33
397.90	2957.27
398.11	3049.43
398.32	2959.31
398.54	2955.22
398.75	2901.97
398.96	2998.23
399.18	3098.58
399.39	3030.99
399.60	2994.13
399.81	2920.40
400.03	2963.41
400.24	3168.21
400.45	3012.56
400.66	3037.14
400.88	3022.80
401.09	3180.50
401.30	3010.51
401.51	3069.91
401.73	3098.58
401.94	3186.64
402.15	3059.67
402.36	3145.68
402.58	3104.72
402.79	3157.97
403.00	3198.93
403.21	3264.46
403.43	3186.64
403.64	3307.47
403.85	3231.69
404.06	3243.98
404.27	3182.54
404.49	3205.07
404.70	3092.43
404.91	3315.66
405.12	3301.33
405.34	3276.75
405.55	3434.44
405.76	3123.15
405.97	3235.79
406.19	3540.94
406.40	3291.09
406.61	3401.68
406.82	3391.44
407.03	3356.62
407.25	3352.52
407.46	3487.69
407.67	3493.83
407.88	3475.40
408.09	3358.67
408.31	3477.45
408.52	3393.48
408.73	3538.89
408.94	3325.90
409.15	3508.17
409.37	3575.75
409.58	3528.65
409.79	3502.03
410.00	3612.62
410.21	3465.16
410.43	3590.09
410.64	3549.13
410.85	3616.71
411.06	3540.94
411.27	3626.95
411.48	3491.79
411.70	3573.71
411.91	3534.79
412.12	3772.36
412.33	3596.23
412.54	3686.34
412.76	3770.31
412.97	3735.50
413.18	3633.10
413.39	3712.97
413.60	3733.45
413.81	3848.13
414.03	3665.86
414.24	3667.91
414.45	3839.94
414.66	3704.78
414.87	3774.41
415.08	3784.65
415.30	3760.07
415.51	3872.71
415.72	3786.69
415.93	3811.27
416.14	3928.00
416.35	3997.64
416.56	3870.66
416.78	3909.57
416.99	4032.45
417.20	3985.35
417.41	3973.06
417.62	3966.92
417.83	3897.28
418.04	3997.64
418.26	4036.55
418.47	4007.87
418.68	4040.64
418.89	3979.20
419.10	4202.43
419.31	4100.03
419.52	4255.68
419.73	4089.79
419.95	4296.64
420.16	4046.79
420.37	4075.46
420.58	4155.33
420.79	3893.19
421.00	4290.49
421.21	4255.68
421.42	4104.13
421.63	4267.97
421.85	4224.96
422.06	4214.72
422.27	4177.86
422.48	4274.11
422.69	4509.63
422.90	4210.62
423.11	4310.97
423.32	4427.71
423.53	4403.13
423.75	4530.11
423.96	4495.29
424.17	4392.89
424.38	4599.74
424.59	4491.20
424.80	4661.18
425.01	4519.87
425.22	4497.34
425.43	4493.24
425.64	4675.51
425.85	4698.04
426.06	4632.51
426.28	4667.32
426.49	4564.92
426.70	4605.88
426.91	4685.75
427.12	4702.14
427.33	4763.58
427.54	4667.32
427.75	4831.16
427.96	4894.65
428.17	4800.44
428.38	4945.84
428.59	4935.60
428.80	4859.83
429.01	4876.21
429.23	4853.69
429.44	4986.80
429.65	5132.21
429.86	5173.17
430.07	4816.82
430.28	4880.31
430.49	5124.02
430.70	5214.13
430.91	5203.89
431.12	5046.20
431.33	5109.68
431.54	5136.31
431.75	5054.39
431.96	5132.21
432.17	5124.02
432.38	5089.20
432.59	5332.91
432.80	5207.98
433.01	5443.50
433.22	5416.88
433.43	5267.38
433.64	5255.09
433.85	5300.14
434.06	5521.32
434.27	5416.88
434.49	5486.51
434.70	5656.49
434.91	5513.13
435.12	5601.19
435.33	5482.41
435.54	5570.48
435.75	5341.10
435.96	5492.65
436.17	5463.98
436.38	5670.83
436.59	5707.69
436.80	5617.58
437.01	5865.38
437.22	5801.90
437.43	5738.41
437.64	5574.57
437.85	5922.73
438.06	5707.69
438.27	5752.74
438.48	5728.17
438.69	5822.38
438.90	5865.38
439.11	5820.33
439.32	5752.74
439.53	5849.00
439.74	5916.58
439.95	6006.69
440.16	5922.73
440.37	5959.59
440.57	5767.08
440.78	5943.21
440.99	6031.27
441.20	6049.70
441.41	6002.60
441.62	5978.02
441.83	6021.03
442.04	6381.47
442.25	6086.56
442.46	6133.67
442.67	6291.36
442.88	6494.11
443.09	6195.11
443.30	6139.81
443.51	6119.33
443.72	6465.44
443.93	6279.07
444.14	6553.50
444.35	6168.48
444.56	6424.48
444.77	6326.18
444.98	6334.37
445.19	6535.07
445.40	6522.78
445.61	6422.43
445.81	6637.47
446.02	6395.81
446.23	6440.86
446.44	6414.24
446.65	6551.45
446.86	6662.04
447.07	6664.09
447.28	6885.27
447.49	6899.61
447.70	6631.32
447.91	6791.06
448.12	6868.89
448.33	6868.89
448.54	6836.12
448.74	6746.01
448.95	6936.47
449.16	7004.05
449.37	7198.61
449.58	6850.46
449.79	7210.90
450.00	6922.13
450.21	7008.15
450.42	7155.60
450.63	7321.49
450.84	7118.74
451.05	7264.15
451.25	7059.35
451.46	7147.41
451.67	7409.55
451.88	7444.37
452.09	7436.17
452.30	7165.84
452.51	7292.82
452.72	7612.30
452.93	7696.27
453.13	7425.93
453.34	7298.96
453.55	7647.12
453.76	7571.34
453.97	7780.23
454.18	7499.66
454.39	7681.93
454.60	7577.48
454.81	7716.75
455.01	7769.99
455.22	7444.37
455.43	7722.89
455.64	8198.02
455.85	8060.80
456.06	8032.13
456.27	8073.09
456.48	7966.60
456.68	7868.30
456.89	8173.44
457.10	8187.78
457.31	8169.35
457.52	8064.90
457.73	8271.75
457.94	8324.99
458.14	8193.92
458.35	8642.43
458.56	8419.20
458.77	8423.30
458.98	8462.21
459.19	8441.73
459.39	8578.94
459.60	8851.32
459.81	8597.37
460.02	8580.99
460.23	8710.01
460.44	8966.01
460.65	8925.05
460.85	9039.73
461.06	8982.39
461.27	8847.22
461.48	9105.27
461.69	9154.42
461.89	8847.22
462.10	9273.20
462.31	9031.54
462.52	9064.31
462.73	9193.33
462.94	9320.31
463.14	9351.03
463.35	9248.63
463.56	9703.28
463.77	9451.38
463.98	9559.92
464.18	9621.36
464.39	9650.03
464.60	9924.46
464.81	9774.95
465.02	9637.74
465.23	10014.57
465.43	9815.91
465.64	9963.37
465.85	10041.19
466.06	9979.75
466.27	10186.60
466.47	10256.23
466.68	10157.92
466.89	9912.17
467.10	10366.82
467.30	10157.92
467.51	10565.47
467.72	10674.01
467.93	10551.14
468.14	10446.69
468.34	10579.81
468.55	10684.25
468.76	10727.26
468.97	10700.64
469.17	10913.63
469.38	10837.85
469.59	11001.69
469.80	10868.57
470.01	10921.82
470.21	11026.26
470.42	11454.29
470.63	11433.81
470.84	11243.35
471.04	11480.91
471.25	11487.06
471.46	11431.76
471.67	11560.78
471.87	11599.70
472.08	11628.37
472.29	11853.64
472.50	11442.00
472.70	11937.61
472.91	11796.30
473.12	12091.21
473.33	12105.54
473.53	12484.42
473.74	12001.10
473.95	12410.69
474.16	12660.54
474.36	12425.03
474.57	12609.34
474.78	12664.64
474.99	12627.78
475.19	12474.18
475.40	12918.59
475.61	12939.07
475.81	13092.66
476.02	13340.47
476.23	12982.07
476.44	13344.56
476.64	13440.82
476.85	13670.19
477.06	13584.18
477.27	14130.98
477.47	13813.55
477.68	14001.96
477.89	14057.26
478.09	13879.08
478.30	13938.48
478.51	14204.71
478.71	14067.50
478.92	14194.47
479.13	14321.45
479.34	14632.74
479.54	14522.15
479.75	14458.66
479.96	14731.04
480.16	14774.05
480.37	15036.19
480.58	15228.70
480.78	15355.67
480.99	15091.48
481.20	15208.22
481.41	15386.39
481.61	15464.21
481.82	15652.63
482.03	15828.75
482.23	15763.22
482.44	15918.86
482.65	16109.32
482.85	16242.44
483.06	16236.30
483.27	15918.86
483.47	16324.36
483.68	16420.61
483.89	16588.55
484.09	16584.45
484.30	16875.26
484.51	16938.75
484.71	17141.50
484.92	16801.54
485.13	17438.45
485.33	17155.83
485.54	17137.40
485.75	17680.11
485.95	17608.44
486.16	17704.69
486.37	17950.45
486.57	17749.75
486.78	18063.08
486.98	17886.96
487.19	17991.41
487.40	18118.38
487.60	18099.95
487.81	18390.76
488.02	18562.79
488.22	18298.60
488.43	18751.20
488.64	18767.59
488.84	18874.08
489.05	18962.14
489.25	19058.40
489.46	19461.85
489.67	19080.92
489.87	19420.89
490.08	19674.84
490.29	19351.26
490.49	20135.63
490.70	19758.80
490.90	20127.44
491.11	19762.90
491.32	20395.72
491.52	20332.23
491.73	20156.11
491.94	20156.11
492.14	20164.30
492.35	20401.86
492.55	20686.53
492.76	20766.40
492.97	20905.66
493.17	20920.00
493.38	20956.86
493.58	21270.20
493.79	21534.39
494.00	21092.03
494.20	21458.62
494.41	21376.70
494.61	21632.69
494.82	21653.17
495.02	21737.14
495.23	21784.24
495.44	21984.94
495.64	21995.18
495.85	22046.38
496.05	22255.28
496.26	22214.32
496.47	22363.82
496.67	22646.44
496.88	22523.56
497.08	22363.82
497.29	22707.88
497.49	22785.70
497.70	23185.05
497.91	23187.10
498.11	23209.63
498.32	23191.20
498.52	23418.52
498.73	23635.61
498.93	23553.69
499.14	23543.45
499.34	23824.02
499.55	23617.18
499.76	23703.19
499.96	23824.02
500.17	23873.17
500.37	24118.93
500.58	24219.28
500.78	24419.98
500.99	24221.33
501.19	24241.81
501.40	24493.71
501.60	24522.38
501.81	24336.01
502.02	24477.32
502.22	24270.48
502.43	24444.56
502.63	25030.27
502.84	24882.82
503.04	24929.92
503.25	25206.40
503.45	25048.71
503.66	25271.93
503.86	25075.33
504.07	25427.58
504.27	25140.86
504.48	25550.46
504.68	25704.06
504.89	25468.54
505.09	25900.66
505.30	25826.93
505.50	25884.28
505.71	25298.56
505.91	25986.68
506.12	25708.15
506.32	25994.87
506.53	25998.96
506.73	26226.29
506.94	26388.08
507.14	26304.11
507.35	26486.38
507.55	26650.22
507.76	26596.97
507.96	26596.97
508.17	26594.92
508.37	26449.52
508.58	26689.13
508.78	26685.03
508.99	26908.26
509.19	26777.19
509.40	26701.42
509.60	26832.49
509.81	26965.60
510.01	26769.00
510.22	26984.04
510.42	26818.15
510.63	27526.75
510.83	27446.88
511.04	27166.31
511.24	27377.25
511.44	27364.96
511.65	27340.38
511.85	27389.53
512.06	27256.42
512.26	27473.50
512.47	27819.61
512.67	27481.69
512.88	27706.97
513.08	27565.66
513.29	27678.30
513.49	27815.51
513.69	27596.38
513.90	28026.45
514.10	28016.21
514.31	28075.60
514.51	28196.43
514.72	27862.61
514.92	28141.14
515.13	27852.38
515.33	28325.46
515.53	28556.88
515.74	28507.72
515.94	28511.82
516.15	28286.54
516.35	28513.87
516.56	28849.74
516.76	28147.28
516.96	28741.19
517.17	28642.89
517.37	28603.98
517.58	28485.20
517.78	28724.81
517.99	28737.10
518.19	28749.39
518.39	29384.26
518.60	29214.27
518.80	28999.24
519.01	29466.17
519.21	29132.36
519.41	29443.65
519.62	29036.10
519.82	29564.48
520.03	29374.02
520.23	29431.36
520.43	29365.82
520.64	29736.51
520.84	29902.39
521.05	29433.41
521.25	30021.17
521.45	30121.52
521.66	30111.28
521.86	29685.31
522.07	29654.59
522.27	30195.25
522.47	30092.85
522.68	30281.27
522.88	30074.42
523.08	30303.79
523.29	30498.35
523.49	30412.34
523.70	30496.30
523.90	30860.84
524.10	30565.93
524.31	30791.21
524.51	30262.83
524.71	30899.75
524.92	30711.34
525.12	30950.95
525.33	30920.23
525.53	31667.74
525.73	31723.04
525.94	31356.45
526.14	31569.44
526.34	31393.31
526.55	31577.63
526.75	31905.31
526.95	31686.17
527.16	31544.86
527.36	31600.16
527.56	31981.08
527.77	32257.56
527.97	32251.41
528.17	31870.49
528.38	32550.42
528.58	32298.52
528.78	32710.16
528.99	32208.40
529.19	32591.37
529.39	32415.25
529.60	32845.32
529.80	32681.49
530.00	32986.63
530.21	33080.84
530.41	32921.10
530.61	33426.95
530.82	33107.46
531.02	33025.54
531.22	33484.29
531.43	33246.72
531.63	33572.35
531.83	33764.86
532.04	34174.45
532.24	33412.61
532.44	33631.74
532.64	34172.41
532.85	34346.48
533.05	34041.34
533.25	34440.69
533.46	34307.57
533.66	34831.85
533.86	34604.53
534.07	34917.87
534.27	34557.42
534.47	34784.75
534.67	34946.54
534.88	34334.20
535.08	35059.18
535.28	35241.45
535.49	35669.47
535.69	35874.27
535.89	35689.95
536.09	35702.24
536.30	35646.94
536.50	35577.31
536.70	36183.51
536.91	35440.10
537.11	35958.24
537.31	35988.95
537.51	36021.72
537.72	36488.66
537.92	36718.03
538.12	36761.04
538.32	36136.41
538.53	36793.81
538.73	36687.31
538.93	36707.79
539.13	37019.08
539.34	37000.65
539.54	37000.65
539.74	37283.27
539.94	37191.11
540.15	37029.32
540.35	37520.84
540.55	37516.74
540.75	37836.22
540.96	37856.70
541.16	37625.28
541.36	38122.94
541.56	37891.52
541.77	38194.62
541.97	38423.99
542.17	38352.31
542.37	38512.05
542.58	38321.59
542.78	38061.50
542.98	38770.10
543.18	38862.26
543.38	39046.57
543.59	39048.62
543.79	38712.75
543.99	38679.99
544.19	39077.29
544.40	38813.10
544.60	39445.93
544.80	39257.51
545.00	39701.92
545.20	39589.28
545.41	39275.94
545.61	39769.51
545.81	39732.64
546.01	39679.39
546.21	39775.65
546.42	39925.15
546.62	40138.14
546.82	39978.40
547.02	39945.63
547.22	40244.63
547.43	40086.94
547.63	40168.86
547.83	40424.86
548.03	40398.23
548.23	40476.05
548.44	40730.00
548.64	41115.02
548.84	40377.75
549.04	40660.37
549.24	40746.39
549.45	40768.91
549.65	40813.97
549.85	41024.91
550.05	40951.18
550.25	41127.31
550.45	41645.44
550.66	40965.52
550.86	41665.92
551.06	41936.26
551.26	41776.51
551.46	41878.91
551.66	41762.18
551.87	41840.00
552.07	42005.89
552.27	41719.17
552.47	42022.27
552.67	42405.24
552.87	42292.60
553.07	42511.74
553.28	42329.47
553.48	42288.51
553.68	41950.59
553.88	42665.33
554.08	42769.78
554.28	42569.08
554.48	42397.05
554.69	42962.29
554.89	42956.14
555.09	42607.99
555.29	42618.23
555.49	43017.58
555.69	43351.40
555.89	43025.78
556.10	43353.45
556.30	43038.06
556.50	43373.93
556.70	42831.22
556.90	43552.10
557.10	43345.26
557.30	43152.75
557.50	43517.29
557.70	43904.35
557.91	43566.44
558.11	43474.28
558.31	44066.14
558.51	43787.62
558.71	44043.62
558.91	43918.69
559.11	43842.92
559.31	44006.75
559.51	43566.44
559.72	43830.63
559.92	44070.24
560.12	44033.38
560.32	44178.78
560.52	44254.56
560.72	44492.12
560.92	44477.79
561.12	44328.28
561.32	44492.12
561.52	44025.18
561.72	44389.72
561.93	44549.46
562.13	44422.49
562.33	44447.07
562.53	45145.42
562.73	44451.16
562.93	44723.54
563.13	44875.09
563.33	44531.03
563.53	44963.15
563.73	44553.56
563.93	44889.43
564.13	45634.89
564.33	44879.19
564.53	44735.83
564.74	44973.39
564.94	44850.52
565.14	45303.12
565.34	44791.12
565.54	45585.74
565.74	45147.47
565.94	45196.62
566.14	45008.21
566.34	44977.49
566.54	45647.18
566.74	45311.31
566.94	45417.80
567.14	45602.12
567.34	45428.04
567.54	45671.75
567.74	45538.63
567.94	45317.45
568.14	45661.51
568.34	45929.80
568.54	45643.08
568.74	46228.80
568.94	45557.06
569.14	46306.62
569.34	46048.58
569.54	46214.46
569.75	45598.02
569.95	45669.70
570.15	45823.30
570.35	46196.03
570.55	45915.46
570.75	46259.52
570.95	45725.00
571.15	46269.76
571.35	46200.13
571.55	46523.71
571.75	46179.65
571.95	46138.69
572.15	46210.37
572.35	46249.28
572.55	46275.90
572.75	46150.98
572.95	46312.77
573.15	46380.35
573.35	46486.84
573.55	46409.02
573.75	46521.66
573.95	46683.45
574.15	46691.64
574.35	46976.31
574.55	46404.92
574.75	46630.20
574.95	47050.03
575.15	46466.36
575.34	46748.98
575.54	47058.23
575.74	47117.62
575.94	47271.21
576.14	47031.60
576.34	47248.69
576.54	46937.40
576.74	47346.99
576.94	47007.03
577.14	47578.41
577.34	47326.51
577.54	47322.41
577.74	47342.89
577.94	47334.70
578.14	47545.64
578.34	47586.60
578.54	47138.10
578.74	47402.28
578.94	47867.17
579.14	47265.07
579.34	47342.89
579.54	47625.51
579.74	48106.79
579.94	47717.67
580.13	47717.67
580.33	47748.39
580.53	47519.02
580.73	47719.72
580.93	47674.66
581.13	47611.18
581.33	48114.98
581.53	48186.66
581.73	48461.08
581.93	48452.89
582.13	48303.39
582.33	48067.87
582.53	48272.67
582.73	48504.09
582.92	48418.08
583.12	48348.45
583.32	48291.10
583.52	48264.48
583.72	48610.59
583.92	48151.84
584.12	48520.48
584.32	48968.98
584.52	48164.13
584.72	48571.67
584.92	49132.82
585.11	49026.32
585.31	48358.69
585.51	48932.12
585.71	48360.73
585.91	49081.62
586.11	48764.18
586.31	48868.63
586.51	48831.77
586.71	48469.28
586.91	48936.21
587.10	49310.99
587.30	48979.22
587.50	49325.33
587.70	49300.75
587.90	49341.71
588.10	49220.88
588.30	49046.80
588.50	49626.38
