SpectraSuite Data File
++++++++++++++++++++++++++++++++++++
Date: Fri Jun 02 14:52:26 CEST 2017
User: INFO_000
Dark Spectrum Present: No
Reference Spectrum Present: No
Number of Sampled Component Spectra: 1
Spectrometers: USB4H00879
Integration Time (usec): 80000 (USB4H00879)
Spectra Averaged: 1 (USB4H00879)
Boxcar Smoothing: 0 (USB4H00879)
Correct for Electrical Dark: No (USB4H00879)
Strobe/Lamp Enabled: No (USB4H00879)
Correct for Detector Non-linearity: No (USB4H00879)
Correct for Stray Light: No (USB4H00879)
Number of Pixels in Processed Spectrum: 3648
>>>>>Begin Processed Spectral Data<<<<<
345.13	1320.94
345.34	1320.94
345.56	1320.94
345.78	1308.65
345.99	1239.02
346.21	1665.00
346.42	1708.01
346.64	1626.09
346.86	1734.63
347.07	1572.84
347.29	1699.81
347.50	1621.99
347.72	1667.05
347.94	1716.20
348.15	1593.32
348.37	1671.14
348.59	1701.86
348.80	1593.32
349.02	1853.41
349.23	1904.61
349.45	1802.21
349.67	1849.32
349.88	1798.12
350.10	1925.09
350.31	1847.27
350.53	1826.79
350.75	1974.24
350.96	1808.36
351.18	1888.23
351.39	1961.95
351.61	1816.55
351.82	1847.27
352.04	1957.86
352.26	1873.89
352.47	1974.24
352.69	1843.17
352.90	1847.27
353.12	1902.56
353.34	1894.37
353.55	2007.01
353.77	1830.88
353.98	1877.99
354.20	1863.65
354.41	1886.18
354.63	1939.43
354.85	1929.19
355.06	1898.47
355.28	1818.60
355.49	1939.43
355.71	1916.90
355.92	1798.12
356.14	2009.06
356.35	1920.99
356.57	1886.18
356.79	1949.67
357.00	1877.99
357.22	1988.58
357.43	1861.60
357.65	1955.81
357.86	1869.80
358.08	1957.86
358.29	1910.75
358.51	2035.68
358.72	2025.44
358.94	1951.71
359.16	1978.34
359.37	1920.99
359.59	2025.44
359.80	2072.54
360.02	1972.19
360.23	2050.02
360.45	1976.29
360.66	1974.24
360.88	1869.80
361.09	1951.71
361.31	2054.11
361.52	2015.20
361.74	2009.06
361.95	2054.11
362.17	1980.39
362.38	2078.69
362.60	2000.87
362.81	2031.58
363.03	1931.23
363.24	1984.48
363.46	2066.40
363.67	2093.02
363.89	2000.87
364.10	2023.39
364.32	1929.19
364.53	2050.02
364.75	1920.99
364.96	2052.06
365.18	1968.10
365.39	1976.29
365.61	2015.20
365.82	2138.08
366.04	2017.25
366.25	2027.49
366.47	2017.25
366.68	2125.79
366.90	2011.11
367.11	2156.51
367.33	2125.79
367.54	2064.35
367.76	1968.10
367.97	2138.08
368.19	2099.17
368.40	2105.31
368.62	1976.29
368.83	1943.52
369.05	2113.50
369.26	1968.10
369.48	1951.71
369.69	2025.44
369.91	2119.65
370.12	2095.07
370.33	2070.50
370.55	1964.00
370.76	2060.26
370.98	2142.18
371.19	2097.12
371.41	1953.76
371.62	2099.17
371.84	1959.91
372.05	2228.19
372.27	2084.83
372.48	2117.60
372.69	2082.78
372.91	2176.99
373.12	2140.13
373.34	2056.16
373.55	2113.50
373.77	2193.37
373.98	2072.54
374.20	2248.67
374.41	2285.53
374.62	2164.70
374.84	2156.51
375.05	2277.34
375.27	2162.66
375.48	2203.61
375.70	2156.51
375.91	2179.04
376.12	2238.43
376.34	2107.36
376.55	2164.70
376.77	2195.42
376.98	2187.23
377.19	2211.81
377.41	2191.33
377.62	2133.98
377.84	2248.67
378.05	2349.02
378.27	2183.13
378.48	2281.44
378.69	2437.08
378.91	2379.74
379.12	2170.85
379.34	2197.47
379.55	2324.44
379.76	2220.00
379.98	2222.05
380.19	2318.30
380.41	2252.77
380.62	2342.88
380.83	2238.43
381.05	2256.86
381.26	2410.46
381.47	2183.13
381.69	2308.06
381.90	2353.12
382.12	2256.86
382.33	2336.73
382.54	2318.30
382.76	2324.44
382.97	2314.20
383.19	2224.09
383.40	2422.75
383.61	2359.26
383.83	2324.44
384.04	2383.84
384.25	2389.98
384.47	2420.70
384.68	2404.32
384.89	2338.78
385.11	2289.63
385.32	2291.68
385.54	2422.75
385.75	2314.20
385.96	2443.23
386.18	2473.95
386.39	2332.64
386.60	2396.12
386.82	2449.37
387.03	2467.80
387.24	2443.23
387.46	2465.75
387.67	2510.81
387.88	2496.47
388.10	2426.84
388.31	2527.19
388.52	2650.07
388.74	2508.76
388.95	2541.53
389.16	2607.06
389.38	2568.15
389.59	2584.54
389.80	2678.74
390.02	2598.87
390.23	2594.78
390.44	2574.30
390.66	2559.96
390.87	2607.06
391.08	2611.16
391.30	2746.33
391.51	2748.37
391.72	2584.54
391.94	2723.80
392.15	2719.70
392.36	2650.07
392.58	2693.08
392.79	2807.77
393.00	2775.00
393.22	2799.57
393.43	2762.71
393.64	2842.58
393.85	2863.06
394.07	2670.55
394.28	2740.18
394.49	2826.20
394.71	2789.33
394.92	2852.82
395.13	2725.85
395.35	2748.37
395.56	2772.95
395.77	2867.16
395.98	2944.98
396.20	2959.31
396.41	2842.58
396.62	2877.40
396.84	2820.05
397.05	2897.88
397.26	2901.97
397.47	3002.32
397.69	2869.20
397.90	3110.86
398.11	2926.55
398.32	2883.54
398.54	2942.93
398.75	2963.41
398.96	2985.94
399.18	3172.30
399.39	3117.01
399.60	3131.34
399.81	2961.36
400.03	2981.84
400.24	3321.81
400.45	3022.80
400.66	3063.76
400.88	3045.33
401.09	3268.56
401.30	3037.14
401.51	3217.36
401.73	3274.70
401.94	3172.30
402.15	3241.93
402.36	3182.54
402.58	3248.08
402.79	3291.09
403.00	3198.93
403.21	3217.36
403.43	3233.74
403.64	3289.04
403.85	3229.65
404.06	3393.48
404.27	3088.34
404.49	3153.87
404.70	3258.32
404.91	3338.19
405.12	3385.29
405.34	3276.75
405.55	3489.74
405.76	3313.61
405.97	3383.24
406.19	3442.64
406.40	3297.23
406.61	3479.50
406.82	3336.14
407.03	3317.71
407.25	3344.33
407.46	3436.49
407.67	3430.35
407.88	3497.93
408.09	3356.62
408.31	3459.02
408.52	3450.83
408.73	3450.83
408.94	3420.11
409.15	3436.49
409.37	3579.85
409.58	3506.12
409.79	3594.19
410.00	3610.57
410.21	3553.23
410.43	3514.31
410.64	3463.12
410.85	3672.01
411.06	3594.19
411.27	3641.29
411.48	3665.86
411.70	3588.04
411.91	3510.22
412.12	3686.34
412.33	3653.58
412.54	3790.79
412.76	3725.26
412.97	3710.92
413.18	3477.45
413.39	3637.19
413.60	3786.69
413.81	3788.74
414.03	3766.21
414.24	3712.97
414.45	3807.17
414.66	3557.32
414.87	3899.33
415.08	3938.24
415.30	3747.78
415.51	3796.93
415.72	3700.68
415.93	3784.65
416.14	3796.93
416.35	3850.18
416.56	3946.44
416.78	3885.00
416.99	3958.72
417.20	3794.89
417.41	3864.52
417.62	3848.13
417.83	3962.82
418.04	3827.65
418.26	3934.15
418.47	3899.33
418.68	3950.53
418.89	3860.42
419.10	4198.34
419.31	4067.27
419.52	3987.40
419.73	4122.56
419.95	4067.27
420.16	3934.15
420.37	4083.65
420.58	4190.14
420.79	3925.96
421.00	4245.44
421.21	4081.60
421.42	4093.89
421.63	4100.03
421.85	4048.83
422.06	4157.38
422.27	4255.68
422.48	4126.66
422.69	4394.94
422.90	4165.57
423.11	4249.54
423.32	4270.01
423.53	4480.96
423.75	4276.16
423.96	4534.20
424.17	4429.76
424.38	4460.48
424.59	4519.87
424.80	4562.87
425.01	4495.29
425.22	4370.37
425.43	4493.24
425.64	4663.22
425.85	4622.27
426.06	4667.32
426.28	4587.45
426.49	4460.48
426.70	4620.22
426.91	4693.94
427.12	4671.42
427.33	4724.66
427.54	4753.34
427.75	4779.96
427.96	4951.99
428.17	4777.91
428.38	4896.69
428.59	5056.43
428.80	4829.11
429.01	4859.83
429.23	4921.27
429.44	5009.33
429.65	4945.84
429.86	5056.43
430.07	4949.94
430.28	4992.95
430.49	5101.49
430.70	5183.41
430.91	5138.35
431.12	5070.77
431.33	5240.75
431.54	5148.59
431.75	5267.38
431.96	5132.21
432.17	5263.28
432.38	5400.49
432.59	5361.58
432.80	5416.88
433.01	5298.10
433.22	5418.93
433.43	5492.65
433.64	5351.34
433.85	5451.69
434.06	5482.41
434.27	5273.52
434.49	5527.47
434.70	5621.67
434.91	5498.80
435.12	5595.05
435.33	5627.82
435.54	5672.87
435.75	5513.13
435.96	5689.26
436.17	5490.60
436.38	5822.38
436.59	5742.50
436.80	5576.62
437.01	5754.79
437.22	5926.82
437.43	5820.33
437.64	5726.12
437.85	5945.25
438.06	5945.25
438.27	5932.97
438.48	5726.12
438.69	5969.83
438.90	5894.05
439.11	5808.04
439.32	5994.40
439.53	6109.09
439.74	6053.80
439.95	6143.91
440.16	6006.69
440.37	6104.99
440.57	5945.25
440.78	6041.51
440.99	6205.35
441.20	6113.19
441.41	6037.41
441.62	6156.19
441.83	6082.47
442.04	6334.37
442.25	6213.54
442.46	6211.49
442.67	6334.37
442.88	6680.47
443.09	6195.11
443.30	6426.53
443.51	6385.57
443.72	6662.04
443.93	6301.60
444.14	6565.79
444.35	6346.66
444.56	6629.27
444.77	6567.84
444.98	6506.40
445.19	6762.39
445.40	6547.36
445.61	6586.27
445.81	6561.69
446.02	6694.81
446.23	6588.32
446.44	6582.17
446.65	6678.43
446.86	6727.58
447.07	6709.15
447.28	6817.69
447.49	6924.18
447.70	6766.49
447.91	6762.39
448.12	6915.99
448.33	6956.95
448.54	6977.43
448.74	6854.55
448.95	6971.29
449.16	6981.53
449.37	7284.62
449.58	6946.71
449.79	7104.40
450.00	6956.95
450.21	7221.14
450.42	7305.10
450.63	7171.99
450.84	7237.52
451.05	7249.81
451.25	7116.69
451.46	7092.12
451.67	7225.23
451.88	7397.26
452.09	7434.13
452.30	7155.60
452.51	7415.69
452.72	7397.26
452.93	7671.69
453.13	7434.13
453.34	7399.31
453.55	7507.85
453.76	7483.28
453.97	7878.54
454.18	7659.40
454.39	7630.73
454.60	7567.24
454.81	7581.58
455.01	7821.19
455.22	7507.85
455.43	7729.03
455.64	7962.50
455.85	7901.06
456.06	8136.58
456.27	7974.79
456.48	7772.04
456.68	7841.67
456.89	8046.47
457.10	8013.70
457.31	8130.44
457.52	7989.13
457.73	8314.75
457.94	8300.42
458.14	8071.04
458.35	8386.43
458.56	8253.31
458.77	8249.22
458.98	8284.03
459.19	8247.17
459.39	8322.94
459.60	8595.32
459.81	8281.99
460.02	8648.57
460.23	8566.65
460.44	8714.11
460.65	8691.58
460.85	8642.43
461.06	8900.47
461.27	8630.14
461.48	8947.58
461.69	8988.53
461.89	8664.96
462.10	8886.14
462.31	8755.07
462.52	8839.03
462.73	8949.62
462.94	9238.39
463.14	9398.13
463.35	9056.12
463.56	9697.13
463.77	9396.08
463.98	9258.87
464.18	9428.85
464.39	9553.77
464.60	9809.77
464.81	9379.70
465.02	9410.42
465.23	9629.55
465.43	9598.83
465.64	9852.78
465.85	9693.04
466.06	9699.18
466.27	10114.92
466.47	9908.07
466.68	10049.38
466.89	10084.20
467.10	10301.28
467.30	10051.43
467.51	10448.74
467.72	10407.78
467.93	10176.36
468.14	10297.19
468.34	10395.49
468.55	10559.33
468.76	10407.78
468.97	10248.04
469.17	10706.78
469.38	10778.46
469.59	10911.58
469.80	10741.60
470.01	10837.85
470.21	11036.50
470.42	10999.64
470.63	11138.90
470.84	11042.65
471.04	11241.30
471.25	11290.45
471.46	11169.62
471.67	11665.23
471.87	11505.49
472.08	11810.64
472.29	11845.45
472.50	11595.60
472.70	11667.28
472.91	11712.33
473.12	11992.90
473.33	12021.58
473.53	12037.96
473.74	11919.18
473.95	12328.77
474.16	12552.00
474.36	12480.32
474.57	12502.85
474.78	12758.85
474.99	12439.36
475.19	12726.08
475.40	12971.83
475.61	13244.21
475.81	13113.14
476.02	13444.91
476.23	13090.62
476.44	13354.80
476.64	13561.65
476.85	13788.97
477.06	13582.13
477.27	13762.35
477.47	13850.41
477.68	13813.55
477.89	14087.98
478.09	14239.53
478.30	14038.83
478.51	14178.09
478.71	14444.32
478.92	14501.67
479.13	14884.64
479.34	14774.05
479.54	14825.25
479.75	14776.09
479.96	15148.82
480.16	14780.19
480.37	15214.36
480.58	15331.09
480.78	15560.47
480.99	15466.26
481.20	15529.75
481.41	16017.16
481.61	16045.84
481.82	15882.00
482.03	15783.70
482.23	15779.60
482.44	16189.19
482.65	16381.70
482.85	16529.16
483.06	16412.42
483.27	16568.07
483.47	16617.22
483.68	16707.33
483.89	16965.37
484.09	17229.56
484.30	17016.57
484.51	17389.30
484.71	17282.81
484.92	17395.45
485.13	17458.93
485.33	17647.35
485.54	17825.52
485.75	18439.91
485.95	17985.26
486.16	18044.65
486.37	18247.40
486.57	18245.35
486.78	18306.79
486.98	18351.85
487.19	18458.34
487.40	18648.80
487.60	18603.75
487.81	19050.21
488.02	18716.39
488.22	19013.34
488.43	19164.89
488.64	19285.72
488.84	19347.16
489.05	19482.33
489.25	19156.70
489.46	19572.44
489.67	19674.84
489.87	19828.43
490.08	19850.96
490.29	19953.36
490.49	20383.43
490.70	20346.57
490.90	20608.71
491.11	20252.36
491.32	20729.54
491.52	20588.23
491.73	20502.22
491.94	20561.61
492.14	20770.50
492.35	20958.91
492.55	21223.10
492.76	21255.87
492.97	21436.09
493.17	21407.42
493.38	21481.14
493.58	21759.67
493.79	21466.81
494.00	21597.88
494.20	21849.78
494.41	21937.84
494.61	22372.01
494.82	22197.93
495.02	22101.68
495.23	22249.13
495.44	22228.65
495.64	22335.15
495.85	22681.25
496.05	22580.90
496.26	22603.43
496.47	23086.75
496.67	22554.28
496.88	23367.32
497.08	22779.56
497.29	23277.21
497.49	22982.31
497.70	23447.19
497.91	23092.90
498.11	23375.52
498.32	23389.85
498.52	23688.85
498.73	24082.06
498.93	23406.23
499.14	23926.42
499.34	23987.86
499.55	23942.80
499.76	24014.48
499.96	23940.75
500.17	24247.95
500.37	24030.87
500.58	24290.96
500.78	23940.75
500.99	24342.16
501.19	24575.62
501.40	24264.33
501.60	24419.98
501.81	24637.06
502.02	24710.79
502.22	24632.97
502.43	24888.96
502.63	24977.03
502.84	25007.75
503.04	25054.85
503.25	25259.65
503.45	25097.86
503.66	25060.99
503.86	25241.21
504.07	25386.62
504.27	25511.55
504.48	25497.21
504.68	25192.06
504.89	25783.93
505.09	25456.25
505.30	25241.21
505.50	25632.38
505.71	25833.08
505.91	25925.24
506.12	25540.22
506.32	25699.96
506.53	25863.80
506.73	26130.03
506.94	26103.41
507.14	26197.62
507.35	26375.79
507.55	25923.19
507.76	26211.95
507.96	26160.75
508.17	26455.66
508.37	26238.58
508.58	26367.60
508.78	26584.68
508.99	26779.24
509.19	26666.60
509.40	26410.60
509.60	26513.00
509.81	26918.50
510.01	26713.70
510.22	26590.83
510.42	26785.38
510.63	27076.19
510.83	27037.28
511.04	27108.96
511.24	26883.69
511.44	27022.95
511.65	27211.36
511.85	26879.59
512.06	27295.33
512.26	27539.04
512.47	27827.80
512.67	27217.50
512.88	27471.45
513.08	27344.48
513.29	27455.07
513.49	27362.91
513.69	27514.46
513.90	27489.88
514.10	27772.50
514.31	27518.56
514.51	27960.92
514.72	27856.47
514.92	27835.99
515.13	27842.14
515.33	27879.00
515.53	27956.82
515.74	28147.28
515.94	28053.08
516.15	28012.12
516.35	27608.67
516.56	28114.52
516.76	28063.32
516.96	28122.71
517.17	28347.98
517.37	28278.35
517.58	28153.43
517.78	28243.54
517.99	28167.76
518.19	28685.90
518.39	28866.12
518.60	28786.25
518.80	28784.20
519.01	28585.55
519.21	28720.71
519.41	28610.12
519.62	28909.13
519.82	29134.40
520.03	29062.72
520.23	28945.99
520.43	28954.18
520.64	29263.43
520.84	29550.14
521.05	29263.43
521.25	29517.37
521.45	29445.69
521.66	29449.79
521.86	29683.26
522.07	29892.15
522.27	29894.20
522.47	29597.24
522.68	30103.09
522.88	29472.32
523.08	30248.50
523.29	30131.76
523.49	30408.24
523.70	30082.61
523.90	30479.92
524.10	30422.58
524.31	30481.97
524.51	30248.50
524.71	30725.68
524.92	30987.82
525.12	30434.86
525.33	30592.56
525.53	30918.18
525.73	31368.74
525.94	31151.65
526.14	30899.75
526.34	31260.20
526.55	31202.85
526.75	31274.53
526.95	31428.13
527.16	30985.77
527.36	31594.01
527.56	31561.25
527.77	31895.07
527.97	32177.68
528.17	31770.14
528.38	31976.98
528.58	32073.24
528.78	32220.69
528.99	32181.78
529.19	32804.36
529.39	31952.41
529.60	32886.28
529.80	32368.15
530.00	32437.78
530.21	32775.69
530.41	32861.71
530.61	33111.56
530.82	33035.78
531.02	33021.45
531.22	33218.05
531.43	33549.82
531.63	33441.28
531.83	33879.55
532.04	34002.43
532.24	34090.49
532.44	33646.08
532.64	34399.73
532.85	34039.29
533.05	34141.69
533.25	34422.26
533.46	34287.09
533.66	34242.04
533.86	34383.35
534.07	34846.19
534.27	34682.35
534.47	34661.87
534.67	34928.11
534.88	34799.08
535.08	35306.98
535.28	35309.03
535.49	35380.71
535.69	35374.56
535.89	35626.46
536.09	35747.29
536.30	36189.66
536.50	36038.11
536.70	35993.05
536.91	35833.31
537.11	36496.85
537.31	36404.69
537.51	36163.03
537.72	36623.83
537.92	36292.05
538.12	36992.46
538.32	36828.62
538.53	37178.82
538.73	36832.72
538.93	37148.11
539.13	37371.33
539.34	37309.89
539.54	37201.35
539.74	37643.71
539.94	37576.13
540.15	37412.29
540.35	38020.54
540.55	37854.65
540.75	38249.91
540.96	38004.16
541.16	38051.26
541.36	38249.91
541.56	38163.90
541.77	38495.67
541.97	38256.06
542.17	38475.19
542.37	38307.26
542.58	38589.88
542.78	38876.59
542.98	38718.90
543.18	39126.44
543.38	39308.71
543.59	39396.77
543.79	39333.29
543.99	39306.66
544.19	39445.93
544.40	39118.25
544.60	39730.59
544.80	39959.97
545.00	39390.63
545.20	40011.17
545.41	39892.38
545.61	39929.25
545.81	39986.59
546.01	40162.72
546.21	40316.31
546.42	40261.02
546.62	40172.96
546.82	40488.34
547.02	40381.85
547.22	40648.08
547.43	40469.91
547.63	40852.88
547.83	41375.11
548.03	40756.63
548.23	40693.14
548.44	40928.66
548.64	41317.77
548.84	41190.80
549.04	41168.27
549.24	41241.99
549.45	41475.46
549.65	41661.83
549.85	41837.95
550.05	41876.86
550.25	41721.22
550.45	42280.31
550.66	41952.64
550.86	41796.99
551.06	42222.97
551.26	42333.56
551.46	42163.58
551.66	42319.23
551.87	42446.20
552.07	42132.86
552.27	42358.14
552.47	42784.12
552.67	42634.61
552.87	42986.86
553.07	43064.69
553.28	42630.52
553.48	43117.93
553.68	43085.17
553.88	43122.03
554.08	42982.77
554.28	43203.95
554.48	42839.41
554.69	43189.61
554.89	43543.91
555.09	43169.13
555.29	42972.53
555.49	43388.27
555.69	43529.58
555.89	43343.21
556.10	43638.12
556.30	43474.28
556.50	43730.28
556.70	43289.96
556.90	43945.31
557.10	43795.81
557.30	43486.57
557.50	44012.90
557.70	44078.43
557.91	44287.32
558.11	43916.64
558.31	44090.72
558.51	44291.42
558.71	44354.91
558.91	44809.56
559.11	44287.32
559.31	44352.86
559.51	44242.27
559.72	44635.48
559.92	44496.22
560.12	44176.73
560.32	44834.13
560.52	44238.17
560.72	44705.11
560.92	45030.74
561.12	44703.06
561.32	44813.65
561.52	44666.20
561.72	45499.72
561.93	45016.40
562.13	45022.54
562.33	44701.01
562.53	45847.88
562.73	44651.86
562.93	45352.27
563.13	45323.60
563.33	45256.01
563.53	45270.35
563.73	45028.69
563.93	45528.39
564.13	45464.91
564.33	45681.99
564.53	45579.59
564.74	45669.70
564.94	45675.85
565.14	45751.62
565.34	45182.29
565.54	45405.52
565.74	45659.46
565.94	45923.65
566.14	45507.91
566.34	45380.94
566.54	46013.76
566.74	45579.59
566.94	46095.68
567.14	45854.02
567.34	45708.61
567.54	46267.71
567.74	45942.08
567.94	46138.69
568.14	46398.78
568.34	46454.08
568.54	46030.15
568.74	46284.09
568.94	46167.36
569.14	46161.22
569.34	46380.35
569.54	46417.21
569.75	45897.03
569.95	46372.16
570.15	46327.10
570.35	46439.74
570.55	46406.97
570.75	46427.45
570.95	46607.67
571.15	46521.66
571.35	46402.88
571.55	46609.72
571.75	46710.07
571.95	46718.26
572.15	46478.65
572.35	46824.76
572.55	47023.41
572.75	46581.05
572.95	46777.65
573.15	47101.23
573.35	46517.56
573.55	46763.32
573.75	46912.82
573.95	46912.82
574.15	46531.90
574.35	47246.64
574.55	46880.05
574.75	46658.87
574.95	47052.08
575.15	46955.83
575.34	47004.98
575.54	47324.46
575.74	47097.14
575.94	47510.83
576.14	47134.00
576.34	47488.30
576.54	47770.92
576.74	47453.48
576.94	47007.03
577.14	47619.37
577.34	47729.96
577.54	47562.03
577.74	47306.03
577.94	47547.69
578.14	47895.85
578.34	47779.11
578.54	47207.73
578.74	47871.27
578.94	47891.75
579.14	47949.09
579.34	47901.99
579.54	47901.99
579.74	47875.37
579.94	47994.15
580.13	47889.70
580.33	47854.89
580.53	47846.69
580.73	48239.90
580.93	48016.68
581.13	47985.96
581.33	48280.86
581.53	48395.55
581.73	48389.41
581.93	48590.11
582.13	48250.14
582.33	48098.59
582.53	48428.32
582.73	48391.45
582.92	48315.68
583.12	48520.48
583.32	48854.29
583.52	48211.23
583.72	48667.93
583.92	48481.56
584.12	48334.11
584.32	49028.37
584.52	48502.04
584.72	48837.91
584.92	49075.48
585.11	49351.95
585.31	48796.95
585.51	48934.17
585.71	48811.29
585.91	49378.57
586.11	48817.43
586.31	48575.77
586.51	49087.76
586.71	48942.36
586.91	49493.26
587.10	48842.01
587.30	48919.83
587.50	48919.83
587.70	49376.53
587.90	49358.09
588.10	49493.26
588.30	49218.83
588.50	49302.80
