SpectraSuite Data File
++++++++++++++++++++++++++++++++++++
Date: Fri Jun 02 14:52:25 CEST 2017
User: INFO_000
Dark Spectrum Present: No
Reference Spectrum Present: No
Number of Sampled Component Spectra: 1
Spectrometers: USB4H00879
Integration Time (usec): 80000 (USB4H00879)
Spectra Averaged: 1 (USB4H00879)
Boxcar Smoothing: 0 (USB4H00879)
Correct for Electrical Dark: No (USB4H00879)
Strobe/Lamp Enabled: No (USB4H00879)
Correct for Detector Non-linearity: No (USB4H00879)
Correct for Stray Light: No (USB4H00879)
Number of Pixels in Processed Spectrum: 3648
>>>>>Begin Processed Spectral Data<<<<<
345.13	1284.08
345.34	1284.08
345.56	1284.08
345.78	1230.83
345.99	1298.41
346.21	1730.53
346.42	1683.43
346.64	1634.28
346.86	1757.16
347.07	1669.09
347.29	1720.29
347.50	1603.56
347.72	1656.81
347.94	1779.68
348.15	1597.42
348.37	1572.84
348.59	1722.34
348.80	1626.09
349.02	1765.35
349.23	1853.41
349.45	1845.22
349.67	1877.99
349.88	1744.87
350.10	1994.72
350.31	1916.90
350.53	1800.16
350.75	1943.52
350.96	1806.31
351.18	1830.88
351.39	1814.50
351.61	1820.64
351.82	1912.80
352.04	1869.80
352.26	1863.65
352.47	1904.61
352.69	1890.28
352.90	1761.25
353.12	1828.84
353.34	1822.69
353.55	1949.67
353.77	1882.08
353.98	1933.28
354.20	1804.26
354.41	1890.28
354.63	1941.47
354.85	2002.91
355.06	1853.41
355.28	1806.31
355.49	1912.80
355.71	1955.81
355.92	1832.93
356.14	1980.39
356.35	1912.80
356.57	1841.12
356.79	1953.76
357.00	1869.80
357.22	1906.66
357.43	1867.75
357.65	1964.00
357.86	1849.32
358.08	1931.23
358.29	1908.71
358.51	2050.02
358.72	2004.96
358.94	1974.24
359.16	1875.94
359.37	1916.90
359.59	2019.30
359.80	1953.76
360.02	1990.63
360.23	1970.15
360.45	2037.73
360.66	1957.86
360.88	1875.94
361.09	1943.52
361.31	1957.86
361.52	1968.10
361.74	2029.54
361.95	2090.98
362.17	2027.49
362.38	2093.02
362.60	2033.63
362.81	2088.93
363.03	1920.99
363.24	2025.44
363.46	2148.32
363.67	1994.72
363.89	1992.67
364.10	2076.64
364.32	1947.62
364.53	2113.50
364.75	1916.90
364.96	2088.93
365.18	2064.35
365.39	2045.92
365.61	1941.47
365.82	2064.35
366.04	2056.16
366.25	1941.47
366.47	2125.79
366.68	2062.30
366.90	1935.33
367.11	2039.78
367.33	2088.93
367.54	2129.89
367.76	1996.77
367.97	2140.13
368.19	2088.93
368.40	2068.45
368.62	1998.82
368.83	2031.58
369.05	2023.39
369.26	2043.87
369.48	2000.87
369.69	1972.19
369.91	2060.26
370.12	2070.50
370.33	2074.59
370.55	1929.19
370.76	2009.06
370.98	2117.60
371.19	2090.98
371.41	2047.97
371.62	2076.64
371.84	2035.68
372.05	2160.61
372.27	2084.83
372.48	2142.18
372.69	2072.54
372.91	2166.75
373.12	2181.09
373.34	2082.78
373.55	2129.89
373.77	2162.66
373.98	2148.32
374.20	2148.32
374.41	2271.20
374.62	2187.23
374.84	2246.62
375.05	2176.99
375.27	2150.37
375.48	2158.56
375.70	2170.85
375.91	2252.77
376.12	2301.92
376.34	2179.04
376.55	2232.29
376.77	2265.05
376.98	2146.27
377.19	2183.13
377.41	2131.94
377.62	2297.82
377.84	2234.33
378.05	2310.11
378.27	2199.52
378.48	2330.59
378.69	2365.40
378.91	2254.81
379.12	2271.20
379.34	2289.63
379.55	2230.24
379.76	2295.77
379.98	2246.62
380.19	2217.95
380.41	2318.30
380.62	2330.59
380.83	2232.29
381.05	2193.37
381.26	2402.27
381.47	2299.87
381.69	2246.62
381.90	2373.60
382.12	2367.45
382.33	2336.73
382.54	2297.82
382.76	2289.63
382.97	2324.44
383.19	2279.39
383.40	2428.89
383.61	2336.73
383.83	2314.20
384.04	2318.30
384.25	2432.99
384.47	2416.60
384.68	2428.89
384.89	2273.25
385.11	2363.36
385.32	2371.55
385.54	2355.16
385.75	2361.31
385.96	2453.47
386.18	2424.80
386.39	2465.75
386.60	2410.46
386.82	2426.84
387.03	2351.07
387.24	2521.05
387.46	2602.97
387.67	2568.15
387.88	2607.06
388.10	2502.62
388.31	2576.34
388.52	2672.60
388.74	2510.81
388.95	2459.61
389.16	2539.48
389.38	2551.77
389.59	2721.75
389.80	2648.02
390.02	2562.01
390.23	2623.45
390.44	2574.30
390.66	2650.07
390.87	2586.58
391.08	2678.74
391.30	2756.57
391.51	2688.98
391.72	2707.41
391.94	2711.51
392.15	2656.22
392.36	2637.78
392.58	2598.87
392.79	2691.03
393.00	2617.30
393.22	2818.00
393.43	2863.06
393.64	2822.10
393.85	2805.72
394.07	2727.89
394.28	2752.47
394.49	2799.57
394.71	2772.95
394.92	2871.25
395.13	2766.81
395.35	2656.22
395.56	2793.43
395.77	2707.41
395.98	2760.66
396.20	2879.44
396.41	2863.06
396.62	2936.79
396.84	2852.82
397.05	2850.77
397.26	2977.75
397.47	2861.01
397.69	2924.50
397.90	3057.62
398.11	2906.07
398.32	2973.65
398.54	2881.49
398.75	2908.12
398.96	2926.55
399.18	3100.62
399.39	2957.27
399.60	3035.09
399.81	3006.42
400.03	3030.99
400.24	3286.99
400.45	2957.27
400.66	3106.77
400.88	3057.62
401.09	3219.41
401.30	3080.14
401.51	3237.84
401.73	3098.58
401.94	3223.50
402.15	3145.68
402.36	3186.64
402.58	3172.30
402.79	3211.22
403.00	3192.78
403.21	3289.04
403.43	3182.54
403.64	3182.54
403.85	3157.97
404.06	3250.13
404.27	3160.02
404.49	3235.79
404.70	3200.98
404.91	3301.33
405.12	3219.41
405.34	3203.02
405.55	3430.35
405.76	3289.04
405.97	3227.60
406.19	3446.73
406.40	3332.05
406.61	3377.10
406.82	3483.59
407.03	3336.14
407.25	3186.64
407.46	3432.40
407.67	3344.33
407.88	3483.59
408.09	3313.61
408.31	3325.90
408.52	3403.72
408.73	3315.66
408.94	3348.43
409.15	3368.91
409.37	3424.20
409.58	3499.98
409.79	3495.88
410.00	3637.19
410.21	3508.17
410.43	3430.35
410.64	3518.41
410.85	3567.56
411.06	3610.57
411.27	3477.45
411.48	3641.29
411.70	3682.25
411.91	3596.23
412.12	3706.82
412.33	3655.62
412.54	3639.24
412.76	3731.40
412.97	3665.86
413.18	3561.42
413.39	3565.51
413.60	3760.07
413.81	3731.40
414.03	3637.19
414.24	3710.92
414.45	3856.33
414.66	3612.62
414.87	3780.55
415.08	3801.03
415.30	3739.59
415.51	3776.45
415.72	3712.97
415.93	3780.55
416.14	3874.76
416.35	3917.76
416.56	3975.11
416.78	3854.28
416.99	3899.33
417.20	3909.57
417.41	4028.35
417.62	4001.73
417.83	4077.51
418.04	3899.33
418.26	3971.01
418.47	4130.75
418.68	3995.59
418.89	4030.40
419.10	4079.55
419.31	3983.30
419.52	4067.27
419.73	4132.80
419.95	4122.56
420.16	3968.96
420.37	3987.40
420.58	4122.56
420.79	4022.21
421.00	4126.66
421.21	4249.54
421.42	4143.04
421.63	4218.82
421.85	4165.57
422.06	4370.37
422.27	4284.35
422.48	4284.35
422.69	4313.02
422.90	4290.49
423.11	4384.70
423.32	4483.00
423.53	4505.53
423.75	4431.80
423.96	4540.35
424.17	4382.65
424.38	4599.74
424.59	4530.11
424.80	4745.14
425.01	4523.96
425.22	4599.74
425.43	4530.11
425.64	4724.66
425.85	4679.61
426.06	4718.52
426.28	4718.52
426.49	4706.23
426.70	4558.78
426.91	4640.70
427.12	4841.40
427.33	4759.48
427.54	4757.43
427.75	4845.49
427.96	4941.75
428.17	4829.11
428.38	4923.32
428.59	4956.08
428.80	4845.49
429.01	5035.96
429.23	4933.56
429.44	5173.17
429.65	5089.20
429.86	5107.63
430.07	4925.36
430.28	5017.52
430.49	5029.81
430.70	5234.61
430.91	5201.84
431.12	5060.53
431.33	5298.10
431.54	5248.94
431.75	5218.22
431.96	5220.27
432.17	5187.50
432.38	5314.48
432.59	5435.31
432.80	5377.97
433.01	5466.03
433.22	5451.69
433.43	5375.92
433.64	5357.49
433.85	5431.21
434.06	5631.91
434.27	5470.12
434.49	5529.52
434.70	5601.19
434.91	5550.00
435.12	5568.43
435.33	5676.97
435.54	5519.28
435.75	5431.21
435.96	5554.09
436.17	5478.32
436.38	5719.98
436.59	5588.91
436.80	5597.10
437.01	5900.20
437.22	5771.18
437.43	5713.83
437.64	5533.61
437.85	5826.47
438.06	5830.57
438.27	5726.12
438.48	5679.02
438.69	5810.09
438.90	5838.76
439.11	5713.83
439.32	6041.51
439.53	5793.70
439.74	5949.35
439.95	6000.55
440.16	5955.49
440.37	6053.80
440.57	5978.02
440.78	6172.58
440.99	6084.52
441.20	5943.21
441.41	5990.31
441.62	5992.36
441.83	5961.64
442.04	6227.87
442.25	6125.47
442.46	6031.27
442.67	6027.17
442.88	6582.17
443.09	6129.57
443.30	6225.82
443.51	6219.68
443.72	6430.62
443.93	6184.87
444.14	6412.19
444.35	6289.31
444.56	6422.43
444.77	6227.87
444.98	6330.27
445.19	6360.99
445.40	6582.17
445.61	6475.68
445.81	6541.21
446.02	6559.64
446.23	6561.69
446.44	6338.46
446.65	6543.26
446.86	6483.87
447.07	6623.13
447.28	6731.67
447.49	6834.07
447.70	6614.94
447.91	6784.92
448.12	6647.71
448.33	6791.06
448.54	6803.35
448.74	6666.14
448.95	6606.75
449.16	6827.93
449.37	6959.00
449.58	6911.89
449.79	6997.91
450.00	6848.41
450.21	6795.16
450.42	7217.04
450.63	6967.19
450.84	6924.18
451.05	7102.36
451.25	7065.49
451.46	6971.29
451.67	7184.27
451.88	7258.00
452.09	7301.01
452.30	7171.99
452.51	7143.32
452.72	7405.46
452.93	7509.90
453.13	7161.75
453.34	7274.38
453.55	7366.54
453.76	7258.00
453.97	7577.48
454.18	7495.57
454.39	7618.44
454.60	7495.57
454.81	7514.00
455.01	7763.85
455.22	7479.18
455.43	7692.17
455.64	8046.47
455.85	7987.08
456.06	8120.20
456.27	7956.36
456.48	8003.46
456.68	7888.78
456.89	8091.52
457.10	8220.55
457.31	8013.70
457.52	8081.28
457.73	8329.09
457.94	8470.40
458.14	8001.41
458.35	8492.93
458.56	8419.20
458.77	8251.27
458.98	8480.64
459.19	8368.00
459.39	8515.45
459.60	8673.15
459.81	8474.49
460.02	8851.32
460.23	8580.99
460.44	9047.93
460.65	8761.21
460.85	9017.21
461.06	8879.99
461.27	8851.32
461.48	9066.36
461.69	9320.31
461.89	8904.57
462.10	9127.80
462.31	8988.53
462.52	8974.20
462.73	8976.25
462.94	9410.42
463.14	9467.76
463.35	9447.28
463.56	9662.32
463.77	9463.66
463.98	9297.78
464.18	9420.66
464.39	9641.84
464.60	9664.36
464.81	9889.64
465.02	9672.56
465.23	10143.59
465.43	9985.90
465.64	10217.32
465.85	9932.65
466.06	9924.46
466.27	10323.81
466.47	10291.04
466.68	10299.23
466.89	10119.01
467.10	10481.50
467.30	10422.11
467.51	10594.14
467.72	10825.56
467.93	10245.99
468.14	10798.94
468.34	10684.25
468.55	10977.11
468.76	10858.33
468.97	10684.25
469.17	10915.67
469.38	11034.46
469.59	11282.26
469.80	10958.68
470.01	11192.15
470.21	11089.75
470.42	11464.53
470.63	11544.40
470.84	11415.38
471.04	11550.54
471.25	11511.63
471.46	11640.65
471.67	12003.14
471.87	11863.88
472.08	11880.27
472.29	12189.51
472.50	11976.52
472.70	12017.48
472.91	12250.95
473.12	12302.15
473.33	12345.16
473.53	12529.47
473.74	12496.71
473.95	12719.93
474.16	12689.21
474.36	12439.36
474.57	12869.44
474.78	13178.68
474.99	12824.38
475.19	12988.22
475.40	13418.29
475.61	13340.47
475.81	13555.51
476.02	13678.38
476.23	13666.10
476.44	13745.97
476.64	13918.00
476.85	13889.32
477.06	13872.94
477.27	13911.85
477.47	14249.77
477.68	14163.75
477.89	14452.52
478.09	14292.77
478.30	14382.88
478.51	14376.74
478.71	14724.90
478.92	14939.93
479.13	14976.80
479.34	15183.64
479.54	14954.27
479.75	15046.43
479.96	15081.24
480.16	15148.82
480.37	15707.92
480.58	15435.54
480.78	15705.87
480.99	15636.24
481.20	15644.43
481.41	15757.07
481.61	15781.65
481.82	16248.58
482.03	16039.69
482.23	16094.99
482.44	16400.13
482.65	16465.67
482.85	16494.34
483.06	16826.11
483.27	16736.00
483.47	16705.28
483.68	16660.23
483.89	16729.86
484.09	16860.93
484.30	16865.02
484.51	17147.64
484.71	17282.81
484.92	17155.83
485.13	17450.74
485.33	17440.50
485.54	17440.50
485.75	17669.87
485.95	17983.21
486.16	17997.55
486.37	17913.58
486.57	17942.25
486.78	17878.77
486.98	18263.79
487.19	18255.59
487.40	18603.75
487.60	18214.63
487.81	18646.76
488.02	18431.72
488.22	18431.72
488.43	18702.05
488.64	19035.87
488.84	18775.78
489.05	19017.44
489.25	19068.64
489.46	19441.37
489.67	19347.16
489.87	19488.47
490.08	19424.98
490.29	19498.71
490.49	19736.27
490.70	19812.05
490.90	20088.53
491.11	20113.10
491.32	19805.91
491.52	19850.96
491.73	20012.75
491.94	20303.56
492.14	20113.10
492.35	20629.19
492.55	20600.52
492.76	20588.23
492.97	20786.88
493.17	20690.63
493.38	20934.34
493.58	21106.37
493.79	21032.64
494.00	21176.00
494.20	21188.28
494.41	21219.00
494.61	21325.50
494.82	21307.07
495.02	21280.44
495.23	21372.60
495.44	21462.71
495.64	21857.97
495.85	21737.14
496.05	21909.17
496.26	21675.70
496.47	22240.94
496.67	21923.51
496.88	22191.79
497.08	21698.23
497.29	22617.77
497.49	22257.32
497.70	22417.07
497.91	22392.49
498.11	22464.17
498.32	22593.19
498.52	22861.48
498.73	23013.02
498.93	22922.91
499.14	22992.55
499.34	23223.97
499.55	23137.95
499.76	23002.78
499.96	23168.67
500.17	23275.16
500.37	23250.59
500.58	23275.16
500.78	23426.71
500.99	23553.69
501.19	23754.39
501.40	23969.43
501.60	23576.22
501.81	23656.09
502.02	23740.05
502.22	23936.66
502.43	24120.98
502.63	24108.69
502.84	24356.49
503.04	23971.47
503.25	23985.81
503.45	24258.19
503.66	24233.61
503.86	24628.87
504.07	24856.20
504.27	24495.75
504.48	24938.12
504.68	25024.13
504.89	24946.31
505.09	25155.20
505.30	24938.12
505.50	24884.87
505.71	24917.64
505.91	25257.60
506.12	25267.84
506.32	25558.65
506.53	25304.70
506.73	25269.89
506.94	25452.16
507.14	25757.30
507.35	25820.79
507.55	25636.47
507.76	25673.34
507.96	25785.97
508.17	25796.21
508.37	25988.72
508.58	25976.44
508.78	26007.16
508.99	26236.53
509.19	25917.04
509.40	26334.83
509.60	26326.64
509.81	26037.87
510.01	26285.68
510.22	26259.06
510.42	26627.69
510.63	26566.25
510.83	26556.01
511.04	26728.04
511.24	26789.48
511.44	26703.46
511.65	26859.11
511.85	26730.09
512.06	26793.58
512.26	27207.26
512.47	27108.96
512.67	27334.24
512.88	27022.95
513.08	26920.55
513.29	27299.42
513.49	27407.97
513.69	27307.62
513.90	27635.29
514.10	27545.18
514.31	27612.76
514.51	27420.25
514.72	27442.78
514.92	27676.25
515.13	27594.33
515.33	27932.25
515.53	28286.54
515.74	27870.81
515.94	28214.87
516.15	28169.81
516.35	27838.04
516.56	28491.34
516.76	27995.73
516.96	28087.89
517.17	28704.33
517.37	28696.14
517.58	28458.57
517.78	28808.78
517.99	28886.60
518.19	28945.99
518.39	29017.67
518.60	29132.36
518.80	28986.95
519.01	29382.21
519.21	29326.91
519.41	29255.23
519.62	29253.19
519.82	29638.20
520.03	29687.36
520.23	29468.22
520.43	29572.67
520.64	30142.00
520.84	29722.17
521.05	29769.27
521.25	30006.84
521.45	30254.64
521.66	30131.76
521.86	29994.55
522.07	30307.89
522.27	30373.42
522.47	30680.62
522.68	30557.74
522.88	30522.93
523.08	30895.66
523.29	30869.03
523.49	30959.14
523.70	31374.88
523.90	31165.99
524.10	31245.86
524.31	31104.55
524.51	30846.51
524.71	31598.11
524.92	31491.62
525.12	31608.35
525.33	31673.88
525.53	31954.46
525.73	32003.61
525.94	32065.05
526.14	32077.33
526.34	32126.49
526.55	32284.18
526.75	32513.55
526.95	32531.98
527.16	32792.08
527.36	32464.40
527.56	32671.25
527.77	33134.09
527.97	32988.68
528.17	32878.09
528.38	33099.27
528.58	33314.31
528.78	33275.40
528.99	33646.08
529.19	33623.55
529.39	33451.52
529.60	33895.93
529.80	33502.72
530.00	33902.07
530.21	33865.21
530.41	34190.84
530.61	34047.48
530.82	34342.39
531.02	33746.43
531.22	34381.30
531.43	34559.47
531.63	34756.08
531.83	34928.11
532.04	35180.01
532.24	34713.07
532.44	35124.71
532.64	35589.60
532.85	35321.32
533.05	35468.77
533.25	35440.10
533.46	35249.64
533.66	35831.26
533.86	35902.94
534.07	36179.42
534.27	36066.78
534.47	36324.82
534.67	36623.83
534.88	35935.71
535.08	36124.12
535.28	36363.73
535.49	36167.13
535.69	36820.43
535.89	36756.94
536.09	36988.36
536.30	37383.62
536.50	37412.29
536.70	36896.20
536.91	37119.43
537.11	37502.40
537.31	37465.54
537.51	37576.13
537.72	37475.78
537.92	37641.67
538.12	38004.16
538.32	37625.28
538.53	38090.17
538.73	37737.92
538.93	37950.91
539.13	38540.72
539.34	38096.31
539.54	38159.80
539.74	38550.96
539.94	38360.50
540.15	38434.23
540.35	38694.32
540.55	38686.13
540.75	38825.39
540.96	38950.32
541.16	38741.42
541.36	39216.55
541.56	38903.21
541.77	39466.41
541.97	39060.91
542.17	39529.89
542.37	39546.28
542.58	39210.41
542.78	39382.44
542.98	39531.94
543.18	39560.61
543.38	40074.65
543.59	39927.20
543.79	39728.55
543.99	39605.67
544.19	39630.24
544.40	39667.11
544.60	40252.83
544.80	40426.90
545.00	39826.85
545.20	40484.25
545.41	40334.74
545.61	40355.22
545.81	40623.51
546.01	40646.04
546.21	40465.81
546.42	40881.55
546.62	40738.19
546.82	40537.49
547.02	40818.07
547.22	40947.09
547.43	40981.90
547.63	40998.29
547.83	41119.12
548.03	40818.07
548.23	41461.13
548.44	41119.12
548.64	41155.98
548.84	41432.46
549.04	41149.84
549.24	41432.46
549.45	41786.75
549.65	41313.67
549.85	41444.74
550.05	41723.27
550.25	41588.10
550.45	42079.61
550.66	41932.16
550.86	41309.58
551.06	41911.68
551.26	41993.60
551.46	41581.96
551.66	41735.56
551.87	42098.05
552.07	42026.37
552.27	41948.54
552.47	42149.24
552.67	41868.67
552.87	42562.93
553.07	42329.47
553.28	42519.93
553.48	42200.44
553.68	42233.21
553.88	43046.26
554.08	42567.03
554.28	42366.33
554.48	42192.25
554.69	42833.27
554.89	42696.05
555.09	42415.48
555.29	42882.42
555.49	42409.34
555.69	42857.84
555.89	42607.99
556.10	43085.17
556.30	42526.07
556.50	42802.55
556.70	42687.86
556.90	43472.23
557.10	42837.36
557.30	42730.87
557.50	43087.21
557.70	42990.96
557.91	43621.73
558.11	43222.38
558.31	43169.13
558.51	43025.78
558.71	43130.22
558.91	43347.31
559.11	43187.56
559.31	43144.56
559.51	42988.91
559.72	43015.54
559.92	43296.11
560.12	42988.91
560.32	43595.11
560.52	43406.70
560.72	43335.02
560.92	43851.11
561.12	43629.93
561.32	43900.26
561.52	43509.10
561.72	43740.52
561.93	43363.69
562.13	43720.04
562.33	43382.12
562.53	44197.21
562.73	43324.78
562.93	43482.47
563.13	43777.38
563.33	43728.23
563.53	44197.21
563.73	43662.69
563.93	43713.89
564.13	44311.90
564.33	43765.09
564.53	44131.68
564.74	44045.66
564.94	43793.76
565.14	43924.83
565.34	43609.45
565.54	43865.44
565.74	43627.88
565.94	44698.97
566.14	43842.92
566.34	43859.30
566.54	44748.12
566.74	43752.80
566.94	43967.84
567.14	44135.77
567.34	44082.53
567.54	44520.79
567.74	44041.57
567.94	44309.85
568.14	44651.86
568.34	44926.29
568.54	44363.10
568.74	44721.49
568.94	44725.59
569.14	44895.57
569.34	44402.01
569.54	45100.37
569.75	44250.46
569.95	44506.46
570.15	44965.20
570.35	45208.91
570.55	44766.55
570.75	45157.71
570.95	44801.36
571.15	45006.16
571.35	45075.79
571.55	45088.08
571.75	44660.05
571.95	45104.46
572.15	44752.21
572.35	45122.90
572.55	44733.78
572.75	45043.02
572.95	45241.68
573.15	45327.69
573.35	44729.69
573.55	45026.64
573.75	45167.95
573.95	45602.12
574.15	45088.08
574.35	45620.55
574.55	45763.91
574.75	45292.88
574.95	45600.07
575.15	45350.22
575.34	45600.07
575.54	45677.90
575.74	45688.13
575.94	46077.25
576.14	45792.58
576.34	46277.95
576.54	46308.67
576.74	46296.38
576.94	45847.88
577.14	46017.86
577.34	46531.90
577.54	45555.02
577.74	46507.32
577.94	46300.48
578.14	46345.53
578.34	46736.69
578.54	45806.92
578.74	45991.23
578.94	46587.19
579.14	46015.81
579.34	46251.33
579.54	46335.29
579.74	46880.05
579.94	46540.09
580.13	47201.58
580.33	47080.75
580.53	47174.96
580.73	46884.15
580.93	47242.54
581.13	46812.47
581.33	47420.72
581.53	47353.13
581.73	46998.83
581.93	47265.07
582.13	47537.45
582.33	47455.53
582.53	47033.65
582.73	47240.50
582.92	47637.80
583.12	47643.94
583.32	47641.90
583.52	47689.00
583.72	48147.75
583.92	47772.97
584.12	48092.45
584.32	48272.67
584.52	47746.34
584.72	48147.75
584.92	48215.33
585.11	48522.52
585.31	48100.64
585.51	48385.31
585.71	48354.59
585.91	48551.20
586.11	48186.66
586.31	48080.16
586.51	48581.91
586.71	48649.50
586.91	48747.80
587.10	48674.07
587.30	48854.29
587.50	48917.78
587.70	49098.00
587.90	49296.66
588.10	49171.73
588.30	48426.27
588.50	49440.01
