SpectraSuite Data File
++++++++++++++++++++++++++++++++++++
Date: Fri Jun 02 14:52:29 CEST 2017
User: INFO_000
Dark Spectrum Present: No
Reference Spectrum Present: No
Number of Sampled Component Spectra: 1
Spectrometers: USB4H00879
Integration Time (usec): 80000 (USB4H00879)
Spectra Averaged: 1 (USB4H00879)
Boxcar Smoothing: 0 (USB4H00879)
Correct for Electrical Dark: No (USB4H00879)
Strobe/Lamp Enabled: No (USB4H00879)
Correct for Detector Non-linearity: No (USB4H00879)
Correct for Stray Light: No (USB4H00879)
Number of Pixels in Processed Spectrum: 3648
>>>>>Begin Processed Spectral Data<<<<<
345.13	1241.07
345.34	1241.07
345.56	1241.07
345.78	1314.80
345.99	1267.69
346.21	1736.68
346.42	1693.67
346.64	1662.95
346.86	1812.45
347.07	1665.00
347.29	1673.19
347.50	1630.18
347.72	1708.01
347.94	1820.64
348.15	1617.90
348.37	1621.99
348.59	1701.86
348.80	1746.92
349.02	1796.07
349.23	1886.18
349.45	1814.50
349.67	1896.42
349.88	1832.93
350.10	1968.10
350.31	1855.46
350.53	1746.92
350.75	1986.53
350.96	1724.39
351.18	1890.28
351.39	1847.27
351.61	1804.26
351.82	1851.36
352.04	1953.76
352.26	1806.31
352.47	1865.70
352.69	1904.61
352.90	1732.58
353.12	1843.17
353.34	1839.08
353.55	2004.96
353.77	1918.95
353.98	1826.79
354.20	1880.04
354.41	1888.23
354.63	1914.85
354.85	2076.64
355.06	1939.43
355.28	1865.70
355.49	1906.66
355.71	1855.46
355.92	1845.22
356.14	1931.23
356.35	1863.65
356.57	1781.73
356.79	1968.10
357.00	1822.69
357.22	1988.58
357.43	1843.17
357.65	1982.43
357.86	1935.33
358.08	1914.85
358.29	1941.47
358.51	1972.19
358.72	1933.28
358.94	1904.61
359.16	1951.71
359.37	2011.11
359.59	1935.33
359.80	2011.11
360.02	1988.58
360.23	1970.15
360.45	1978.34
360.66	1996.77
360.88	1896.42
361.09	1884.13
361.31	1976.29
361.52	2025.44
361.74	2074.59
361.95	2076.64
362.17	1943.52
362.38	2101.22
362.60	2090.98
362.81	1986.53
363.03	1902.56
363.24	1908.71
363.46	2043.87
363.67	2047.97
363.89	2037.73
364.10	2068.45
364.32	1992.67
364.53	2033.63
364.75	1949.67
364.96	2052.06
365.18	2037.73
365.39	2035.68
365.61	1986.53
365.82	2119.65
366.04	2039.78
366.25	1929.19
366.47	2002.91
366.68	2013.15
366.90	2031.58
367.11	2033.63
367.33	2191.33
367.54	2088.93
367.76	2015.20
367.97	2142.18
368.19	2011.11
368.40	2047.97
368.62	2000.87
368.83	1968.10
369.05	2101.22
369.26	2004.96
369.48	2004.96
369.69	2007.01
369.91	2123.74
370.12	2017.25
370.33	2140.13
370.55	1945.57
370.76	2062.30
370.98	2133.98
371.19	2060.26
371.41	1974.24
371.62	2066.40
371.84	2019.30
372.05	2154.46
372.27	2109.41
372.48	2179.04
372.69	2158.56
372.91	2140.13
373.12	2144.22
373.34	2105.31
373.55	2072.54
373.77	2158.56
373.98	2072.54
374.20	2201.57
374.41	2252.77
374.62	2172.89
374.84	2105.31
375.05	2217.95
375.27	2195.42
375.48	2150.37
375.70	2136.03
375.91	2275.29
376.12	2277.34
376.34	2166.75
376.55	2187.23
376.77	2293.72
376.98	2144.22
377.19	2060.26
377.41	2242.53
377.62	2256.86
377.84	2183.13
378.05	2326.49
378.27	2240.48
378.48	2387.93
378.69	2416.60
378.91	2287.58
379.12	2289.63
379.34	2150.37
379.55	2324.44
379.76	2330.59
379.98	2197.47
380.19	2328.54
380.41	2277.34
380.62	2289.63
380.83	2295.77
381.05	2236.38
381.26	2406.36
381.47	2236.38
381.69	2271.20
381.90	2379.74
382.12	2275.29
382.33	2232.29
382.54	2381.79
382.76	2420.70
382.97	2344.92
383.19	2281.44
383.40	2365.40
383.61	2330.59
383.83	2244.57
384.04	2351.07
384.25	2340.83
384.47	2437.08
384.68	2430.94
384.89	2279.39
385.11	2277.34
385.32	2404.32
385.54	2258.91
385.75	2412.51
385.96	2451.42
386.18	2351.07
386.39	2457.56
386.60	2314.20
386.82	2516.95
387.03	2473.95
387.24	2537.43
387.46	2459.61
387.67	2453.47
387.88	2465.75
388.10	2475.99
388.31	2500.57
388.52	2648.02
388.74	2496.47
388.95	2486.23
389.16	2482.14
389.38	2414.56
389.59	2590.68
389.80	2598.87
390.02	2613.21
390.23	2633.69
390.44	2566.10
390.66	2592.73
390.87	2572.25
391.08	2574.30
391.30	2713.56
391.51	2660.31
391.72	2742.23
391.94	2629.59
392.15	2607.06
392.36	2607.06
392.58	2572.25
392.79	2709.46
393.00	2678.74
393.22	2777.05
393.43	2781.14
393.64	2820.05
393.85	2707.41
394.07	2643.93
394.28	2725.85
394.49	2691.03
394.71	2840.53
394.92	2762.71
395.13	2703.32
395.35	2727.89
395.56	2842.58
395.77	2793.43
395.98	2850.77
396.20	2863.06
396.41	2830.29
396.62	2811.86
396.84	2822.10
397.05	2795.48
397.26	2895.83
397.47	2947.03
397.69	2803.67
397.90	3096.53
398.11	2963.41
398.32	2930.64
398.54	2840.53
398.75	2887.64
398.96	2936.79
399.18	3078.10
399.39	2822.10
399.60	2955.22
399.81	2981.84
400.03	2934.74
400.24	3235.79
400.45	3022.80
400.66	2985.94
400.88	3065.81
401.09	3237.84
401.30	3067.86
401.51	3100.62
401.73	3192.78
401.94	3241.93
402.15	3090.38
402.36	3088.34
402.58	3110.86
402.79	3278.80
403.00	3211.22
403.21	3278.80
403.43	3235.79
403.64	3325.90
403.85	3160.02
404.06	3215.31
404.27	3076.05
404.49	3313.61
404.70	3217.36
404.91	3309.52
405.12	3286.99
405.34	3270.61
405.55	3393.48
405.76	3141.58
405.97	3248.08
406.19	3383.24
406.40	3272.65
406.61	3305.42
406.82	3428.30
407.03	3391.44
407.25	3362.76
407.46	3469.26
407.67	3473.36
407.88	3424.20
408.09	3354.57
408.31	3448.78
408.52	3514.31
408.73	3352.52
408.94	3344.33
409.15	3504.07
409.37	3459.02
409.58	3452.88
409.79	3502.03
410.00	3688.39
410.21	3442.64
410.43	3581.90
410.64	3405.77
410.85	3491.79
411.06	3526.60
411.27	3489.74
411.48	3600.33
411.70	3661.77
411.91	3553.23
412.12	3618.76
412.33	3723.21
412.54	3629.00
412.76	3622.86
412.97	3680.20
413.18	3489.74
413.39	3678.15
413.60	3758.02
413.81	3682.25
414.03	3596.23
414.24	3637.19
414.45	3680.20
414.66	3624.90
414.87	3749.83
415.08	3629.00
415.30	3702.73
415.51	3815.37
415.72	3788.74
415.93	3725.26
416.14	3798.98
416.35	3751.88
416.56	3850.18
416.78	3778.50
416.99	3899.33
417.20	4016.07
417.41	3934.15
417.62	3839.94
417.83	3983.30
418.04	3827.65
418.26	3825.61
418.47	3882.95
418.68	4104.13
418.89	4050.88
419.10	4112.32
419.31	3913.67
419.52	4136.90
419.73	3956.68
419.95	4116.42
420.16	3958.72
420.37	4016.07
420.58	4106.18
420.79	3928.00
421.00	4040.64
421.21	4169.66
421.42	4093.89
421.63	4046.79
421.85	4155.33
422.06	4310.97
422.27	4274.11
422.48	4083.65
422.69	4265.92
422.90	4241.34
423.11	4212.67
423.32	4306.88
423.53	4509.63
423.75	4368.32
423.96	4456.38
424.17	4341.69
424.38	4464.57
424.59	4278.21
424.80	4503.48
425.01	4450.24
425.22	4358.08
425.43	4356.03
425.64	4579.26
425.85	4622.27
426.06	4382.65
426.28	4589.50
426.49	4523.96
426.70	4409.28
426.91	4595.64
427.12	4585.40
427.33	4687.80
427.54	4679.61
427.75	4695.99
427.96	4812.73
428.17	4755.38
428.38	4775.86
428.59	4829.11
428.80	4851.64
429.01	4761.53
429.23	4822.97
429.44	4933.56
429.65	4978.61
429.86	4888.50
430.07	4925.36
430.28	4878.26
430.49	5097.39
430.70	5023.67
430.91	5052.34
431.12	5054.39
431.33	5113.78
431.54	5250.99
431.75	5259.18
431.96	5029.81
432.17	5119.92
432.38	4988.85
432.59	5494.70
432.80	5246.90
433.01	5281.71
433.22	5255.09
433.43	5318.57
433.64	5287.86
433.85	5189.55
434.06	5441.45
434.27	5203.89
434.49	5521.32
434.70	5564.33
434.91	5470.12
435.12	5578.67
435.33	5435.31
435.54	5527.47
435.75	5345.20
435.96	5466.03
436.17	5429.17
436.38	5597.10
436.59	5658.54
436.80	5517.23
437.01	5805.99
437.22	5791.66
437.43	5576.62
437.64	5537.71
437.85	5865.38
438.06	5808.04
438.27	5681.07
438.48	5816.23
438.69	5775.27
438.90	5777.32
439.11	5801.90
439.32	5875.62
439.53	5842.85
439.74	5896.10
439.95	5881.77
440.16	5746.60
440.37	6084.52
440.57	5793.70
440.78	5998.50
440.99	6100.90
441.20	6080.42
441.41	5945.25
441.62	6033.32
441.83	5939.11
442.04	6154.15
442.25	6162.34
442.46	6039.46
442.67	6313.89
442.88	6485.92
443.09	6002.60
443.30	6180.77
443.51	6324.13
443.72	6461.34
443.93	6141.86
444.14	6510.49
444.35	6129.57
444.56	6254.50
444.77	6260.64
444.98	6360.99
445.19	6416.29
445.40	6457.25
445.61	6297.50
445.81	6559.64
446.02	6604.70
446.23	6412.19
446.44	6516.64
446.65	6619.04
446.86	6584.22
447.07	6451.10
447.28	6778.78
447.49	6578.08
447.70	6469.53
447.91	6711.19
448.12	6782.87
448.33	6967.19
448.54	6813.59
448.74	6649.75
448.95	6832.02
449.16	6612.89
449.37	7018.39
449.58	6713.24
449.79	7049.11
450.00	6762.39
450.21	7081.88
450.42	7165.84
450.63	7042.96
450.84	7026.58
451.05	7135.12
451.25	7092.12
451.46	7040.92
451.67	7266.19
451.88	7309.20
452.09	7249.81
452.30	7180.18
452.51	7139.22
452.72	7323.54
452.93	7595.92
453.13	7102.36
453.34	7327.63
453.55	7358.35
453.76	7204.75
453.97	7757.71
454.18	7438.22
454.39	7518.09
454.60	7524.24
454.81	7632.78
455.01	7626.64
455.22	7540.62
455.43	7587.72
455.64	7763.85
455.85	7712.65
456.06	7974.79
456.27	7792.52
456.48	7907.21
456.68	7972.74
456.89	7931.78
457.10	8142.72
457.31	7919.50
457.52	8048.52
457.73	8048.52
457.94	8449.92
458.14	7993.22
458.35	8331.14
458.56	8208.26
458.77	8224.64
458.98	8259.46
459.19	8437.63
459.39	8449.92
459.60	8353.66
459.81	8347.52
460.02	8669.05
460.23	8451.97
460.44	8884.09
460.65	8544.13
460.85	8734.59
461.06	8707.96
461.27	8589.18
461.48	8929.14
461.69	8984.44
461.89	8572.80
462.10	8769.40
462.31	8775.55
462.52	8734.59
462.73	9011.06
462.94	9185.14
463.14	9107.32
463.35	9158.52
463.56	9551.73
463.77	9164.66
463.98	9230.20
464.18	9228.15
464.39	9490.29
464.60	9537.39
464.81	9404.27
465.02	9416.56
465.23	9725.80
465.43	9475.95
465.64	9731.95
465.85	9721.71
466.06	9514.86
466.27	9953.13
466.47	9828.20
466.68	9926.50
466.89	10037.09
467.10	10112.87
467.30	9965.42
467.51	10039.14
467.72	10348.39
467.93	10121.06
468.14	10293.09
468.34	10305.38
468.55	10309.47
468.76	10418.02
468.97	10436.45
469.17	10557.28
469.38	10684.25
469.59	10704.73
469.80	10557.28
470.01	10735.45
470.21	10848.09
470.42	11048.79
470.63	10884.95
470.84	10958.68
471.04	11151.19
471.25	11177.81
471.46	11380.56
471.67	11462.48
471.87	11388.75
472.08	11444.05
472.29	11730.76
472.50	11194.20
472.70	11487.06
472.91	11530.06
473.12	11777.87
473.33	11734.86
473.53	11896.65
473.74	12087.11
473.95	12072.78
474.16	12158.79
474.36	12308.29
474.57	12355.40
474.78	12558.14
474.99	12592.96
475.19	12328.77
475.40	12924.73
475.61	12808.00
475.81	13004.60
476.02	13190.97
476.23	12832.57
476.44	13025.08
476.64	13254.45
476.85	13567.79
477.06	13477.68
477.27	13551.41
477.47	13510.45
477.68	13649.71
477.89	13911.85
478.09	13602.61
478.30	13707.05
478.51	13913.90
478.71	14184.23
478.92	13967.15
479.13	14161.70
479.34	14380.84
479.54	14221.10
479.75	14540.58
479.96	14577.44
480.16	14806.81
480.37	14743.33
480.58	14927.64
480.78	14886.68
480.99	14991.13
481.20	15218.46
481.41	15179.54
481.61	15265.56
481.82	15458.07
482.03	15456.02
482.23	15304.47
482.44	15828.75
482.65	15918.86
482.85	15970.06
483.06	15802.13
483.27	15873.81
483.47	16209.67
483.68	16140.04
483.89	16267.02
484.09	16228.10
484.30	16465.67
484.51	16553.73
484.71	16895.74
484.92	16615.17
485.13	17157.88
485.33	16776.96
485.54	16850.69
485.75	17164.03
485.95	17194.75
486.16	17288.95
486.37	17714.93
486.57	17655.54
486.78	17643.25
486.98	17600.24
487.19	17600.24
487.40	17913.58
487.60	18108.14
487.81	18337.51
488.02	18171.63
488.22	18218.73
488.43	18360.04
488.64	18222.83
488.84	18771.68
489.05	18800.35
489.25	18624.23
489.46	19105.50
489.67	18718.43
489.87	19177.18
490.08	18982.62
490.29	18951.90
490.49	19599.06
490.70	19267.29
490.90	19613.40
491.11	19558.10
491.32	19697.36
491.52	19934.93
491.73	19728.08
491.94	19732.18
492.14	19734.23
492.35	20250.32
492.55	20223.69
492.76	20184.78
492.97	20580.04
493.17	20389.58
493.38	20721.35
493.58	20860.61
493.79	20838.08
494.00	20915.90
494.20	20956.86
494.41	21243.58
494.61	21094.08
494.82	21069.50
495.02	21059.26
495.23	21081.79
495.44	21520.06
495.64	21540.54
495.85	21581.49
496.05	21599.93
496.26	21706.42
496.47	22253.23
496.67	21606.07
496.88	22390.44
497.08	21946.03
497.29	22286.00
497.49	22224.56
497.70	22519.46
497.91	22171.31
498.11	22578.86
498.32	22609.58
498.52	22783.65
498.73	23193.25
498.93	23064.22
499.14	23084.70
499.34	23187.10
499.55	23352.99
499.76	23301.79
499.96	23350.94
500.17	23318.17
500.37	23668.37
500.58	23369.37
500.78	23389.85
500.99	23615.13
501.19	23928.47
501.40	23967.38
501.60	23832.21
501.81	24215.18
502.02	24028.82
502.22	23776.92
502.43	24215.18
502.63	24362.64
502.84	24465.03
503.04	24237.71
503.25	24293.01
503.45	24530.57
503.66	24827.53
503.86	24876.68
504.07	24974.98
504.27	24772.23
504.48	25216.64
504.68	25173.63
504.89	25546.36
505.09	24784.52
505.30	25306.75
505.50	25288.32
505.71	25382.52
505.91	25478.78
506.12	25499.26
506.32	25341.57
506.53	25626.23
506.73	25499.26
506.94	25982.58
507.14	25661.05
507.35	25853.56
507.55	25974.39
507.76	26078.83
507.96	25917.04
508.17	25923.19
508.37	26111.60
508.58	26082.93
508.78	25986.68
508.99	26336.88
509.19	26338.93
509.40	26250.86
509.60	26519.15
509.81	26723.94
510.01	26224.24
510.22	26158.70
510.42	26777.19
510.63	26644.07
510.83	26457.71
511.04	26707.56
511.24	26887.78
511.44	26920.55
511.65	27123.30
511.85	27160.16
512.06	27065.96
512.26	27379.29
512.47	27090.53
512.67	27450.97
512.88	27360.86
513.08	27186.79
513.29	27475.55
513.49	27395.68
513.69	27582.04
513.90	27407.97
514.10	27623.00
514.31	27491.93
514.51	27833.94
514.72	27612.76
514.92	27434.59
515.13	27729.50
515.33	28046.93
515.53	27969.11
515.74	27960.92
515.94	28081.75
516.15	27934.29
516.35	27952.73
516.56	28036.69
516.76	28204.63
516.96	28335.70
517.17	28276.30
517.37	28106.32
517.58	28677.71
517.78	28374.61
517.99	28388.94
518.19	28597.84
518.39	28741.19
518.60	28839.50
518.80	28851.78
519.01	28878.41
519.21	28790.34
519.41	28991.05
519.62	29042.24
519.82	29251.14
520.03	29105.73
520.23	29312.58
520.43	29244.99
520.64	29541.95
520.84	29607.48
521.05	29357.63
521.25	29509.18
521.45	29787.71
521.66	29740.60
521.86	29394.50
522.07	29845.05
522.27	29836.86
522.47	29601.34
522.68	30004.79
522.88	29713.98
523.08	30064.18
523.29	30187.06
523.49	30326.32
523.70	30391.86
523.90	30096.95
524.10	30408.24
524.31	30772.78
524.51	30471.73
524.71	30705.20
524.92	30639.66
525.12	30973.48
525.33	30731.82
525.53	30969.38
525.73	31192.61
525.94	31008.29
526.14	31073.83
526.34	31188.52
526.55	31460.90
526.75	31690.27
526.95	31819.29
527.16	31370.79
527.36	31649.31
527.56	31991.32
527.77	31942.17
527.97	31843.87
528.17	31843.87
528.38	32286.23
528.58	32329.23
528.78	32108.05
528.99	32198.16
529.19	32572.94
529.39	31936.02
529.60	32345.62
529.80	32204.31
530.00	32247.32
530.21	32843.27
530.41	32865.80
530.61	32605.71
530.82	32640.53
531.02	32970.25
531.22	32976.39
531.43	32966.15
531.63	33332.74
531.83	33039.88
532.04	33676.80
532.24	33476.10
532.44	33871.36
532.64	33754.62
532.85	33906.17
533.05	33582.59
533.25	33648.13
533.46	34190.84
533.66	34379.25
533.86	34110.97
534.07	34622.96
534.27	34315.76
534.47	34711.02
534.67	34260.47
534.88	34457.07
535.08	34563.57
535.28	35057.13
535.49	35118.57
535.69	35010.03
535.89	35227.11
536.09	34999.79
536.30	35175.91
536.50	35489.25
536.70	35345.89
536.91	35083.75
537.11	35343.84
537.31	35821.02
537.51	35634.66
537.72	36337.11
537.92	35816.93
538.12	36019.67
538.32	35853.79
538.53	36640.21
538.73	35825.12
538.93	36206.04
539.13	36126.17
539.34	36298.20
539.54	36429.27
539.74	36500.95
539.94	36349.40
540.15	36253.14
540.35	36568.53
540.55	36525.52
540.75	36812.24
540.96	37262.79
541.16	36640.21
541.36	36988.36
541.56	37144.01
541.77	37367.24
541.97	37080.52
542.17	37381.57
542.37	37537.22
542.58	37596.61
542.78	37443.01
542.98	37500.36
543.18	37979.58
543.38	38311.35
543.59	37686.72
543.79	37600.71
543.99	37950.91
544.19	38192.57
544.40	37731.78
544.60	38571.44
544.80	38053.31
545.00	38499.76
545.20	38526.39
545.41	38282.68
545.61	38417.85
545.81	38569.40
546.01	38917.55
546.21	38526.39
546.42	38243.77
546.62	38944.17
546.82	38692.27
547.02	38897.07
547.22	39079.34
547.43	38751.66
547.63	38991.28
547.83	39079.34
548.03	38831.54
548.23	39517.60
548.44	39312.81
548.64	39564.71
548.84	39552.42
549.04	39562.66
549.24	39675.30
549.45	39751.07
549.65	39331.24
549.85	39765.41
550.05	40039.84
550.25	39871.90
550.45	40410.52
550.66	40138.14
550.86	39841.18
551.06	40166.81
551.26	40103.32
551.46	40193.43
551.66	40332.70
551.87	39953.82
552.07	40646.04
552.27	40256.92
552.47	40474.01
552.67	40730.00
552.87	40236.44
553.07	40752.53
553.28	40877.46
553.48	40953.23
553.68	40781.20
553.88	40965.52
554.08	41108.88
554.28	41186.70
554.48	40928.66
554.69	41158.03
554.89	41346.44
555.09	41100.68
555.29	41110.92
555.49	40994.19
555.69	41323.91
555.89	41194.89
556.10	41649.54
556.30	41241.99
556.50	41819.52
556.70	41221.52
556.90	42059.13
557.10	41796.99
557.30	41670.02
557.50	41825.67
557.70	41547.14
557.91	42128.77
558.11	41997.70
558.31	41952.64
558.51	42077.57
558.71	41889.15
558.91	42423.67
559.11	41864.58
559.31	42339.71
559.51	41745.80
559.72	42272.12
559.92	42972.53
560.12	41887.10
560.32	42337.66
560.52	41954.69
560.72	42771.83
560.92	42886.51
561.12	42542.45
561.32	43271.53
561.52	42962.29
561.72	43029.87
561.93	42851.70
562.13	43304.30
562.33	42538.36
562.53	43279.72
562.73	43359.59
562.93	42706.29
563.13	43038.06
563.33	43029.87
563.53	43378.03
563.73	42818.93
563.93	43433.32
564.13	43683.17
564.33	43482.47
564.53	43509.10
564.74	43425.13
564.94	43513.19
565.14	43734.37
565.34	43566.44
565.54	43677.03
565.74	43490.66
565.94	44021.09
566.14	43730.28
566.34	43896.16
566.54	44293.47
566.74	43832.68
566.94	44066.14
567.14	44193.12
567.34	44365.15
567.54	44113.25
567.74	43826.53
567.94	44135.77
568.14	44307.80
568.34	44451.16
568.54	44621.14
568.74	44617.05
568.94	44463.45
569.14	44735.83
569.34	44916.05
569.54	44748.12
569.75	44477.79
569.95	44729.69
570.15	45217.10
570.35	45057.36
570.55	44610.90
570.75	44866.90
570.95	44897.62
571.15	45509.96
571.35	45520.20
571.55	45354.32
571.75	45268.30
571.95	45233.49
572.15	45518.15
572.35	45765.96
572.55	45659.46
572.75	45419.85
572.95	45536.59
573.15	45733.19
573.35	45423.95
573.55	45860.16
573.75	45741.38
573.95	45768.01
574.15	45638.98
574.35	45821.25
574.55	46290.24
574.75	45751.62
574.95	46431.55
575.15	45815.11
575.34	46286.14
575.54	46554.43
575.74	46535.99
575.94	46284.09
576.14	46533.95
576.34	46333.24
576.54	46732.60
576.74	47056.18
576.94	46622.01
577.14	46839.09
577.34	47265.07
577.54	46802.23
577.74	47093.04
577.94	47177.01
578.14	46746.93
578.34	47213.87
578.54	46716.22
578.74	47213.87
578.94	47719.72
579.14	47172.91
579.34	47394.09
579.54	47342.89
579.74	47785.25
579.94	47459.63
580.13	47623.47
580.33	47363.37
580.53	47918.37
580.73	47709.48
580.93	47789.35
581.13	47617.32
581.33	47988.00
581.53	48178.46
581.73	48088.35
581.93	48278.82
582.13	48309.53
582.33	48573.72
582.53	48155.94
582.73	48248.10
582.92	48493.85
583.12	48446.75
583.32	48487.71
583.52	48194.85
583.72	48721.18
583.92	48352.54
584.12	48807.19
584.32	49399.05
584.52	48872.73
584.72	49321.23
584.92	49370.38
585.11	49354.00
585.31	49179.92
585.51	49349.90
585.71	49098.00
585.91	49288.46
586.11	49022.23
586.31	49042.71
586.51	49171.73
586.71	49413.39
586.91	49607.95
587.10	49818.89
587.30	49642.76
587.50	49790.22
587.70	49837.32
587.90	49972.49
588.10	50154.75
588.30	49526.03
588.50	50271.49
