SpectraSuite Data File
++++++++++++++++++++++++++++++++++++
Date: Fri Jun 02 14:52:26 CEST 2017
User: INFO_000
Dark Spectrum Present: No
Reference Spectrum Present: No
Number of Sampled Component Spectra: 1
Spectrometers: USB4H00879
Integration Time (usec): 80000 (USB4H00879)
Spectra Averaged: 1 (USB4H00879)
Boxcar Smoothing: 0 (USB4H00879)
Correct for Electrical Dark: No (USB4H00879)
Strobe/Lamp Enabled: No (USB4H00879)
Correct for Detector Non-linearity: No (USB4H00879)
Correct for Stray Light: No (USB4H00879)
Number of Pixels in Processed Spectrum: 3648
>>>>>Begin Processed Spectral Data<<<<<
345.13	1296.36
345.34	1296.36
345.56	1296.36
345.78	1239.02
345.99	1208.30
346.21	1687.53
346.42	1660.90
346.64	1626.09
346.86	1773.54
347.07	1679.33
347.29	1742.82
347.50	1603.56
347.72	1708.01
347.94	1691.62
348.15	1558.50
348.37	1675.24
348.59	1695.72
348.80	1681.38
349.02	1845.22
349.23	1892.32
349.45	1855.46
349.67	2000.87
349.88	1863.65
350.10	1884.13
350.31	1843.17
350.53	1748.97
350.75	2056.16
350.96	1779.68
351.18	1951.71
351.39	1810.40
351.61	1787.88
351.82	1839.08
352.04	1841.12
352.26	1875.94
352.47	1884.13
352.69	1947.62
352.90	1769.44
353.12	1830.88
353.34	1822.69
353.55	1951.71
353.77	1892.32
353.98	1834.98
354.20	1826.79
354.41	1912.80
354.63	1986.53
354.85	2072.54
355.06	1908.71
355.28	1832.93
355.49	1918.95
355.71	1875.94
355.92	1863.65
356.14	1914.85
356.35	1832.93
356.57	1861.60
356.79	2023.39
357.00	1912.80
357.22	1884.13
357.43	1855.46
357.65	2011.11
357.86	1849.32
358.08	1916.90
358.29	1961.95
358.51	1935.33
358.72	1927.14
358.94	1953.76
359.16	1976.29
359.37	2078.69
359.59	1982.43
359.80	2088.93
360.02	1992.67
360.23	1961.95
360.45	2019.30
360.66	1888.23
360.88	1894.37
361.09	1949.67
361.31	1906.66
361.52	1943.52
361.74	1986.53
361.95	2090.98
362.17	1970.15
362.38	2062.30
362.60	2095.07
362.81	1941.47
363.03	1961.95
363.24	1877.99
363.46	2095.07
363.67	1914.85
363.89	1986.53
364.10	2052.06
364.32	2056.16
364.53	1998.82
364.75	1925.09
364.96	2033.63
365.18	2101.22
365.39	1939.43
365.61	1974.24
365.82	2138.08
366.04	1939.43
366.25	1978.34
366.47	2021.35
366.68	2007.01
366.90	1923.04
367.11	2072.54
367.33	2093.02
367.54	2101.22
367.76	2037.73
367.97	2158.56
368.19	2019.30
368.40	2125.79
368.62	1986.53
368.83	1968.10
369.05	2066.40
369.26	2029.54
369.48	2031.58
369.69	2015.20
369.91	2125.79
370.12	2041.82
370.33	2129.89
370.55	1920.99
370.76	2078.69
370.98	2072.54
371.19	2015.20
371.41	2113.50
371.62	2088.93
371.84	2035.68
372.05	2170.85
372.27	2088.93
372.48	2064.35
372.69	2125.79
372.91	2125.79
373.12	2111.46
373.34	2082.78
373.55	2131.94
373.77	2150.37
373.98	2123.74
374.20	2117.60
374.41	2256.86
374.62	2109.41
374.84	2138.08
375.05	2220.00
375.27	2164.70
375.48	2179.04
375.70	2150.37
375.91	2207.71
376.12	2299.87
376.34	2168.80
376.55	2115.55
376.77	2191.33
376.98	2099.17
377.19	2131.94
377.41	2152.42
377.62	2187.23
377.84	2293.72
378.05	2277.34
378.27	2174.94
378.48	2416.60
378.69	2342.88
378.91	2334.68
379.12	2248.67
379.34	2240.48
379.55	2254.81
379.76	2263.01
379.98	2273.25
380.19	2351.07
380.41	2242.53
380.62	2371.55
380.83	2379.74
381.05	2217.95
381.26	2406.36
381.47	2299.87
381.69	2297.82
381.90	2441.18
382.12	2320.35
382.33	2373.60
382.54	2228.19
382.76	2342.88
382.97	2375.64
383.19	2265.05
383.40	2404.32
383.61	2326.49
383.83	2220.00
384.04	2330.59
384.25	2353.12
384.47	2359.26
384.68	2414.56
384.89	2293.72
385.11	2353.12
385.32	2375.64
385.54	2416.60
385.75	2330.59
385.96	2424.80
386.18	2471.90
386.39	2441.18
386.60	2404.32
386.82	2424.80
387.03	2463.71
387.24	2443.23
387.46	2449.37
387.67	2453.47
387.88	2533.34
388.10	2437.08
388.31	2457.56
388.52	2598.87
388.74	2594.78
388.95	2502.62
389.16	2609.11
389.38	2543.58
389.59	2605.02
389.80	2602.97
390.02	2596.82
390.23	2705.37
390.44	2557.91
390.66	2580.44
390.87	2625.50
391.08	2643.93
391.30	2768.85
391.51	2617.30
391.72	2666.46
391.94	2664.41
392.15	2676.70
392.36	2668.50
392.58	2502.62
392.79	2750.42
393.00	2705.37
393.22	2760.66
393.43	2861.01
393.64	2822.10
393.85	2805.72
394.07	2697.17
394.28	2803.67
394.49	2805.72
394.71	2899.92
394.92	2998.23
395.13	2705.37
395.35	2838.48
395.56	2795.48
395.77	2811.86
395.98	2955.22
396.20	2873.30
396.41	2842.58
396.62	2901.97
396.84	2865.11
397.05	2942.93
397.26	2873.30
397.47	2985.94
397.69	2813.91
397.90	3084.24
398.11	2996.18
398.32	3008.47
398.54	2936.79
398.75	3016.66
398.96	2969.55
399.18	3108.82
399.39	3041.23
399.60	3076.05
399.81	2992.08
400.03	2971.60
400.24	3227.60
400.45	3037.14
400.66	2992.08
400.88	3098.58
401.09	3196.88
401.30	3057.62
401.51	3155.92
401.73	3160.02
401.94	3243.98
402.15	3203.02
402.36	3194.83
402.58	3246.03
402.79	3256.27
403.00	3217.36
403.21	3276.75
403.43	3231.69
403.64	3289.04
403.85	3143.63
404.06	3368.91
404.27	3192.78
404.49	3303.37
404.70	3286.99
404.91	3307.47
405.12	3327.95
405.34	3291.09
405.55	3485.64
405.76	3248.08
405.97	3289.04
406.19	3413.96
406.40	3215.31
406.61	3409.87
406.82	3366.86
407.03	3370.96
407.25	3434.44
407.46	3483.59
407.67	3489.74
407.88	3502.03
408.09	3276.75
408.31	3416.01
408.52	3518.41
408.73	3413.96
408.94	3420.11
409.15	3383.24
409.37	3516.36
409.58	3477.45
409.79	3436.49
410.00	3676.10
410.21	3416.01
410.43	3512.27
410.64	3522.51
410.85	3569.61
411.06	3547.08
411.27	3588.04
411.48	3657.67
411.70	3465.16
411.91	3649.48
412.12	3551.18
412.33	3583.95
412.54	3641.29
412.76	3729.35
412.97	3620.81
413.18	3428.30
413.39	3596.23
413.60	3780.55
413.81	3694.54
414.03	3657.67
414.24	3719.11
414.45	3823.56
414.66	3631.05
414.87	3760.07
415.08	3737.54
415.30	3719.11
415.51	3764.17
415.72	3676.10
415.93	3733.45
416.14	3825.61
416.35	3854.28
416.56	3846.09
416.78	3885.00
416.99	3909.57
417.20	3794.89
417.41	3823.56
417.62	3940.29
417.83	3999.68
418.04	3889.09
418.26	3977.16
418.47	3950.53
418.68	4059.07
418.89	4011.97
419.10	4132.80
419.31	3989.44
419.52	4224.96
419.73	3985.35
419.95	4120.51
420.16	3948.48
420.37	4003.78
420.58	4179.90
420.79	3981.25
421.00	4089.79
421.21	4184.00
421.42	4106.18
421.63	4149.18
421.85	4130.75
422.06	4267.97
422.27	4145.09
422.48	4169.66
422.69	4278.21
422.90	4288.45
423.11	4345.79
423.32	4392.89
423.53	4464.57
423.75	4419.52
423.96	4554.68
424.17	4417.47
424.38	4493.24
424.59	4607.93
424.80	4485.05
425.01	4605.88
425.22	4505.53
425.43	4497.34
425.64	4845.49
425.85	4706.23
426.06	4591.55
426.28	4636.60
426.49	4636.60
426.70	4761.53
426.91	4671.42
427.12	4884.41
427.33	4777.91
427.54	4782.01
427.75	4771.77
427.96	4984.76
428.17	4837.30
428.38	5005.24
428.59	4874.17
428.80	4851.64
429.01	4906.93
429.23	4937.65
429.44	5197.74
429.65	5261.23
429.86	5070.77
430.07	4919.22
430.28	5072.82
430.49	5093.30
430.70	5310.38
430.91	5238.70
431.12	5189.55
431.33	5347.25
431.54	5205.94
431.75	5423.02
431.96	5253.04
432.17	5236.66
432.38	5357.49
432.59	5394.35
432.80	5531.56
433.01	5490.60
433.22	5537.71
433.43	5396.40
433.64	5345.20
433.85	5347.25
434.06	5599.15
434.27	5478.32
434.49	5623.72
434.70	5552.04
434.91	5705.64
435.12	5668.78
435.33	5599.15
435.54	5734.31
435.75	5474.22
435.96	5611.43
436.17	5554.09
436.38	5724.07
436.59	5805.99
436.80	5650.35
437.01	5916.58
437.22	5898.15
437.43	5865.38
437.64	5693.35
437.85	5930.92
438.06	5883.81
438.27	5765.03
438.48	5892.01
438.69	6145.95
438.90	6025.12
439.11	5951.40
439.32	6143.91
439.53	5951.40
439.74	5959.59
439.95	6102.95
440.16	5984.16
440.37	6025.12
440.57	5971.88
440.78	6231.97
440.99	6100.90
441.20	6139.81
441.41	6035.36
441.62	6137.76
441.83	6004.64
442.04	6336.42
442.25	6207.39
442.46	6324.13
442.67	6447.01
442.88	6621.08
443.09	6174.63
443.30	6324.13
443.51	6426.53
443.72	6606.75
443.93	6242.21
444.14	6662.04
444.35	6365.09
444.56	6518.68
444.77	6516.64
444.98	6518.68
445.19	6545.31
445.40	6434.72
445.61	6442.91
445.81	6616.99
446.02	6629.27
446.23	6604.70
446.44	6299.55
446.65	6713.24
446.86	6592.41
447.07	6789.02
447.28	6795.16
447.49	6766.49
447.70	6578.08
447.91	6741.91
448.12	6846.36
448.33	6905.75
448.54	7006.10
448.74	6866.84
448.95	6909.85
449.16	6789.02
449.37	7083.92
449.58	7128.98
449.79	7147.41
450.00	6750.10
450.21	6987.67
450.42	7116.69
450.63	7151.51
450.84	7038.87
451.05	7212.95
451.25	7186.32
451.46	7114.64
451.67	7280.53
451.88	7380.88
452.09	7186.32
452.30	7169.94
452.51	7077.78
452.72	7298.96
452.93	7593.87
453.13	7106.45
453.34	7356.30
453.55	7327.63
453.76	7387.02
453.97	7821.19
454.18	7597.96
454.39	7610.25
454.60	7423.89
454.81	7524.24
455.01	7567.24
455.22	7346.06
455.43	7724.94
455.64	7976.84
455.85	7792.52
456.06	7989.13
456.27	7700.36
456.48	7772.04
456.68	7856.01
456.89	8028.04
457.10	8097.67
457.31	8118.15
457.52	7993.22
457.73	8013.70
457.94	8277.89
458.14	8025.99
458.35	8384.38
458.56	8331.14
458.77	8193.92
458.98	8238.98
459.19	8165.25
459.39	8263.55
459.60	8554.37
459.81	8316.80
460.02	8769.40
460.23	8296.32
460.44	8566.65
460.65	8757.11
460.85	8826.75
461.06	8806.27
461.27	8640.38
461.48	8927.10
461.69	8920.95
461.89	8687.48
462.10	8853.37
462.31	8732.54
462.52	8785.79
462.73	8861.56
462.94	9181.04
463.14	9170.80
463.35	9285.49
463.56	9553.77
463.77	9228.15
463.98	9148.28
464.18	9260.91
464.39	9463.66
464.60	9570.16
464.81	9596.78
465.02	9471.86
465.23	9873.26
465.43	9582.45
465.64	9953.13
465.85	9910.12
466.06	9684.84
466.27	10311.52
466.47	10084.20
466.68	10180.45
466.89	10170.21
467.10	10311.52
467.30	9875.31
467.51	10342.24
467.72	10473.31
467.93	10188.64
468.14	10424.16
468.34	10538.85
468.55	10635.10
468.76	10579.81
468.97	10594.14
469.17	10620.77
469.38	10905.43
469.59	10911.58
469.80	10751.84
470.01	10874.71
470.21	10995.54
470.42	11198.29
470.63	11472.72
470.84	11372.37
471.04	11519.82
471.25	11611.98
471.46	11624.27
471.67	11761.48
471.87	11745.10
472.08	11833.16
472.29	12033.86
472.50	11790.16
472.70	11908.94
472.91	11947.85
473.12	12123.98
473.33	12144.45
473.53	12392.26
473.74	12078.92
473.95	12562.24
474.16	12601.15
474.36	12693.31
474.57	12857.15
474.78	13037.37
474.99	12808.00
475.19	13162.30
475.40	13166.39
475.61	13199.16
475.81	13479.73
476.02	13340.47
476.23	13391.67
476.44	13621.04
476.64	13711.15
476.85	14030.63
477.06	13770.54
477.27	14167.85
477.47	14223.14
477.68	14094.12
477.89	14358.31
478.09	14311.21
478.30	14417.70
478.51	14391.08
478.71	14614.30
478.92	14806.81
479.13	14759.71
479.34	15050.52
479.54	14980.89
479.75	15095.58
479.96	15230.74
480.16	15240.98
480.37	15324.95
480.58	15578.90
480.78	15662.86
480.99	15736.59
481.20	15933.20
481.41	16035.60
481.61	16228.10
481.82	16344.84
482.03	16250.63
482.23	16158.47
482.44	16482.05
482.65	16582.40
482.85	16764.67
483.06	16551.68
483.27	16871.17
483.47	16889.60
483.68	16770.82
483.89	17078.01
484.09	17217.27
484.30	17395.45
484.51	17547.00
484.71	17755.89
484.92	17667.83
485.13	17985.26
485.33	17747.70
485.54	17856.24
485.75	17866.48
485.95	17975.02
486.16	18306.79
486.37	18132.72
486.57	18530.02
486.78	18325.22
486.98	18429.67
487.19	18599.65
487.40	18775.78
487.60	18972.38
487.81	19037.92
488.02	19113.69
488.22	18786.02
488.43	19343.06
488.64	19562.20
488.84	19400.41
489.05	19511.00
489.25	19306.20
489.46	19711.70
489.67	19853.01
489.87	20025.04
490.08	19971.79
490.29	19896.02
490.49	20369.10
490.70	20369.10
490.90	20287.18
491.11	20084.43
491.32	20530.89
491.52	20688.58
491.73	20840.13
491.94	20666.05
492.14	20725.44
492.35	20885.19
492.55	21132.99
492.76	21329.59
492.97	21214.91
493.17	21253.82
493.38	21620.41
493.58	21509.82
493.79	21657.27
494.00	21593.78
494.20	21802.68
494.41	22036.14
494.61	22120.11
494.82	21792.44
495.02	21986.99
495.23	22177.45
495.44	22242.99
495.64	22355.63
495.85	22292.14
496.05	22415.02
496.26	22343.34
496.47	22886.05
496.67	22498.98
496.88	22871.72
497.08	22570.66
497.29	22806.18
497.49	22754.98
497.70	23033.50
497.91	23080.61
498.11	23309.98
498.32	23178.91
498.52	23326.36
498.73	23815.83
498.93	23498.39
499.14	23848.60
499.34	23520.92
499.55	23707.29
499.76	23490.20
499.96	23887.51
500.17	23852.69
500.37	24065.68
500.58	23873.17
500.78	24217.23
500.99	24045.20
501.19	24542.86
501.40	24327.82
501.60	24114.83
501.81	24073.87
502.02	24350.35
502.22	24186.51
502.43	24635.02
502.63	24712.84
502.84	24770.18
503.04	24549.00
503.25	24772.23
503.45	24422.03
503.66	24729.22
503.86	24610.44
504.07	25233.02
504.27	24970.88
504.48	25314.94
504.68	25290.37
504.89	25499.26
505.09	25261.69
505.30	25247.36
505.50	25544.31
505.71	25290.37
505.91	25677.43
506.12	25642.62
506.32	25597.56
506.53	25839.22
506.73	25593.47
506.94	25796.21
507.14	25831.03
507.35	25550.46
507.55	25523.83
507.76	26156.66
507.96	25771.64
508.17	26017.40
508.37	25847.41
508.58	26117.75
508.78	26168.94
508.99	26424.94
509.19	26191.47
509.40	26304.11
509.60	26386.03
509.81	26422.89
510.01	26377.84
510.22	26517.10
510.42	26543.72
510.63	26398.32
510.83	26676.84
511.04	26502.76
511.24	26791.53
511.44	26734.18
511.65	26830.44
511.85	26556.01
512.06	26656.36
512.26	27063.91
512.47	27094.63
512.67	27051.62
512.88	27143.78
513.08	26478.19
513.29	27350.62
513.49	27133.54
513.69	27178.59
513.90	27424.35
514.10	27297.38
514.31	27205.22
514.51	27326.05
514.72	27524.70
514.92	27551.32
515.13	27647.58
515.33	27530.84
515.53	27446.88
515.74	27481.69
515.94	28034.64
516.15	27911.77
516.35	27496.03
516.56	27729.50
516.76	27743.83
516.96	28175.95
517.17	27940.44
517.37	28114.52
517.58	28431.95
517.78	28522.06
517.99	28319.31
518.19	28448.33
518.39	28710.47
518.60	28450.38
518.80	28395.09
519.01	28360.27
519.21	28634.70
519.41	28937.80
519.62	28595.79
519.82	28679.75
520.03	29087.30
520.23	28905.03
520.43	29079.11
520.64	29306.43
520.84	29556.28
521.05	29380.16
521.25	29412.93
521.45	29240.90
521.66	29718.07
521.86	29601.34
522.07	29558.33
522.27	29777.47
522.47	29822.52
522.68	29679.16
522.88	29795.90
523.08	30424.62
523.29	29873.72
523.49	30139.96
523.70	30111.28
523.90	30373.42
524.10	30203.44
524.31	30512.69
524.51	30688.81
524.71	30846.51
524.92	30481.97
525.12	30826.03
525.33	31059.49
525.53	30869.03
525.73	31069.73
525.94	31090.21
526.14	31237.67
526.34	31446.56
526.55	31286.82
526.75	31503.90
526.95	31374.88
527.16	31661.60
527.36	31268.39
527.56	31954.46
527.77	32169.49
527.97	32253.46
528.17	32288.28
528.38	32316.95
528.58	31997.46
528.78	32613.90
528.99	32425.49
529.19	32820.75
529.39	32089.62
529.60	32894.47
529.80	33060.36
530.00	32687.63
530.21	33353.22
530.41	33410.56
530.61	33232.39
530.82	33439.23
531.02	33330.69
531.22	33684.99
531.43	33175.05
531.63	34168.31
531.83	34080.25
532.04	34498.03
532.24	34127.35
532.44	34522.61
532.64	34506.23
532.85	34713.07
533.05	34661.87
533.25	35257.83
533.46	34448.88
533.66	35302.89
533.86	34686.45
534.07	35472.87
534.27	35145.19
534.47	35692.00
534.67	35427.81
534.88	35501.54
535.08	35517.92
535.28	35808.73
535.49	36271.57
535.69	36001.24
535.89	36249.05
536.09	36386.26
536.30	36699.60
536.50	36404.69
536.70	36318.68
536.91	36785.61
537.11	37086.67
537.31	36998.60
537.51	36894.16
537.72	37330.37
537.92	37017.04
538.12	37297.61
538.32	36961.74
538.53	37838.27
538.73	37195.21
538.93	37557.70
539.13	37576.13
539.34	37668.29
539.54	37676.48
539.74	37901.76
539.94	38360.50
540.15	38075.84
540.35	38376.89
540.55	38118.84
540.75	38571.44
540.96	38655.41
541.16	38792.62
541.36	38667.70
541.56	38718.90
541.77	39065.00
541.97	39183.79
542.17	39001.52
542.37	39116.20
542.58	39122.35
542.78	39083.44
542.98	39364.01
543.18	39615.91
543.38	39712.16
543.59	39361.96
543.79	39521.70
543.99	39734.69
544.19	40263.07
544.40	39587.24
544.60	40486.29
544.80	40185.24
545.00	40215.96
545.20	40498.58
545.41	40142.24
545.61	40383.90
545.81	40893.84
546.01	40861.07
546.21	40721.81
546.42	40766.87
546.62	40891.79
546.82	40793.49
547.02	40924.56
547.22	41061.77
547.43	41123.21
547.63	41303.43
547.83	41678.21
548.03	41395.59
548.23	41602.44
548.44	41368.97
548.64	41516.42
548.84	41745.80
549.04	41618.82
549.24	42007.94
549.45	42157.44
549.65	41692.55
549.85	42304.89
550.05	42538.36
550.25	41815.43
550.45	42818.93
550.66	42489.21
550.86	42589.56
551.06	42478.97
551.26	42409.34
551.46	42722.68
551.66	42620.28
551.87	42575.22
552.07	42710.39
552.27	42737.01
552.47	43087.21
552.67	42970.48
552.87	42786.16
553.07	43050.35
553.28	43062.64
553.48	43253.10
553.68	43195.76
553.88	43627.88
554.08	43292.01
554.28	43494.76
554.48	42980.72
554.69	43586.92
554.89	43621.73
555.09	43373.93
555.29	43349.35
555.49	43744.61
555.69	43627.88
555.89	43484.52
556.10	44035.42
556.30	43732.32
556.50	43990.37
556.70	43599.21
556.90	44135.77
557.10	44500.31
557.30	43971.94
557.50	44324.19
557.70	44279.13
557.91	44258.65
558.11	44215.65
558.31	44535.13
558.51	44191.07
558.71	43949.41
558.91	44316.00
559.11	44119.39
559.31	44524.89
559.51	44551.51
559.72	43926.88
559.92	44629.34
560.12	44475.74
560.32	44758.36
560.52	44420.44
560.72	44660.05
560.92	44537.18
561.12	44696.92
561.32	44954.96
561.52	44569.94
561.72	45057.36
561.93	44541.27
562.13	44848.47
562.33	44916.05
562.53	45264.21
562.73	45141.33
562.93	45069.65
563.13	45294.92
563.33	44496.22
563.53	45526.35
563.73	45088.08
563.93	44983.63
564.13	45440.33
564.33	45219.15
564.53	45227.34
564.74	45485.39
564.94	45055.31
565.14	45200.72
565.34	45057.36
565.54	45215.05
565.74	45163.85
565.94	45380.94
566.14	45479.24
566.34	45110.61
566.54	46003.52
566.74	45237.58
566.94	45055.31
567.14	45565.26
567.34	45442.38
567.54	45868.36
567.74	45456.71
567.94	45454.67
568.14	45438.28
568.34	46003.52
568.54	45577.54
568.74	45632.84
568.94	45178.19
569.14	45813.06
569.34	46079.30
569.54	45905.22
569.75	45673.80
569.95	45761.86
570.15	46304.57
570.35	45997.38
570.55	45950.27
570.75	46052.67
570.95	45704.52
571.15	46097.73
571.35	46214.46
571.55	46232.89
571.75	46200.13
571.95	45788.49
572.15	45765.96
572.35	46427.45
572.55	46320.96
572.75	46110.02
572.95	46130.50
573.15	45712.71
573.35	46314.81
573.55	46073.15
573.75	46171.46
573.95	46292.29
574.15	46288.19
574.35	46372.16
574.55	45909.32
574.75	46009.67
574.95	46282.05
575.15	46327.10
575.34	46148.93
575.54	46863.67
575.74	46355.77
575.94	46523.71
576.14	46732.60
576.34	46857.52
576.54	46628.15
576.74	46773.56
576.94	46462.27
577.14	46785.85
577.34	47199.54
577.54	46601.53
577.74	47054.13
577.94	46845.24
578.14	46869.81
578.34	47297.84
578.54	46464.32
578.74	46550.33
578.94	47584.55
579.14	47158.58
579.34	47338.80
579.54	47211.82
579.74	47441.20
579.94	46863.67
580.13	47412.52
580.33	47381.80
580.53	47037.75
580.73	47611.18
580.93	47392.04
581.13	47193.39
581.33	47926.56
581.53	47697.19
581.73	47228.21
581.93	47727.91
582.13	48012.58
582.33	48045.35
582.53	47746.34
582.73	47658.28
582.92	47883.56
583.12	47969.57
583.32	47891.75
583.52	47777.06
583.72	48274.72
583.92	48084.26
584.12	48241.95
584.32	48467.23
584.52	47971.62
584.72	48008.48
584.92	48241.95
585.11	49052.95
585.31	48153.89
585.51	48612.63
585.71	48571.67
585.91	48596.25
586.11	48104.74
586.31	48299.30
586.51	48282.91
586.71	48579.87
586.91	48301.34
587.10	48540.96
587.30	48694.55
587.50	48803.10
587.70	48895.25
587.90	48801.05
588.10	48866.58
588.30	48944.41
588.50	48731.42
