SpectraSuite Data File
++++++++++++++++++++++++++++++++++++
Date: Fri Jun 02 14:52:25 CEST 2017
User: INFO_000
Dark Spectrum Present: No
Reference Spectrum Present: No
Number of Sampled Component Spectra: 1
Spectrometers: USB4H00879
Integration Time (usec): 80000 (USB4H00879)
Spectra Averaged: 1 (USB4H00879)
Boxcar Smoothing: 0 (USB4H00879)
Correct for Electrical Dark: No (USB4H00879)
Strobe/Lamp Enabled: No (USB4H00879)
Correct for Detector Non-linearity: No (USB4H00879)
Correct for Stray Light: No (USB4H00879)
Number of Pixels in Processed Spectrum: 3648
>>>>>Begin Processed Spectral Data<<<<<
345.13	1290.22
345.34	1290.22
345.56	1290.22
345.78	1273.84
345.99	1357.80
346.21	1697.77
346.42	1746.92
346.64	1671.14
346.86	1730.53
347.07	1746.92
347.29	1652.71
347.50	1630.18
347.72	1691.62
347.94	1738.73
348.15	1552.36
348.37	1597.42
348.59	1687.53
348.80	1669.09
349.02	1843.17
349.23	1888.23
349.45	1857.51
349.67	1910.75
349.88	1802.21
350.10	2013.15
350.31	1802.21
350.53	1794.02
350.75	1877.99
350.96	1783.78
351.18	1906.66
351.39	1875.94
351.61	1826.79
351.82	1920.99
352.04	1916.90
352.26	1837.03
352.47	1935.33
352.69	1896.42
352.90	1732.58
353.12	1808.36
353.34	1851.36
353.55	1966.05
353.77	1837.03
353.98	1863.65
354.20	1900.52
354.41	1900.52
354.63	1984.48
354.85	1939.43
355.06	1839.08
355.28	1787.88
355.49	1941.47
355.71	1908.71
355.92	1912.80
356.14	1943.52
356.35	1890.28
356.57	1877.99
356.79	1968.10
357.00	1873.89
357.22	1947.62
357.43	1818.60
357.65	1935.33
357.86	1863.65
358.08	1875.94
358.29	1904.61
358.51	2019.30
358.72	1916.90
358.94	1910.75
359.16	1966.05
359.37	1957.86
359.59	1978.34
359.80	1984.48
360.02	1992.67
360.23	2009.06
360.45	1990.63
360.66	1822.69
360.88	1877.99
361.09	1851.36
361.31	2015.20
361.52	1953.76
361.74	2050.02
361.95	2119.65
362.17	1982.43
362.38	2103.26
362.60	2033.63
362.81	2035.68
363.03	1982.43
363.24	1957.86
363.46	2119.65
363.67	2035.68
363.89	2009.06
364.10	2019.30
364.32	2043.87
364.53	2142.18
364.75	1826.79
364.96	2007.01
365.18	2080.74
365.39	2007.01
365.61	1978.34
365.82	2088.93
366.04	1990.63
366.25	1998.82
366.47	1978.34
366.68	2052.06
366.90	1935.33
367.11	2031.58
367.33	2084.83
367.54	2084.83
367.76	2095.07
367.97	2133.98
368.19	2035.68
368.40	2070.50
368.62	2035.68
368.83	2062.30
369.05	2027.49
369.26	2007.01
369.48	2009.06
369.69	2047.97
369.91	2088.93
370.12	2060.26
370.33	2101.22
370.55	1996.77
370.76	2070.50
370.98	2127.84
371.19	2078.69
371.41	2009.06
371.62	2013.15
371.84	2031.58
372.05	2207.71
372.27	2103.26
372.48	2144.22
372.69	2047.97
372.91	2123.74
373.12	2138.08
373.34	2050.02
373.55	2109.41
373.77	2133.98
373.98	2095.07
374.20	2166.75
374.41	2289.63
374.62	2146.27
374.84	2281.44
375.05	2197.47
375.27	2170.85
375.48	2217.95
375.70	2244.57
375.91	2179.04
376.12	2306.01
376.34	2150.37
376.55	2256.86
376.77	2205.66
376.98	2113.50
377.19	2183.13
377.41	2136.03
377.62	2176.99
377.84	2217.95
378.05	2344.92
378.27	2162.66
378.48	2299.87
378.69	2256.86
378.91	2293.72
379.12	2217.95
379.34	2230.24
379.55	2299.87
379.76	2271.20
379.98	2195.42
380.19	2279.39
380.41	2293.72
380.62	2306.01
380.83	2254.81
381.05	2211.81
381.26	2430.94
381.47	2295.77
381.69	2326.49
381.90	2383.84
382.12	2365.40
382.33	2254.81
382.54	2349.02
382.76	2281.44
382.97	2357.21
383.19	2328.54
383.40	2387.93
383.61	2394.08
383.83	2377.69
384.04	2322.40
384.25	2394.08
384.47	2389.98
384.68	2344.92
384.89	2269.15
385.11	2344.92
385.32	2365.40
385.54	2410.46
385.75	2402.27
385.96	2463.71
386.18	2443.23
386.39	2510.81
386.60	2408.41
386.82	2453.47
387.03	2478.04
387.24	2457.56
387.46	2553.82
387.67	2439.13
387.88	2619.35
388.10	2502.62
388.31	2519.00
388.52	2725.85
388.74	2588.63
388.95	2514.91
389.16	2480.09
389.38	2494.43
389.59	2594.78
389.80	2699.22
390.02	2652.12
390.23	2670.55
390.44	2502.62
390.66	2594.78
390.87	2551.77
391.08	2668.50
391.30	2818.00
391.51	2609.11
391.72	2729.94
391.94	2605.02
392.15	2629.59
392.36	2693.08
392.58	2719.70
392.79	2682.84
393.00	2746.33
393.22	2805.72
393.43	2830.29
393.64	2764.76
393.85	2764.76
394.07	2701.27
394.28	2781.14
394.49	2766.81
394.71	2789.33
394.92	2807.77
395.13	2725.85
395.35	2795.48
395.56	2844.63
395.77	2752.47
395.98	2854.87
396.20	2942.93
396.41	2926.55
396.62	3006.42
396.84	2875.35
397.05	2883.54
397.26	2981.84
397.47	2920.40
397.69	2832.34
397.90	3164.11
398.11	2912.21
398.32	2877.40
398.54	2990.03
398.75	2969.55
398.96	2959.31
399.18	3129.30
399.39	2981.84
399.60	3123.15
399.81	2953.17
400.03	3018.71
400.24	3170.26
400.45	2961.36
400.66	3039.19
400.88	3006.42
401.09	3082.19
401.30	3084.24
401.51	3196.88
401.73	3182.54
401.94	3094.48
402.15	3084.24
402.36	3035.09
402.58	3241.93
402.79	3252.17
403.00	3057.62
403.21	3117.01
403.43	3221.45
403.64	3286.99
403.85	3170.26
404.06	3311.57
404.27	3203.02
404.49	3207.12
404.70	3096.53
404.91	3370.96
405.12	3301.33
405.34	3260.37
405.55	3481.55
405.76	3141.58
405.97	3209.17
406.19	3330.00
406.40	3215.31
406.61	3430.35
406.82	3440.59
407.03	3340.24
407.25	3311.57
407.46	3391.44
407.67	3487.69
407.88	3354.57
408.09	3293.13
408.31	3399.63
408.52	3502.03
408.73	3436.49
408.94	3368.91
409.15	3481.55
409.37	3485.64
409.58	3522.51
409.79	3487.69
410.00	3590.09
410.21	3512.27
410.43	3600.33
410.64	3489.74
410.85	3553.23
411.06	3454.92
411.27	3600.33
411.48	3594.19
411.70	3618.76
411.91	3588.04
412.12	3653.58
412.33	3655.62
412.54	3712.97
412.76	3649.48
412.97	3739.59
413.18	3491.79
413.39	3706.82
413.60	3706.82
413.81	3698.63
414.03	3643.34
414.24	3690.44
414.45	3864.52
414.66	3649.48
414.87	3624.90
415.08	3753.93
415.30	3794.89
415.51	3786.69
415.72	3905.48
415.93	3815.37
416.14	3751.88
416.35	3870.66
416.56	3776.45
416.78	3813.32
416.99	3889.09
417.20	3897.28
417.41	3878.85
417.62	4005.83
417.83	3932.10
418.04	3852.23
418.26	3981.25
418.47	3905.48
418.68	4009.92
418.89	4030.40
419.10	4116.42
419.31	3960.77
419.52	4136.90
419.73	4050.88
419.95	4202.43
420.16	3880.90
420.37	4079.55
420.58	4104.13
420.79	3919.81
421.00	4206.53
421.21	4249.54
421.42	4044.74
421.63	4313.02
421.85	4104.13
422.06	4278.21
422.27	4204.48
422.48	4188.10
422.69	4382.65
422.90	4276.16
423.11	4353.98
423.32	4343.74
423.53	4546.49
423.75	4372.41
423.96	4456.38
424.17	4503.48
424.38	4759.48
424.59	4444.09
424.80	4691.90
425.01	4515.77
425.22	4411.32
425.43	4521.92
425.64	4853.69
425.85	4704.18
426.06	4673.46
426.28	4667.32
426.49	4597.69
426.70	4431.80
426.91	4745.14
427.12	4726.71
427.33	4773.82
427.54	4739.00
427.75	4706.23
427.96	4872.12
428.17	4857.78
428.38	4923.32
428.59	4984.76
428.80	4851.64
429.01	4812.73
429.23	4929.46
429.44	5144.50
429.65	4925.36
429.86	5087.15
430.07	5033.91
430.28	4853.69
430.49	5183.41
430.70	5310.38
430.91	5250.99
431.12	5058.48
431.33	5429.17
431.54	5298.10
431.75	5136.31
431.96	5179.31
432.17	5244.85
432.38	5220.27
432.59	5488.56
432.80	5377.97
433.01	5451.69
433.22	5494.70
433.43	5463.98
433.64	5435.31
433.85	5386.16
434.06	5615.53
434.27	5396.40
434.49	5697.45
434.70	5683.11
434.91	5509.04
435.12	5607.34
435.33	5660.59
435.54	5734.31
435.75	5431.21
435.96	5631.91
436.17	5588.91
436.38	5734.31
436.59	5758.89
436.80	5666.73
437.01	5912.49
437.22	5922.73
437.43	5722.02
437.64	5660.59
437.85	5791.66
438.06	5875.62
438.27	5896.10
438.48	5896.10
438.69	6006.69
438.90	5932.97
439.11	5887.91
439.32	6145.95
439.53	5885.86
439.74	6059.94
439.95	6098.85
440.16	5998.50
440.37	6086.56
440.57	5998.50
440.78	6162.34
440.99	6094.76
441.20	6127.52
441.41	6113.19
441.62	6154.15
441.83	6031.27
442.04	6162.34
442.25	6211.49
442.46	6111.14
442.67	6387.61
442.88	6686.62
443.09	6094.76
443.30	6135.71
443.51	6277.02
443.72	6522.78
443.93	6191.01
444.14	6547.36
444.35	6236.06
444.56	6410.14
444.77	6422.43
444.98	6475.68
445.19	6539.16
445.40	6500.25
445.61	6578.08
445.81	6690.71
446.02	6526.88
446.23	6506.40
446.44	6420.38
446.65	6477.73
446.86	6610.84
447.07	6752.15
447.28	6825.88
447.49	6829.98
447.70	6743.96
447.91	6784.92
448.12	6721.43
448.33	7026.58
448.54	6700.95
448.74	6635.42
448.95	6789.02
449.16	6807.45
449.37	7143.32
449.58	6848.41
449.79	7088.02
450.00	6750.10
450.21	7163.79
450.42	7040.92
450.63	7198.61
450.84	6922.13
451.05	7176.08
451.25	7124.88
451.46	7131.03
451.67	7237.52
451.88	7282.58
452.09	7186.32
452.30	7204.75
452.51	6940.57
452.72	7417.74
452.93	7589.77
453.13	7028.63
453.34	7298.96
453.55	7255.95
453.76	7507.85
453.97	7608.20
454.18	7530.38
454.39	7415.69
454.60	7505.81
454.81	7477.13
455.01	7532.43
455.22	7344.02
455.43	7557.00
455.64	7843.72
455.85	7923.59
456.06	7958.41
456.27	7675.79
456.48	7726.99
456.68	7946.12
456.89	7937.93
457.10	7919.50
457.31	7980.93
457.52	8048.52
457.73	8048.52
457.94	8247.17
458.14	8011.65
458.35	8386.43
458.56	8173.44
458.77	8060.80
458.98	8286.08
459.19	8204.16
459.39	8451.97
459.60	8560.51
459.81	8597.37
460.02	8517.50
460.23	8558.46
460.44	8873.85
460.65	8781.69
460.85	8761.21
461.06	8847.22
461.27	8537.98
461.48	9006.97
461.69	8906.62
461.89	8648.57
462.10	8910.71
462.31	8744.83
462.52	8970.10
462.73	8951.67
462.94	9387.89
463.14	9099.13
463.35	8892.28
463.56	9641.84
463.77	9490.29
463.98	9236.34
464.18	9471.86
464.39	9604.97
464.60	9828.20
464.81	9777.00
465.02	9578.35
465.23	9875.31
465.43	9713.52
465.64	9910.12
465.85	9688.94
466.06	9856.87
466.27	10211.17
466.47	10256.23
466.68	10149.73
466.89	10055.53
467.10	10307.43
467.30	9928.55
467.51	10436.45
467.72	10497.89
467.93	10317.67
468.14	10499.94
468.34	10743.64
468.55	10585.95
468.76	10815.32
468.97	10553.18
469.17	10940.25
469.38	10985.30
469.59	11169.62
469.80	10895.19
470.01	11046.74
470.21	11085.65
470.42	11327.32
470.63	11241.30
470.84	11183.96
471.04	11571.02
471.25	11601.74
471.46	11493.20
471.67	11904.84
471.87	11714.38
472.08	11519.82
472.29	12066.63
472.50	11839.31
472.70	11863.88
472.91	11841.36
473.12	12320.58
473.33	12148.55
473.53	12556.10
473.74	12326.72
473.95	12443.46
474.16	12633.92
474.36	12605.25
474.57	13010.75
474.78	13104.95
474.99	12894.01
475.19	12945.21
475.40	13219.64
475.61	13276.98
475.81	13338.42
476.02	13639.47
476.23	13442.87
476.44	13752.11
476.64	14090.02
476.85	13807.41
477.06	13836.08
477.27	14098.22
477.47	14223.14
477.68	14413.60
477.89	14452.52
478.09	14421.80
478.30	14429.99
478.51	14440.23
478.71	14735.14
478.92	14782.24
479.13	14978.84
479.34	15007.52
479.54	15195.93
479.75	15204.12
479.96	15253.27
480.16	15132.44
480.37	15267.61
480.58	15480.60
480.78	15736.59
480.99	15738.64
481.20	15984.40
481.41	16011.02
481.61	15820.56
481.82	16150.28
482.03	16097.03
482.23	16330.50
482.44	16432.90
482.65	16183.05
482.85	16924.41
483.06	16604.93
483.27	16893.69
483.47	16828.16
483.68	16809.73
483.89	16914.17
484.09	17002.24
484.30	17219.32
484.51	17411.83
484.71	17608.44
484.92	17463.03
485.13	17501.94
485.33	17671.92
485.54	17682.16
485.75	17977.07
485.95	18233.07
486.16	17989.36
486.37	18478.82
486.57	18079.47
486.78	18499.30
486.98	18351.85
487.19	18661.09
487.40	18738.91
487.60	18743.01
487.81	18640.61
488.02	19029.73
488.22	18824.93
488.43	19105.50
488.64	19058.40
488.84	19230.43
489.05	19351.26
489.25	19316.44
489.46	19590.87
489.67	19664.60
489.87	19812.05
490.08	19816.15
490.29	19801.81
490.49	20180.68
490.70	20055.76
490.90	20313.80
491.11	20039.37
491.32	20307.66
491.52	20555.46
491.73	20491.98
491.94	20541.13
492.14	20571.85
492.35	20831.94
492.55	21036.74
492.76	20911.81
492.97	21178.04
493.17	21157.57
493.38	21233.34
493.58	21298.88
493.79	21534.39
494.00	21313.21
494.20	21198.52
494.41	21677.75
494.61	21675.70
494.82	21642.93
495.02	21606.07
495.23	21802.68
495.44	21765.81
495.64	22077.10
495.85	21837.49
496.05	22179.50
496.26	22093.49
496.47	22437.55
496.67	22150.83
496.88	22632.10
497.08	22156.97
497.29	22920.87
497.49	22394.54
497.70	22681.25
497.91	22793.89
498.11	22652.58
498.32	22967.97
498.52	23021.22
498.73	23615.13
498.93	23287.45
499.14	23287.45
499.34	23471.77
499.55	23412.38
499.76	23314.08
499.96	23482.01
500.17	23850.64
500.37	23512.73
500.58	23461.53
500.78	23840.40
500.99	23617.18
501.19	23875.22
501.40	23760.53
501.60	23795.35
501.81	23918.23
502.02	24155.79
502.22	23877.27
502.43	24252.05
502.63	24444.56
502.84	24329.87
503.04	24184.46
503.25	24342.16
503.45	24635.02
503.66	24641.16
503.86	24309.39
504.07	24872.58
504.27	24479.37
504.48	25011.84
504.68	24966.79
504.89	25308.80
505.09	25171.58
505.30	25050.75
505.50	24882.82
505.71	25073.28
505.91	25448.06
506.12	25269.89
506.32	25235.07
506.53	25263.74
506.73	25370.24
506.94	25577.08
507.14	25433.72
507.35	25501.31
507.55	25624.18
507.76	26052.21
507.96	25695.86
508.17	25585.27
508.37	25740.92
508.58	25798.26
508.78	25804.41
508.99	26111.60
509.19	26148.46
509.40	26066.55
509.60	26162.80
509.81	26334.83
510.01	26291.82
510.22	26488.43
510.42	26259.06
510.63	26443.37
510.83	26496.62
511.04	26592.87
511.24	26762.86
511.44	26441.32
511.65	26648.17
511.85	26459.76
512.06	26582.63
512.26	26842.73
512.47	27143.78
512.67	26996.32
512.88	27020.90
513.08	26824.29
513.29	26914.41
513.49	27115.11
513.69	27008.61
513.90	27012.71
514.10	27190.88
514.31	27418.21
514.51	27078.24
514.72	27270.75
514.92	27829.85
515.13	27274.85
515.33	27805.27
515.53	27520.60
515.74	27770.46
515.94	27704.92
516.15	27864.66
516.35	27588.19
516.56	27954.77
516.76	27842.14
516.96	27801.18
517.17	28059.22
517.37	28085.84
517.58	28204.63
517.78	28534.35
517.99	28364.37
518.19	28888.65
518.39	28606.03
518.60	28794.44
518.80	28390.99
519.01	28849.74
519.21	28837.45
519.41	29083.20
519.62	28646.99
519.82	28868.17
520.03	29023.81
520.23	29042.24
520.43	28810.82
520.64	29318.72
520.84	29709.88
521.05	29367.87
521.25	29802.04
521.45	29562.43
521.66	29773.37
521.86	29838.90
522.07	29922.87
522.27	29875.77
522.47	29705.79
522.68	30109.24
522.88	29947.45
523.08	30524.97
523.29	30309.94
523.49	30150.20
523.70	30522.93
523.90	30662.19
524.10	30492.21
524.31	30760.49
524.51	30848.55
524.71	30785.07
524.92	30717.48
525.12	31024.68
525.33	30793.26
525.53	30969.38
525.73	31225.38
525.94	31315.49
526.14	31327.78
526.34	31643.17
526.55	31653.40
526.75	31948.31
526.95	32134.68
527.16	31761.95
527.36	31839.77
527.56	32368.15
527.77	32028.18
527.97	32441.87
528.17	32519.70
528.38	32554.51
528.58	32503.31
528.78	32769.55
528.99	32618.00
529.19	33107.46
529.39	32521.74
529.60	33234.44
529.80	32974.34
530.00	32949.77
530.21	33291.78
530.41	33881.60
530.61	33431.04
530.82	33400.32
531.02	33707.52
531.22	34051.58
531.43	33924.60
531.63	34059.77
531.83	34344.44
532.04	34741.74
532.24	34457.07
532.44	34776.56
532.64	34819.56
532.85	34997.74
533.05	35053.03
533.25	35024.36
533.46	34844.14
533.66	35452.39
533.86	35087.85
534.07	35681.76
534.27	35624.42
534.47	35687.90
534.67	35542.50
534.88	35501.54
535.08	36013.53
535.28	36095.45
535.49	36273.62
535.69	36459.99
535.89	36408.79
536.09	36115.93
536.30	36603.35
536.50	36830.67
536.70	36793.81
536.91	37219.78
537.11	37105.10
537.31	36877.77
537.51	37449.16
537.72	37428.68
537.92	37416.39
538.12	37627.33
538.32	37381.57
538.53	37680.58
538.73	37735.87
538.93	37717.44
539.13	37574.08
539.34	37717.44
539.54	38213.05
539.74	38270.39
539.94	38614.45
540.15	38485.43
540.35	38512.05
540.55	38329.78
540.75	38831.54
540.96	38823.34
541.16	38507.96
541.36	38784.43
541.56	38915.50
541.77	39347.62
541.97	39476.65
542.17	39669.15
542.37	39433.64
542.58	39419.30
542.78	39185.83
542.98	39736.74
543.18	39720.35
543.38	40185.24
543.59	40148.38
543.79	39853.47
543.99	40023.45
544.19	40193.43
544.40	39947.68
544.60	40402.33
544.80	39845.28
545.00	40435.10
545.20	40539.54
545.41	40261.02
545.61	40306.07
545.81	41063.82
546.01	40797.59
546.21	40043.93
546.42	40523.16
546.62	41217.42
546.82	40981.90
547.02	40940.94
547.22	41006.48
547.43	41276.81
547.63	41635.20
547.83	41481.61
548.03	41125.26
548.23	41303.43
548.44	41270.67
548.64	41788.80
548.84	41483.66
549.04	41713.03
549.24	41727.36
549.45	42042.75
549.65	41506.18
549.85	41969.02
550.05	42114.43
550.25	42038.65
550.45	42507.64
550.66	42282.36
550.86	41794.95
551.06	42517.88
551.26	42302.84
551.46	42642.81
551.66	42454.39
551.87	42530.17
552.07	42575.22
552.27	42397.05
552.47	42802.55
552.67	42982.77
552.87	42534.26
553.07	42780.02
553.28	43081.07
553.48	43009.39
553.68	42683.76
553.88	43273.58
554.08	43365.74
554.28	43369.83
554.48	43132.27
554.69	43003.25
554.89	43089.26
555.09	43365.74
555.29	43029.87
555.49	43656.55
555.69	43476.33
555.89	42825.07
556.10	43552.10
556.30	43588.97
556.50	43550.06
556.70	43162.99
556.90	43427.18
557.10	43801.96
557.30	43437.42
557.50	44055.90
557.70	44004.70
557.91	43771.24
558.11	43713.89
558.31	43709.80
558.51	43857.25
558.71	43775.33
558.91	44027.23
559.11	43724.13
559.31	44096.86
559.51	43574.63
559.72	43963.75
559.92	44135.77
560.12	43601.25
560.32	44062.05
560.52	43933.03
560.72	44270.94
560.92	44500.31
561.12	44100.96
561.32	44414.30
561.52	44275.04
561.72	44696.92
561.93	43818.34
562.13	44197.21
562.33	43689.32
562.53	44580.18
562.73	44328.28
562.93	44092.77
563.13	44739.93
563.33	44352.86
563.53	44582.23
563.73	44275.04
563.93	44356.96
564.13	44797.27
564.33	44471.64
564.53	44547.42
564.74	44580.18
564.94	44442.97
565.14	44537.18
565.34	44287.32
565.54	44985.68
565.74	44838.23
565.94	45090.13
566.14	44838.23
566.34	44567.90
566.54	45079.89
566.74	44356.96
566.94	44862.80
567.14	44897.62
567.34	44774.74
567.54	45163.85
567.74	44840.28
567.94	44639.57
568.14	45110.61
568.34	45241.68
568.54	44846.42
568.74	45561.16
568.94	45108.56
569.14	45266.25
569.34	45086.03
569.54	45256.01
569.75	44901.71
569.95	45385.04
570.15	45452.62
570.35	45366.60
570.55	45327.69
570.75	45456.71
570.95	45413.71
571.15	45407.56
571.35	45065.55
571.55	45843.78
571.75	45589.83
571.95	45284.68
572.15	45133.14
572.35	45684.04
572.55	45507.91
572.75	45538.63
572.95	45638.98
573.15	45612.36
573.35	45792.58
573.55	45475.15
573.75	45442.38
573.95	45706.57
574.15	45890.88
574.35	45829.44
574.55	45354.32
574.75	45727.05
574.95	46163.26
575.15	45450.57
575.34	45987.14
575.54	46169.41
575.74	46130.50
575.94	46196.03
576.14	45937.99
576.34	46007.62
576.54	46292.29
576.74	46167.36
576.94	46288.19
577.14	46396.73
577.34	46658.87
577.54	46212.41
577.74	46880.05
577.94	46499.13
578.14	46550.33
578.34	46550.33
578.54	46155.07
578.74	46447.93
578.94	46503.23
579.14	46331.20
579.34	46826.81
579.54	46648.63
579.74	46886.20
579.94	46605.62
580.13	47011.12
580.33	47068.47
580.53	46982.45
580.73	47258.93
580.93	46638.39
581.13	47086.90
581.33	47349.04
581.53	47435.05
581.73	46961.97
581.93	47465.77
582.13	47498.54
582.33	47457.58
582.53	47246.64
582.73	47201.58
582.92	47602.99
583.12	48110.88
583.32	47428.91
583.52	47643.94
583.72	47799.59
583.92	47609.13
584.12	47953.19
584.32	47949.09
584.52	47787.30
584.72	47961.38
584.92	48049.44
585.11	48317.73
585.31	48080.16
585.51	47969.57
585.71	48235.81
585.91	48164.13
586.11	48045.35
586.31	48309.53
586.51	48252.19
586.71	48379.17
586.91	48530.72
587.10	48534.81
587.30	48426.27
587.50	48436.51
587.70	48569.63
587.90	48903.45
588.10	48317.73
588.30	48557.34
588.50	48909.59
