SpectraSuite Data File
++++++++++++++++++++++++++++++++++++
Date: Fri Jun 02 14:52:22 CEST 2017
User: INFO_000
Dark Spectrum Present: No
Reference Spectrum Present: No
Number of Sampled Component Spectra: 1
Spectrometers: USB4H00879
Integration Time (usec): 80000 (USB4H00879)
Spectra Averaged: 1 (USB4H00879)
Boxcar Smoothing: 0 (USB4H00879)
Correct for Electrical Dark: No (USB4H00879)
Strobe/Lamp Enabled: No (USB4H00879)
Correct for Detector Non-linearity: No (USB4H00879)
Correct for Stray Light: No (USB4H00879)
Number of Pixels in Processed Spectrum: 3648
>>>>>Begin Processed Spectral Data<<<<<
345.13	1300.46
345.34	1300.46
345.56	1300.46
345.78	1253.36
345.99	1302.51
346.21	1716.20
346.42	1726.44
346.64	1691.62
346.86	1779.68
347.07	1742.82
347.29	1708.01
347.50	1652.71
347.72	1640.42
347.94	1753.06
348.15	1615.85
348.37	1630.18
348.59	1642.47
348.80	1626.09
349.02	1716.20
349.23	1794.02
349.45	1730.53
349.67	1822.69
349.88	1755.11
350.10	1845.22
350.31	1746.92
350.53	1691.62
350.75	1902.56
350.96	1621.99
351.18	1708.01
351.39	1740.77
351.61	1548.26
351.82	1834.98
352.04	1736.68
352.26	1679.33
352.47	1722.34
352.69	1761.25
352.90	1597.42
353.12	1673.19
353.34	1650.66
353.55	1785.83
353.77	1724.39
353.98	1687.53
354.20	1671.14
354.41	1761.25
354.63	1769.44
354.85	1896.42
355.06	1736.68
355.28	1640.42
355.49	1738.73
355.71	1701.86
355.92	1744.87
356.14	1726.44
356.35	1660.90
356.57	1648.61
356.79	1732.58
357.00	1673.19
357.22	1808.36
357.43	1693.67
357.65	1753.06
357.86	1662.95
358.08	1685.48
358.29	1728.49
358.51	1796.07
358.72	1791.97
358.94	1593.32
359.16	1720.29
359.37	1730.53
359.59	1718.25
359.80	1748.97
360.02	1691.62
360.23	1777.64
360.45	1787.88
360.66	1687.53
360.88	1564.65
361.09	1722.34
361.31	1701.86
361.52	1742.82
361.74	1732.58
361.95	1826.79
362.17	1730.53
362.38	1808.36
362.60	1746.92
362.81	1679.33
363.03	1615.85
363.24	1697.77
363.46	1832.93
363.67	1781.73
363.89	1699.81
364.10	1679.33
364.32	1699.81
364.53	1804.26
364.75	1599.46
364.96	1703.91
365.18	1761.25
365.39	1738.73
365.61	1652.71
365.82	1820.64
366.04	1621.99
366.25	1693.67
366.47	1740.77
366.68	1773.54
366.90	1654.76
367.11	1806.31
367.33	1791.97
367.54	1667.05
367.76	1710.05
367.97	1769.44
368.19	1734.63
368.40	1691.62
368.62	1574.89
368.83	1632.23
369.05	1751.01
369.26	1714.15
369.48	1589.22
369.69	1679.33
369.91	1748.97
370.12	1759.21
370.33	1761.25
370.55	1677.29
370.76	1685.48
370.98	1708.01
371.19	1720.29
371.41	1732.58
371.62	1771.49
371.84	1644.52
372.05	1853.41
372.27	1667.05
372.48	1695.72
372.69	1738.73
372.91	1708.01
373.12	1783.78
373.34	1642.47
373.55	1724.39
373.77	1724.39
373.98	1738.73
374.20	1798.12
374.41	1765.35
374.62	1701.86
374.84	1748.97
375.05	1724.39
375.27	1685.48
375.48	1652.71
375.70	1728.49
375.91	1763.30
376.12	1724.39
376.34	1644.52
376.55	1734.63
376.77	1740.77
376.98	1630.18
377.19	1613.80
377.41	1626.09
377.62	1667.05
377.84	1763.30
378.05	1748.97
378.27	1669.09
378.48	1900.52
378.69	1843.17
378.91	1828.84
379.12	1703.91
379.34	1665.00
379.55	1732.58
379.76	1732.58
379.98	1683.43
380.19	1742.82
380.41	1722.34
380.62	1781.73
380.83	1662.95
381.05	1593.32
381.26	1834.98
381.47	1652.71
381.69	1683.43
381.90	1794.02
382.12	1716.20
382.33	1728.49
382.54	1744.87
382.76	1798.12
382.97	1681.38
383.19	1634.28
383.40	1693.67
383.61	1675.24
383.83	1705.96
384.04	1665.00
384.25	1679.33
384.47	1783.78
384.68	1728.49
384.89	1689.57
385.11	1634.28
385.32	1617.90
385.54	1687.53
385.75	1681.38
385.96	1685.48
386.18	1724.39
386.39	1697.77
386.60	1658.85
386.82	1652.71
387.03	1654.76
387.24	1718.25
387.46	1693.67
387.67	1654.76
387.88	1693.67
388.10	1683.43
388.31	1742.82
388.52	1822.69
388.74	1701.86
388.95	1679.33
389.16	1759.21
389.38	1726.44
389.59	1722.34
389.80	1775.59
390.02	1675.24
390.23	1771.49
390.44	1748.97
390.66	1765.35
390.87	1642.47
391.08	1695.72
391.30	1734.63
391.51	1722.34
391.72	1716.20
391.94	1791.97
392.15	1646.57
392.36	1658.85
392.58	1701.86
392.79	1716.20
393.00	1736.68
393.22	1744.87
393.43	1777.64
393.64	1785.83
393.85	1746.92
394.07	1642.47
394.28	1667.05
394.49	1738.73
394.71	1777.64
394.92	1724.39
395.13	1617.90
395.35	1642.47
395.56	1712.10
395.77	1746.92
395.98	1695.72
396.20	1714.15
396.41	1712.10
396.62	1712.10
396.84	1642.47
397.05	1714.15
397.26	1691.62
397.47	1796.07
397.69	1624.04
397.90	1839.08
398.11	1771.49
398.32	1646.57
398.54	1697.77
398.75	1683.43
398.96	1691.62
399.18	1814.50
399.39	1679.33
399.60	1712.10
399.81	1662.95
400.03	1615.85
400.24	1912.80
400.45	1740.77
400.66	1736.68
400.88	1648.61
401.09	1937.38
401.30	1609.70
401.51	1820.64
401.73	1794.02
401.94	1699.81
402.15	1564.65
402.36	1718.25
402.58	1769.44
402.79	1714.15
403.00	1679.33
403.21	1775.59
403.43	1740.77
403.64	1794.02
403.85	1662.95
404.06	1697.77
404.27	1634.28
404.49	1656.81
404.70	1677.29
404.91	1822.69
405.12	1683.43
405.34	1718.25
405.55	1740.77
405.76	1591.27
405.97	1714.15
406.19	1834.98
406.40	1617.90
406.61	1742.82
406.82	1644.52
407.03	1726.44
407.25	1611.75
407.46	1794.02
407.67	1753.06
407.88	1816.55
408.09	1667.05
408.31	1697.77
408.52	1785.83
408.73	1689.57
408.94	1722.34
409.15	1720.29
409.37	1740.77
409.58	1738.73
409.79	1671.14
410.00	1882.08
410.21	1613.80
410.43	1656.81
410.64	1667.05
410.85	1732.58
411.06	1751.01
411.27	1687.53
411.48	1845.22
411.70	1687.53
411.91	1720.29
412.12	1773.54
412.33	1847.27
412.54	1634.28
412.76	1660.90
412.97	1787.88
413.18	1634.28
413.39	1763.30
413.60	1816.55
413.81	1728.49
414.03	1597.42
414.24	1656.81
414.45	1865.70
414.66	1685.48
414.87	1761.25
415.08	1691.62
415.30	1716.20
415.51	1695.72
415.72	1757.16
415.93	1667.05
416.14	1771.49
416.35	1763.30
416.56	1777.64
416.78	1722.34
416.99	1615.85
417.20	1751.01
417.41	1787.88
417.62	1705.96
417.83	1767.40
418.04	1724.39
418.26	1769.44
418.47	1695.72
418.68	1771.49
418.89	1708.01
419.10	1843.17
419.31	1716.20
419.52	1660.90
419.73	1724.39
419.95	1681.38
420.16	1673.19
420.37	1703.91
420.58	1722.34
420.79	1632.23
421.00	1656.81
421.21	1671.14
421.42	1689.57
421.63	1781.73
421.85	1648.61
422.06	1671.14
422.27	1724.39
422.48	1726.44
422.69	1716.20
422.90	1568.74
423.11	1615.85
423.32	1814.50
423.53	1822.69
423.75	1619.94
423.96	1730.53
424.17	1789.92
424.38	1806.31
424.59	1665.00
424.80	1697.77
425.01	1652.71
425.22	1552.36
425.43	1757.16
425.64	1802.21
425.85	1761.25
426.06	1724.39
426.28	1712.10
426.49	1730.53
426.70	1697.77
426.91	1679.33
427.12	1701.86
427.33	1646.57
427.54	1652.71
427.75	1716.20
427.96	1751.01
428.17	1748.97
428.38	1673.19
428.59	1671.14
428.80	1624.04
429.01	1665.00
429.23	1757.16
429.44	1605.61
429.65	1744.87
429.86	1701.86
430.07	1705.96
430.28	1689.57
430.49	1736.68
430.70	1710.05
430.91	1791.97
431.12	1570.79
431.33	1689.57
431.54	1687.53
431.75	1708.01
431.96	1642.47
432.17	1777.64
432.38	1738.73
432.59	1808.36
432.80	1773.54
433.01	1738.73
433.22	1636.33
433.43	1738.73
433.64	1757.16
433.85	1759.21
434.06	1755.11
434.27	1654.76
434.49	1679.33
434.70	1718.25
434.91	1722.34
435.12	1648.61
435.33	1722.34
435.54	1708.01
435.75	1595.37
435.96	1675.24
436.17	1730.53
436.38	1736.68
436.59	1708.01
436.80	1665.00
437.01	1785.83
437.22	1773.54
437.43	1761.25
437.64	1683.43
437.85	1675.24
438.06	1757.16
438.27	1718.25
438.48	1656.81
438.69	1656.81
438.90	1642.47
439.11	1617.90
439.32	1812.45
439.53	1648.61
439.74	1695.72
439.95	1665.00
440.16	1626.09
440.37	1751.01
440.57	1712.10
440.78	1746.92
440.99	1712.10
441.20	1714.15
441.41	1601.51
441.62	1679.33
441.83	1578.98
442.04	1611.75
442.25	1724.39
442.46	1572.84
442.67	1640.42
442.88	1847.27
443.09	1691.62
443.30	1628.14
443.51	1693.67
443.72	1705.96
443.93	1681.38
444.14	1794.02
444.35	1644.52
444.56	1669.09
444.77	1640.42
444.98	1748.97
445.19	1652.71
445.40	1658.85
445.61	1673.19
445.81	1675.24
446.02	1753.06
446.23	1693.67
446.44	1562.60
446.65	1681.38
446.86	1720.29
447.07	1902.56
447.28	1595.37
447.49	1695.72
447.70	1656.81
447.91	1744.87
448.12	1687.53
448.33	1763.30
448.54	1685.48
448.74	1660.90
448.95	1603.56
449.16	1777.64
449.37	1757.16
449.58	1722.34
449.79	1738.73
450.00	1660.90
450.21	1683.43
450.42	1675.24
450.63	1677.29
450.84	1665.00
451.05	1732.58
451.25	1646.57
451.46	1634.28
451.67	1654.76
451.88	1736.68
452.09	1677.29
452.30	1695.72
452.51	1638.38
452.72	1751.01
452.93	1820.64
453.13	1685.48
453.34	1671.14
453.55	1673.19
453.76	1703.91
453.97	1708.01
454.18	1601.51
454.39	1781.73
454.60	1701.86
454.81	1769.44
455.01	1693.67
455.22	1566.70
455.43	1673.19
455.64	1765.35
455.85	1769.44
456.06	1800.16
456.27	1769.44
456.48	1654.76
456.68	1716.20
456.89	1824.74
457.10	1689.57
457.31	1693.67
457.52	1757.16
457.73	1726.44
457.94	1687.53
458.14	1581.03
458.35	1761.25
458.56	1738.73
458.77	1667.05
458.98	1673.19
459.19	1632.23
459.39	1679.33
459.60	1644.52
459.81	1675.24
460.02	1753.06
460.23	1802.21
460.44	1691.62
460.65	1714.15
460.85	1650.66
461.06	1685.48
461.27	1662.95
461.48	1695.72
461.69	1640.42
461.89	1511.40
462.10	1691.62
462.31	1601.51
462.52	1640.42
462.73	1617.90
462.94	1689.57
463.14	1669.09
463.35	1652.71
463.56	1781.73
463.77	1765.35
463.98	1605.61
464.18	1650.66
464.39	1761.25
464.60	1691.62
464.81	1665.00
465.02	1712.10
465.23	1718.25
465.43	1728.49
465.64	1705.96
465.85	1683.43
466.06	1724.39
466.27	1701.86
466.47	1689.57
466.68	1740.77
466.89	1658.85
467.10	1619.94
467.30	1621.99
467.51	1777.64
467.72	1748.97
467.93	1597.42
468.14	1630.18
468.34	1685.48
468.55	1658.85
468.76	1755.11
468.97	1605.61
469.17	1763.30
469.38	1755.11
469.59	1728.49
469.80	1695.72
470.01	1673.19
470.21	1699.81
470.42	1689.57
470.63	1679.33
470.84	1732.58
471.04	1691.62
471.25	1722.34
471.46	1773.54
471.67	1746.92
471.87	1630.18
472.08	1785.83
472.29	1728.49
472.50	1708.01
472.70	1712.10
472.91	1740.77
473.12	1740.77
473.33	1656.81
473.53	1710.05
473.74	1665.00
473.95	1677.29
474.16	1640.42
474.36	1617.90
474.57	1759.21
474.78	1591.27
474.99	1845.22
475.19	1693.67
475.40	1712.10
475.61	1691.62
475.81	1738.73
476.02	1671.14
476.23	1681.38
476.44	1671.14
476.64	1658.85
476.85	1697.77
477.06	1603.56
477.27	1665.00
477.47	1740.77
477.68	1765.35
477.89	1814.50
478.09	1724.39
478.30	1685.48
478.51	1683.43
478.71	1624.04
478.92	1724.39
479.13	1732.58
479.34	1601.51
479.54	1728.49
479.75	1712.10
479.96	1705.96
480.16	1734.63
480.37	1648.61
480.58	1660.90
480.78	1853.41
480.99	1642.47
481.20	1675.24
481.41	1742.82
481.61	1697.77
481.82	1720.29
482.03	1675.24
482.23	1650.66
482.44	1757.16
482.65	1796.07
482.85	1794.02
483.06	1726.44
483.27	1708.01
483.47	1753.06
483.68	1695.72
483.89	1650.66
484.09	1650.66
484.30	1677.29
484.51	1732.58
484.71	1652.71
484.92	1640.42
485.13	1738.73
485.33	1628.14
485.54	1701.86
485.75	1771.49
485.95	1814.50
486.16	1699.81
486.37	1687.53
486.57	1615.85
486.78	1718.25
486.98	1703.91
487.19	1669.09
487.40	1746.92
487.60	1638.38
487.81	1628.14
488.02	1601.51
488.22	1648.61
488.43	1716.20
488.64	1638.38
488.84	1642.47
489.05	1687.53
489.25	1646.57
489.46	1705.96
489.67	1730.53
489.87	1755.11
490.08	1691.62
490.29	1609.70
490.49	1818.60
490.70	1773.54
490.90	1681.38
491.11	1626.09
491.32	1667.05
491.52	1708.01
491.73	1703.91
491.94	1746.92
492.14	1619.94
492.35	1630.18
492.55	1845.22
492.76	1683.43
492.97	1646.57
493.17	1736.68
493.38	1736.68
493.58	1724.39
493.79	1675.24
494.00	1703.91
494.20	1581.03
494.41	1720.29
494.61	1658.85
494.82	1710.05
495.02	1662.95
495.23	1785.83
495.44	1630.18
495.64	1744.87
495.85	1656.81
496.05	1728.49
496.26	1699.81
496.47	1748.97
496.67	1697.77
496.88	1798.12
497.08	1652.71
497.29	1640.42
497.49	1763.30
497.70	1621.99
497.91	1646.57
498.11	1759.21
498.32	1705.96
498.52	1697.77
498.73	1626.09
498.93	1783.78
499.14	1718.25
499.34	1771.49
499.55	1714.15
499.76	1726.44
499.96	1673.19
500.17	1738.73
500.37	1781.73
500.58	1669.09
500.78	1673.19
500.99	1708.01
501.19	1732.58
501.40	1751.01
501.60	1593.32
501.81	1652.71
502.02	1683.43
502.22	1720.29
502.43	1695.72
502.63	1804.26
502.84	1708.01
503.04	1705.96
503.25	1685.48
503.45	1751.01
503.66	1628.14
503.86	1650.66
504.07	1662.95
504.27	1658.85
504.48	1716.20
504.68	1701.86
504.89	1781.73
505.09	1613.80
505.30	1691.62
505.50	1751.01
505.71	1669.09
505.91	1728.49
506.12	1738.73
506.32	1732.58
506.53	1607.66
506.73	1699.81
506.94	1652.71
507.14	1665.00
507.35	1685.48
507.55	1624.04
507.76	1718.25
507.96	1585.13
508.17	1759.21
508.37	1665.00
508.58	1736.68
508.78	1656.81
508.99	1814.50
509.19	1751.01
509.40	1742.82
509.60	1720.29
509.81	1818.60
510.01	1675.24
510.22	1681.38
510.42	1722.34
510.63	1738.73
510.83	1804.26
511.04	1646.57
511.24	1779.68
511.44	1697.77
511.65	1667.05
511.85	1605.61
512.06	1703.91
512.26	1673.19
512.47	1732.58
512.67	1732.58
512.88	1742.82
513.08	1703.91
513.29	1744.87
513.49	1710.05
513.69	1732.58
513.90	1601.51
514.10	1746.92
514.31	1679.33
514.51	1642.47
514.72	1714.15
514.92	1677.29
515.13	1679.33
515.33	1669.09
515.53	1654.76
515.74	1728.49
515.94	1658.85
516.15	1789.92
516.35	1595.37
516.56	1617.90
516.76	1705.96
516.96	1667.05
517.17	1714.15
517.37	1675.24
517.58	1630.18
517.78	1650.66
517.99	1744.87
518.19	1814.50
518.39	1769.44
518.60	1765.35
518.80	1648.61
519.01	1773.54
519.21	1658.85
519.41	1665.00
519.62	1691.62
519.82	1732.58
520.03	1634.28
520.23	1671.14
520.43	1568.74
520.64	1783.78
520.84	1830.88
521.05	1667.05
521.25	1730.53
521.45	1712.10
521.66	1708.01
521.86	1705.96
522.07	1669.09
522.27	1683.43
522.47	1677.29
522.68	1748.97
522.88	1701.86
523.08	1744.87
523.29	1587.18
523.49	1617.90
523.70	1705.96
523.90	1703.91
524.10	1699.81
524.31	1660.90
524.51	1499.11
524.71	1818.60
524.92	1775.59
525.12	1644.52
525.33	1712.10
525.53	1646.57
525.73	1716.20
525.94	1724.39
526.14	1703.91
526.34	1667.05
526.55	1685.48
526.75	1636.33
526.95	1798.12
527.16	1656.81
527.36	1720.29
527.56	1734.63
527.77	1626.09
527.97	1751.01
528.17	1640.42
528.38	1697.77
528.58	1660.90
528.78	1679.33
528.99	1710.05
529.19	1697.77
529.39	1660.90
529.60	1630.18
529.80	1619.94
530.00	1611.75
530.21	1673.19
530.41	1642.47
530.61	1742.82
530.82	1714.15
531.02	1693.67
531.22	1689.57
531.43	1669.09
531.63	1742.82
531.83	1675.24
532.04	1722.34
532.24	1665.00
532.44	1675.24
532.64	1712.10
532.85	1554.41
533.05	1710.05
533.25	1583.08
533.46	1691.62
533.66	1708.01
533.86	1650.66
534.07	1736.68
534.27	1718.25
534.47	1748.97
534.67	1685.48
534.88	1636.33
535.08	1757.16
535.28	1724.39
535.49	1634.28
535.69	1708.01
535.89	1732.58
536.09	1736.68
536.30	1728.49
536.50	1681.38
536.70	1742.82
536.91	1693.67
537.11	1761.25
537.31	1736.68
537.51	1679.33
537.72	1746.92
537.92	1640.42
538.12	1734.63
538.32	1753.06
538.53	1638.38
538.73	1687.53
538.93	1777.64
539.13	1800.16
539.34	1736.68
539.54	1652.71
539.74	1722.34
539.94	1794.02
540.15	1730.53
540.35	1724.39
540.55	1591.27
540.75	1607.66
540.96	1714.15
541.16	1751.01
541.36	1716.20
541.56	1716.20
541.77	1773.54
541.97	1673.19
542.17	1636.33
542.37	1767.40
542.58	1773.54
542.78	1765.35
542.98	1730.53
543.18	1730.53
543.38	1806.31
543.59	1638.38
543.79	1669.09
543.99	1607.66
544.19	1617.90
544.40	1701.86
544.60	1736.68
544.80	1716.20
545.00	1585.13
545.20	1777.64
545.41	1626.09
545.61	1601.51
545.81	1648.61
546.01	1724.39
546.21	1640.42
546.42	1703.91
546.62	1726.44
546.82	1642.47
547.02	1624.04
547.22	1609.70
547.43	1714.15
547.63	1693.67
547.83	1685.48
548.03	1656.81
548.23	1683.43
548.44	1726.44
548.64	1621.99
548.84	1644.52
549.04	1665.00
549.24	1763.30
549.45	1806.31
549.65	1691.62
549.85	1699.81
550.05	1705.96
550.25	1533.93
550.45	1726.44
550.66	1806.31
550.86	1656.81
551.06	1671.14
551.26	1646.57
551.46	1673.19
551.66	1720.29
551.87	1708.01
552.07	1751.01
552.27	1632.23
552.47	1720.29
552.67	1689.57
552.87	1699.81
553.07	1632.23
553.28	1740.77
553.48	1605.61
553.68	1689.57
553.88	1714.15
554.08	1681.38
554.28	1669.09
554.48	1624.04
554.69	1748.97
554.89	1665.00
555.09	1654.76
555.29	1611.75
555.49	1648.61
555.69	1646.57
555.89	1703.91
556.10	1671.14
556.30	1630.18
556.50	1759.21
556.70	1667.05
556.90	1642.47
557.10	1720.29
557.30	1679.33
557.50	1585.13
557.70	1642.47
557.91	1675.24
558.11	1673.19
558.31	1781.73
558.51	1634.28
558.71	1712.10
558.91	1808.36
559.11	1695.72
559.31	1699.81
559.51	1630.18
559.72	1736.68
559.92	1630.18
560.12	1617.90
560.32	1785.83
560.52	1773.54
560.72	1671.14
560.92	1722.34
561.12	1769.44
561.32	1662.95
561.52	1683.43
561.72	1865.70
561.93	1843.17
562.13	1738.73
562.33	1732.58
562.53	1640.42
562.73	1667.05
562.93	1683.43
563.13	1765.35
563.33	1757.16
563.53	1755.11
563.73	1732.58
563.93	1753.06
564.13	1744.87
564.33	1710.05
564.53	1652.71
564.74	1652.71
564.94	1628.14
565.14	1734.63
565.34	1732.58
565.54	1708.01
565.74	1632.23
565.94	1687.53
566.14	1724.39
566.34	1650.66
566.54	1755.11
566.74	1679.33
566.94	1685.48
567.14	1697.77
567.34	1744.87
567.54	1716.20
567.74	1726.44
567.94	1646.57
568.14	1675.24
568.34	1748.97
568.54	1691.62
568.74	1736.68
568.94	1701.86
569.14	1812.45
569.34	1683.43
569.54	1619.94
569.75	1667.05
569.95	1759.21
570.15	1767.40
570.35	1691.62
570.55	1740.77
570.75	1722.34
570.95	1689.57
571.15	1703.91
571.35	1652.71
571.55	1650.66
571.75	1638.38
571.95	1683.43
572.15	1660.90
572.35	1728.49
572.55	1687.53
572.75	1624.04
572.95	1654.76
573.15	1697.77
573.35	1775.59
573.55	1753.06
573.75	1634.28
573.95	1757.16
574.15	1710.05
574.35	1673.19
574.55	1642.47
574.75	1693.67
574.95	1728.49
575.15	1736.68
575.34	1697.77
575.54	1693.67
575.74	1742.82
575.94	1724.39
576.14	1617.90
576.34	1726.44
576.54	1654.76
576.74	1751.01
576.94	1665.00
577.14	1712.10
577.34	1732.58
577.54	1673.19
577.74	1589.22
577.94	1720.29
578.14	1619.94
578.34	1617.90
578.54	1574.89
578.74	1691.62
578.94	1681.38
579.14	1804.26
579.34	1626.09
579.54	1748.97
579.74	1771.49
579.94	1689.57
580.13	1736.68
580.33	1656.81
580.53	1640.42
580.73	1648.61
580.93	1798.12
581.13	1660.90
581.33	1701.86
581.53	1701.86
581.73	1675.24
581.93	1572.84
582.13	1734.63
582.33	1730.53
582.53	1679.33
582.73	1724.39
582.92	1646.57
583.12	1714.15
583.32	1591.27
583.52	1716.20
583.72	1753.06
583.92	1738.73
584.12	1716.20
584.32	1736.68
584.52	1613.80
584.72	1642.47
584.92	1718.25
585.11	1751.01
585.31	1763.30
585.51	1611.75
585.71	1705.96
585.91	1724.39
586.11	1677.29
586.31	1744.87
586.51	1617.90
586.71	1689.57
586.91	1648.61
587.10	1705.96
587.30	1658.85
587.50	1685.48
587.70	1667.05
587.90	1699.81
588.10	1671.14
588.30	1736.68
588.50	1714.15
588.69	1634.28
588.89	1740.77
589.09	1751.01
589.29	1628.14
589.49	1597.42
589.69	1615.85
589.89	1712.10
590.08	1673.19
590.28	1705.96
590.48	1753.06
590.68	1697.77
590.88	1679.33
591.08	1769.44
591.28	1652.71
591.47	1738.73
591.67	1597.42
591.87	1662.95
592.07	1834.98
592.27	1591.27
592.47	1568.74
592.67	1701.86
592.86	1650.66
593.06	1667.05
593.26	1779.68
593.46	1736.68
593.66	1673.19
593.86	1746.92
594.05	1705.96
594.25	1665.00
594.45	1566.70
594.65	1761.25
594.85	1791.97
595.05	1660.90
595.24	1671.14
595.44	1689.57
595.64	1667.05
595.84	1789.92
596.04	1726.44
