SpectraSuite Data File
++++++++++++++++++++++++++++++++++++
Date: Fri Jun 02 14:52:25 CEST 2017
User: INFO_000
Dark Spectrum Present: No
Reference Spectrum Present: No
Number of Sampled Component Spectra: 1
Spectrometers: USB4H00879
Integration Time (usec): 80000 (USB4H00879)
Spectra Averaged: 1 (USB4H00879)
Boxcar Smoothing: 0 (USB4H00879)
Correct for Electrical Dark: No (USB4H00879)
Strobe/Lamp Enabled: No (USB4H00879)
Correct for Detector Non-linearity: No (USB4H00879)
Correct for Stray Light: No (USB4H00879)
Number of Pixels in Processed Spectrum: 3648
>>>>>Begin Processed Spectral Data<<<<<
345.13	1286.12
345.34	1286.12
345.56	1286.12
345.78	1318.89
345.99	1271.79
346.21	1695.72
346.42	1669.09
346.64	1609.70
346.86	1775.59
347.07	1581.03
347.29	1679.33
347.50	1597.42
347.72	1669.09
347.94	1701.86
348.15	1566.70
348.37	1650.66
348.59	1720.29
348.80	1699.81
349.02	1810.40
349.23	1875.94
349.45	1886.18
349.67	1871.84
349.88	1865.70
350.10	2035.68
350.31	1867.75
350.53	1816.55
350.75	1988.58
350.96	1785.83
351.18	1933.28
351.39	1847.27
351.61	1877.99
351.82	1849.32
352.04	1957.86
352.26	1843.17
352.47	2013.15
352.69	2017.25
352.90	1742.82
353.12	1904.61
353.34	1863.65
353.55	1904.61
353.77	1927.14
353.98	1861.60
354.20	1847.27
354.41	1920.99
354.63	1943.52
354.85	2025.44
355.06	1914.85
355.28	1765.35
355.49	1896.42
355.71	1896.42
355.92	1804.26
356.14	1935.33
356.35	1908.71
356.57	1900.52
356.79	1968.10
357.00	1892.32
357.22	1884.13
357.43	1871.84
357.65	2007.01
357.86	1894.37
358.08	1869.80
358.29	2015.20
358.51	2037.73
358.72	1959.91
358.94	1947.62
359.16	1941.47
359.37	1955.81
359.59	1931.23
359.80	1984.48
360.02	2017.25
360.23	1988.58
360.45	1996.77
360.66	1898.47
360.88	1855.46
361.09	1974.24
361.31	2074.59
361.52	1982.43
361.74	2097.12
361.95	2066.40
362.17	1978.34
362.38	2064.35
362.60	2093.02
362.81	1988.58
363.03	1986.53
363.24	2062.30
363.46	2037.73
363.67	2060.26
363.89	2052.06
364.10	1988.58
364.32	2002.91
364.53	2015.20
364.75	1927.14
364.96	1976.29
365.18	1990.63
365.39	1994.72
365.61	1951.71
365.82	2146.27
366.04	2027.49
366.25	1966.05
366.47	2086.88
366.68	2039.78
366.90	2099.17
367.11	2068.45
367.33	2164.70
367.54	2066.40
367.76	2068.45
367.97	2111.46
368.19	2058.21
368.40	2070.50
368.62	1970.15
368.83	1935.33
369.05	2082.78
369.26	2060.26
369.48	1900.52
369.69	2068.45
369.91	2101.22
370.12	2002.91
370.33	2119.65
370.55	2017.25
370.76	2133.98
370.98	2142.18
371.19	2043.87
371.41	2002.91
371.62	2076.64
371.84	2011.11
372.05	2230.24
372.27	2084.83
372.48	2138.08
372.69	2045.92
372.91	2191.33
373.12	2146.27
373.34	2064.35
373.55	2187.23
373.77	2123.74
373.98	2150.37
374.20	2222.05
374.41	2252.77
374.62	2129.89
374.84	2150.37
375.05	2154.46
375.27	2217.95
375.48	2191.33
375.70	2224.09
375.91	2267.10
376.12	2367.45
376.34	2174.94
376.55	2121.70
376.77	2125.79
376.98	2140.13
377.19	2115.55
377.41	2138.08
377.62	2242.53
377.84	2228.19
378.05	2328.54
378.27	2228.19
378.48	2349.02
378.69	2443.23
378.91	2379.74
379.12	2232.29
379.34	2271.20
379.55	2295.77
379.76	2232.29
379.98	2174.94
380.19	2256.86
380.41	2250.72
380.62	2375.64
380.83	2297.82
381.05	2281.44
381.26	2408.41
381.47	2263.01
381.69	2265.05
381.90	2357.21
382.12	2314.20
382.33	2224.09
382.54	2283.49
382.76	2346.97
382.97	2379.74
383.19	2297.82
383.40	2449.37
383.61	2359.26
383.83	2349.02
384.04	2346.97
384.25	2494.43
384.47	2414.56
384.68	2355.16
384.89	2371.55
385.11	2385.88
385.32	2437.08
385.54	2432.99
385.75	2349.02
385.96	2482.14
386.18	2504.67
386.39	2428.89
386.60	2400.22
386.82	2473.95
387.03	2379.74
387.24	2500.57
387.46	2494.43
387.67	2535.39
387.88	2521.05
388.10	2484.19
388.31	2449.37
388.52	2553.82
388.74	2504.67
388.95	2494.43
389.16	2494.43
389.38	2494.43
389.59	2557.91
389.80	2602.97
390.02	2584.54
390.23	2611.16
390.44	2541.53
390.66	2557.91
390.87	2584.54
391.08	2645.98
391.30	2746.33
391.51	2674.65
391.72	2600.92
391.94	2770.90
392.15	2584.54
392.36	2705.37
392.58	2637.78
392.79	2684.89
393.00	2754.52
393.22	2777.05
393.43	2830.29
393.64	2906.07
393.85	2742.23
394.07	2729.94
394.28	2770.90
394.49	2818.00
394.71	2777.05
394.92	2809.81
395.13	2766.81
395.35	2756.57
395.56	2777.05
395.77	2789.33
395.98	2828.24
396.20	2877.40
396.41	2797.53
396.62	2768.85
396.84	2824.15
397.05	2836.44
397.26	2863.06
397.47	3061.71
397.69	2756.57
397.90	3067.86
398.11	2863.06
398.32	2973.65
398.54	3018.71
398.75	2922.45
398.96	2858.96
399.18	3117.01
399.39	3026.90
399.60	3033.04
399.81	3035.09
400.03	3016.66
400.24	3280.85
400.45	3121.10
400.66	3049.43
400.88	2983.89
401.09	3254.22
401.30	3078.10
401.51	3215.31
401.73	3092.43
401.94	3082.19
402.15	3143.63
402.36	3155.92
402.58	3153.87
402.79	3188.69
403.00	3223.50
403.21	3248.08
403.43	3266.51
403.64	3362.76
403.85	3145.68
404.06	3334.09
404.27	3203.02
404.49	3221.45
404.70	3184.59
404.91	3348.43
405.12	3235.79
405.34	3268.56
405.55	3430.35
405.76	3278.80
405.97	3313.61
406.19	3428.30
406.40	3227.60
406.61	3416.01
406.82	3332.05
407.03	3362.76
407.25	3350.48
407.46	3442.64
407.67	3461.07
407.88	3528.65
408.09	3336.14
408.31	3370.96
408.52	3477.45
408.73	3330.00
408.94	3504.07
409.15	3467.21
409.37	3569.61
409.58	3493.83
409.79	3510.22
410.00	3612.62
410.21	3502.03
410.43	3530.70
410.64	3534.79
410.85	3622.86
411.06	3534.79
411.27	3608.52
411.48	3590.09
411.70	3629.00
411.91	3712.97
412.12	3766.21
412.33	3672.01
412.54	3614.66
412.76	3706.82
412.97	3674.06
413.18	3596.23
413.39	3704.78
413.60	3674.06
413.81	3540.94
414.03	3659.72
414.24	3696.58
414.45	3885.00
414.66	3504.07
414.87	3833.80
415.08	3741.64
415.30	3766.21
415.51	3928.00
415.72	3760.07
415.93	3868.61
416.14	3954.63
416.35	3944.39
416.56	3813.32
416.78	3930.05
416.99	4061.12
417.20	3825.61
417.41	4118.47
417.62	4134.85
417.83	4116.42
418.04	3928.00
418.26	3950.53
418.47	4132.80
418.68	3952.58
418.89	4165.57
419.10	4247.49
419.31	4169.66
419.52	4143.04
419.73	4016.07
419.95	4145.09
420.16	4067.27
420.37	4102.08
420.58	4218.82
420.79	4136.90
421.00	4202.43
421.21	4171.71
421.42	4120.51
421.63	4343.74
421.85	4208.58
422.06	4345.79
422.27	4298.69
422.48	4298.69
422.69	4300.73
422.90	4362.17
423.11	4351.93
423.32	4376.51
423.53	4460.48
423.75	4382.65
423.96	4581.31
424.17	4493.24
424.38	4679.61
424.59	4413.37
424.80	4757.43
425.01	4659.13
425.22	4593.59
425.43	4562.87
425.64	4820.92
425.85	4681.66
426.06	4728.76
426.28	4693.94
426.49	4624.31
426.70	4683.70
426.91	4714.42
427.12	4825.01
427.33	4829.11
427.54	4730.81
427.75	4710.33
427.96	4894.65
428.17	4884.41
428.38	4761.53
428.59	5007.28
428.80	4927.41
429.01	4999.09
429.23	5021.62
429.44	5001.14
429.65	5099.44
429.86	5199.79
430.07	4878.26
430.28	5060.53
430.49	5142.45
430.70	5207.98
430.91	5193.65
431.12	5152.69
431.33	5332.91
431.54	5234.61
431.75	5246.90
431.96	5232.56
432.17	5296.05
432.38	5179.31
432.59	5480.36
432.80	5433.26
433.01	5339.05
433.22	5392.30
433.43	5324.72
433.64	5418.93
433.85	5437.36
434.06	5455.79
434.27	5310.38
434.49	5504.94
434.70	5638.06
434.91	5390.25
435.12	5509.04
435.33	5441.45
435.54	5492.65
435.75	5576.62
435.96	5521.32
436.17	5519.28
436.38	5580.71
436.59	5590.95
436.80	5478.32
437.01	5816.23
437.22	5816.23
437.43	5750.70
437.64	5513.13
437.85	5762.98
438.06	5857.19
438.27	5613.48
438.48	5715.88
438.69	5967.78
438.90	5885.86
439.11	5838.76
439.32	5914.53
439.53	5937.06
439.74	5955.49
439.95	5855.14
440.16	5881.77
440.37	5912.49
440.57	5955.49
440.78	5982.12
440.99	6125.47
441.20	5879.72
441.41	5984.16
441.62	6070.18
441.83	5912.49
442.04	6182.82
442.25	6076.32
442.46	6121.38
442.67	6156.19
442.88	6463.39
443.09	5996.45
443.30	6152.10
443.51	6227.87
443.72	6541.21
443.93	6182.82
444.14	6426.53
444.35	6397.85
444.56	6264.74
444.77	6219.68
444.98	6344.61
445.19	6535.07
445.40	6381.47
445.61	6430.62
445.81	6498.20
446.02	6594.46
446.23	6395.81
446.44	6406.05
446.65	6561.69
446.86	6643.61
447.07	6737.82
447.28	6811.54
447.49	6807.45
447.70	6459.29
447.91	6703.00
448.12	6655.90
448.33	6879.13
448.54	6893.46
448.74	6768.54
448.95	6752.15
449.16	6746.01
449.37	6938.52
449.58	6928.28
449.79	7067.54
450.00	6834.07
450.21	6877.08
450.42	7253.91
450.63	7149.46
450.84	6965.14
451.05	7073.68
451.25	7065.49
451.46	7006.10
451.67	7221.14
451.88	7241.62
452.09	7153.55
452.30	7135.12
452.51	7243.67
452.72	7372.69
452.93	7503.76
453.13	7188.37
453.34	7282.58
453.55	7298.96
453.76	7440.27
453.97	7612.30
454.18	7542.67
454.39	7696.27
454.60	7698.31
454.81	7800.71
455.01	7909.26
455.22	7450.51
455.43	7647.12
455.64	7853.96
455.85	7952.26
456.06	7999.37
456.27	7892.87
456.48	7839.62
456.68	8030.09
456.89	7954.31
457.10	8142.72
457.31	7960.45
457.52	8013.70
457.73	8095.62
457.94	8361.86
458.14	8081.28
458.35	8634.24
458.56	8370.05
458.77	8220.55
458.98	8316.80
459.19	8570.75
459.39	8523.65
459.60	8695.68
459.81	8458.11
460.02	8718.20
460.23	8755.07
460.44	8707.96
460.65	8841.08
460.85	8953.72
461.06	8820.60
461.27	8652.67
461.48	9189.24
461.69	9199.48
461.89	8923.00
462.10	9168.76
462.31	8882.04
462.52	9152.37
462.73	9035.64
462.94	9357.17
463.14	9158.52
463.35	9318.26
463.56	9762.67
463.77	9693.04
463.98	9359.22
464.18	9420.66
464.39	9637.74
464.60	10022.76
464.81	9973.61
465.02	9705.32
465.23	10264.42
465.43	9758.57
465.64	10211.17
465.85	9979.75
466.06	9989.99
466.27	10401.63
466.47	10526.56
466.68	10256.23
466.89	10391.39
467.10	10538.85
467.30	10207.08
467.51	10620.77
467.72	10776.41
467.93	10526.56
468.14	10745.69
468.34	10850.14
468.55	11013.98
468.76	10858.33
468.97	10704.73
469.17	10938.20
469.38	11161.43
469.59	11374.42
469.80	11108.18
470.01	11102.04
470.21	11196.25
470.42	11493.20
470.63	11577.17
470.84	11450.19
471.04	11589.46
471.25	11741.00
471.46	11638.61
471.67	12224.33
471.87	11913.03
472.08	11970.38
472.29	12214.09
472.50	11827.02
472.70	12064.58
472.91	12136.26
473.12	12408.64
473.33	12599.10
473.53	12570.43
473.74	12470.08
473.95	12412.74
474.16	12883.77
474.36	12633.92
474.57	12844.86
474.78	13248.31
474.99	13293.37
475.19	12963.64
475.40	13266.74
475.61	13387.57
475.81	13494.07
476.02	14004.01
476.23	13592.37
476.44	13492.02
476.64	13838.12
476.85	14051.11
477.06	13911.85
477.27	14149.42
477.47	14008.11
477.68	14245.67
477.89	14413.60
478.09	14339.88
478.30	14464.80
478.51	14413.60
478.71	14618.40
478.92	14964.51
479.13	14952.22
479.34	15169.30
479.54	14931.74
479.75	15011.61
479.96	15259.42
480.16	15390.49
480.37	15253.27
480.58	15509.27
480.78	15550.23
480.99	15705.87
481.20	15722.26
481.41	15875.85
481.61	16162.57
481.82	16013.07
482.03	16162.57
482.23	15937.29
482.44	16434.95
482.65	16709.38
482.85	16584.45
483.06	16588.55
483.27	16658.18
483.47	16738.05
483.68	16926.46
483.89	16985.85
484.09	17014.52
484.30	17331.96
484.51	17413.88
484.71	17356.54
484.92	16985.85
485.13	17639.15
485.33	17436.41
485.54	17542.90
485.75	17854.19
485.95	17848.05
486.16	18038.51
486.37	17977.07
486.57	17911.53
486.78	18058.99
486.98	18020.08
487.19	18357.99
487.40	18525.93
487.60	18609.89
487.81	18677.48
488.02	18489.06
488.22	18390.76
488.43	18806.50
488.64	18796.26
488.84	19044.06
489.05	18857.70
489.25	18833.12
489.46	19427.03
489.67	19435.22
489.87	19769.04
490.08	19605.20
490.29	19500.76
490.49	19842.77
490.70	19803.86
490.90	19914.45
491.11	19975.89
491.32	19934.93
491.52	19810.00
491.73	20080.33
491.94	20287.18
492.14	20006.61
492.35	20518.60
492.55	20557.51
492.76	20543.17
492.97	20924.10
493.17	20643.52
493.38	20879.04
493.58	20756.16
493.79	20963.01
494.00	21067.45
494.20	21378.75
494.41	21317.31
494.61	21221.05
494.82	21380.79
495.02	21155.52
495.23	21284.54
495.44	21655.22
495.64	21591.73
495.85	21687.99
496.05	22042.29
496.26	21937.84
496.47	22038.19
496.67	21812.92
496.88	22193.84
497.08	21974.70
497.29	22292.14
497.49	22085.30
497.70	22638.25
497.91	22513.32
498.11	22687.40
498.32	22640.29
498.52	22830.76
498.73	23017.12
498.93	22900.39
499.14	22959.78
499.34	22945.44
499.55	22998.69
499.76	22873.76
499.96	23570.07
500.17	23201.44
500.37	23398.04
500.58	23246.49
500.78	23553.69
500.99	23510.68
501.19	23953.04
501.40	23463.58
501.60	23647.90
501.81	23989.91
502.02	23881.36
502.22	23711.38
502.43	23748.25
502.63	24194.70
502.84	24094.35
503.04	24080.02
503.25	24323.72
503.45	24602.25
503.66	24184.46
503.86	24444.56
504.07	24757.89
504.27	24413.84
504.48	24995.46
504.68	25101.95
504.89	25298.56
505.09	25155.20
505.30	24776.33
505.50	25030.27
505.71	25192.06
505.91	25024.13
506.12	25212.54
506.32	25144.96
506.53	25421.44
506.73	25433.72
506.94	25570.94
507.14	25544.31
507.35	25491.07
507.55	25499.26
507.76	25806.45
507.96	25554.55
508.17	25931.38
508.37	25740.92
508.58	25898.61
508.78	25839.22
508.99	26297.97
509.19	26146.42
509.40	26412.65
509.60	26001.01
509.81	26549.87
510.01	26285.68
510.22	26492.52
510.42	26758.76
510.63	26670.70
510.83	26701.42
511.04	26556.01
511.24	26752.62
511.44	26857.06
511.65	26809.96
511.85	26635.88
512.06	27117.15
512.26	27080.29
512.47	27285.09
512.67	26910.31
512.88	27248.22
513.08	26934.88
513.29	27498.08
513.49	27330.14
513.69	27393.63
513.90	27612.76
514.10	27670.11
514.31	27811.42
514.51	27706.97
514.72	27913.81
514.92	27840.09
515.13	27885.14
515.33	27987.54
515.53	28057.17
515.74	28139.09
515.94	28171.86
516.15	28325.46
516.35	28384.85
516.56	28425.81
516.76	28198.48
516.96	28032.60
517.17	28632.65
517.37	28808.78
517.58	28751.43
517.78	28776.01
517.99	28882.50
518.19	28905.03
518.39	29118.02
518.60	29402.69
518.80	29312.58
519.01	29107.78
519.21	29079.11
519.41	29177.41
519.62	29374.02
519.82	29378.11
520.03	29572.67
520.23	29646.40
520.43	29451.84
520.64	30047.80
520.84	29965.88
521.05	30139.96
521.25	30293.55
521.45	30256.69
521.66	30580.27
521.86	29888.06
522.07	30160.44
522.27	30311.99
522.47	30391.86
522.68	30447.15
522.88	30633.52
523.08	30864.94
523.29	30901.80
523.49	30996.01
523.70	31235.62
523.90	31479.33
524.10	31151.65
524.31	31188.52
524.51	31227.43
524.71	31594.01
524.92	31520.29
525.12	31827.48
525.33	31942.17
525.53	31868.44
525.73	32091.67
525.94	32155.16
526.14	32042.52
526.34	32310.80
526.55	32488.98
526.75	32163.35
526.95	32806.41
527.16	32644.62
527.36	32495.12
527.56	32994.82
527.77	33123.85
527.97	33306.12
528.17	32859.66
528.38	33330.69
528.58	33121.80
528.78	33424.90
528.99	33392.13
529.19	33639.93
529.39	33613.31
529.60	33680.89
529.80	33805.82
530.00	33506.82
530.21	34360.82
530.41	34250.23
530.61	34151.93
530.82	34049.53
531.02	34354.68
531.22	34866.67
531.43	34571.76
531.63	34756.08
531.83	34694.64
532.04	35032.55
532.24	34864.62
532.44	35419.62
532.64	35417.57
532.85	35636.70
533.05	35393.00
533.25	35485.15
533.46	35442.15
533.66	35866.08
533.86	35587.55
534.07	36029.91
534.27	35995.10
534.47	36419.03
534.67	36488.66
534.88	36136.41
535.08	36566.48
535.28	36660.69
535.49	36580.82
535.69	36681.17
535.89	36605.39
536.09	37017.04
536.30	37066.19
536.50	37258.70
536.70	37445.06
536.91	37291.46
537.11	37254.60
537.31	37662.15
537.51	37094.86
537.72	37707.20
537.92	37703.10
538.12	37918.14
538.32	38075.84
538.53	38331.83
538.73	37739.97
538.93	38372.79
539.13	38333.88
539.34	38358.45
539.54	38423.99
539.74	38561.20
539.94	38442.42
540.15	38413.75
540.35	39040.43
540.55	38686.13
540.75	38753.71
540.96	38923.69
541.16	39216.55
541.36	39179.69
541.56	39415.21
541.77	39169.45
541.97	39140.78
542.17	39214.51
542.37	39321.00
542.58	39628.20
542.78	39529.89
542.98	39529.89
543.18	39794.08
543.38	40312.22
543.59	40101.28
543.79	39927.20
543.99	39810.46
544.19	39859.62
544.40	40027.55
544.60	40545.69
544.80	40277.40
545.00	40506.77
545.20	40582.55
545.41	40613.27
545.61	40187.29
545.81	40719.76
546.01	40574.36
546.21	40590.74
546.42	40680.85
546.62	40832.40
546.82	40648.08
547.02	40727.95
547.22	40893.84
547.43	40744.34
547.63	40854.93
547.83	41321.87
548.03	41026.96
548.23	41174.41
548.44	41235.85
548.64	41201.04
548.84	41364.87
549.04	41282.95
549.24	41661.83
549.45	41833.86
549.65	41364.87
549.85	41555.33
550.05	41776.51
550.25	41880.96
550.45	42169.72
550.66	41254.28
550.86	41823.62
551.06	41991.55
551.26	41907.58
551.46	41930.11
551.66	41981.31
551.87	41698.69
552.07	42147.20
552.27	42169.72
552.47	42159.48
552.67	42673.52
552.87	42261.88
553.07	42343.80
553.28	42198.40
553.48	42331.51
553.68	42491.26
553.88	42710.39
554.08	42753.40
554.28	42636.66
554.48	42607.99
554.69	42663.28
554.89	42472.82
555.09	42730.87
555.29	42118.53
555.49	43152.75
555.69	42667.38
555.89	42868.08
556.10	43552.10
556.30	42442.10
556.50	42913.14
556.70	43005.30
556.90	43287.92
557.10	42954.10
557.30	42988.91
557.50	43197.80
557.70	42849.65
557.91	43259.24
558.11	43289.96
558.31	42995.06
558.51	43027.82
558.71	43156.85
558.91	43761.00
559.11	42952.05
559.31	43404.65
559.51	43007.34
559.72	42956.14
559.92	43443.56
560.12	43214.19
560.32	43384.17
560.52	43218.28
560.72	43541.86
560.92	43785.57
561.12	43412.84
561.32	43795.81
561.52	43402.60
561.72	43771.24
561.93	43429.23
562.13	44053.86
562.33	43398.51
562.53	43945.31
562.73	43382.12
562.93	43767.14
563.13	43869.54
563.33	43619.69
563.53	44031.33
563.73	43533.67
563.93	43826.53
564.13	44264.80
564.33	43976.03
564.53	44094.82
564.74	43947.36
564.94	44043.62
565.14	44158.30
565.34	43971.94
565.54	44186.97
565.74	43984.22
565.94	44574.04
566.14	44266.84
566.34	43742.56
566.54	44272.99
566.74	44584.28
566.94	44582.23
567.14	44451.16
567.34	43890.02
567.54	44600.66
567.74	43920.74
567.94	44029.28
568.14	44686.68
568.34	45040.98
568.54	44225.89
568.74	44698.97
568.94	44348.76
569.14	45221.20
569.34	44928.34
569.54	44676.44
569.75	44250.46
569.95	44840.28
570.15	44948.82
570.35	44957.01
570.55	44940.63
570.75	45028.69
570.95	45040.98
571.15	45104.46
571.35	44905.81
571.55	45471.05
571.75	44625.24
571.95	45069.65
572.15	44823.89
572.35	45155.66
572.55	45102.42
572.75	45147.47
572.95	44950.87
573.15	45358.41
573.35	44905.81
573.55	44977.49
573.75	44938.58
573.95	45260.11
574.15	45178.19
574.35	45501.77
574.55	45409.61
574.75	45395.28
574.95	45358.41
575.15	45458.76
575.34	45565.26
575.54	45929.80
575.74	45641.03
575.94	45843.78
576.14	45831.49
576.34	45790.53
576.54	46136.64
576.74	46486.84
576.94	45788.49
577.14	46103.87
577.34	46576.95
577.54	45931.84
577.74	46355.77
577.94	46294.33
578.14	46142.78
578.34	46468.41
578.54	45948.23
578.74	46206.27
578.94	46421.31
579.14	46409.02
579.34	46308.67
579.54	46658.87
579.74	47084.85
579.94	46882.10
580.13	46820.66
580.33	46990.64
580.53	47144.24
580.73	46794.04
580.93	46904.63
581.13	46904.63
581.33	47748.39
581.53	47469.87
581.73	47422.76
581.93	47570.22
582.13	47392.04
582.33	47674.66
582.53	47537.45
582.73	47420.72
582.92	47699.24
583.12	48149.79
583.32	47635.75
583.52	47433.00
583.72	47848.74
583.92	47828.26
584.12	48039.20
584.32	48297.25
584.52	47803.69
584.72	48461.08
584.92	48514.33
585.11	48657.69
585.31	48450.84
585.51	48256.29
585.71	48266.53
585.91	48563.48
586.11	48420.13
586.31	48067.87
586.51	48590.11
586.71	48721.18
586.91	49085.72
587.10	48381.21
587.30	48493.85
587.50	48891.16
587.70	49335.57
587.90	49003.80
588.10	49141.01
588.30	48772.38
588.50	49337.62
