SpectraSuite Data File
++++++++++++++++++++++++++++++++++++
Date: Fri Jun 02 14:52:28 CEST 2017
User: INFO_000
Dark Spectrum Present: No
Reference Spectrum Present: No
Number of Sampled Component Spectra: 1
Spectrometers: USB4H00879
Integration Time (usec): 80000 (USB4H00879)
Spectra Averaged: 1 (USB4H00879)
Boxcar Smoothing: 0 (USB4H00879)
Correct for Electrical Dark: No (USB4H00879)
Strobe/Lamp Enabled: No (USB4H00879)
Correct for Detector Non-linearity: No (USB4H00879)
Correct for Stray Light: No (USB4H00879)
Number of Pixels in Processed Spectrum: 3648
>>>>>Begin Processed Spectral Data<<<<<
345.13	1325.04
345.34	1325.04
345.56	1325.04
345.78	1277.93
345.99	1273.84
346.21	1705.96
346.42	1689.57
346.64	1572.84
346.86	1796.07
347.07	1675.24
347.29	1683.43
347.50	1593.32
347.72	1634.28
347.94	1736.68
348.15	1499.11
348.37	1560.55
348.59	1630.18
348.80	1683.43
349.02	1847.27
349.23	1861.60
349.45	1834.98
349.67	1900.52
349.88	1787.88
350.10	1978.34
350.31	1798.12
350.53	1865.70
350.75	2009.06
350.96	1826.79
351.18	1863.65
351.39	1837.03
351.61	1789.92
351.82	1886.18
352.04	1910.75
352.26	1740.77
352.47	1853.41
352.69	1849.32
352.90	1751.01
353.12	1910.75
353.34	1824.74
353.55	1906.66
353.77	1884.13
353.98	1839.08
354.20	1857.51
354.41	1890.28
354.63	1978.34
354.85	2121.70
355.06	1859.56
355.28	1808.36
355.49	1849.32
355.71	1892.32
355.92	1925.09
356.14	1986.53
356.35	1857.51
356.57	1912.80
356.79	1945.57
357.00	1888.23
357.22	2019.30
357.43	1851.36
357.65	1935.33
357.86	1892.32
358.08	1892.32
358.29	1880.04
358.51	1957.86
358.72	1978.34
358.94	1923.04
359.16	1888.23
359.37	1986.53
359.59	1880.04
359.80	1968.10
360.02	1978.34
360.23	1937.38
360.45	1902.56
360.66	1978.34
360.88	1855.46
361.09	1992.67
361.31	2056.16
361.52	1966.05
361.74	2041.82
361.95	2035.68
362.17	1982.43
362.38	2160.61
362.60	1937.38
362.81	1941.47
363.03	2000.87
363.24	2043.87
363.46	2082.78
363.67	1982.43
363.89	2033.63
364.10	1951.71
364.32	2027.49
364.53	2107.36
364.75	1914.85
364.96	2017.25
365.18	2002.91
365.39	2000.87
365.61	2019.30
365.82	2148.32
366.04	2066.40
366.25	2025.44
366.47	2076.64
366.68	2105.31
366.90	2052.06
367.11	2072.54
367.33	2140.13
367.54	2047.97
367.76	2123.74
367.97	2097.12
368.19	2015.20
368.40	1986.53
368.62	1925.09
368.83	1976.29
369.05	2105.31
369.26	2086.88
369.48	1982.43
369.69	1974.24
369.91	2084.83
370.12	2052.06
370.33	2066.40
370.55	1935.33
370.76	1984.48
370.98	2097.12
371.19	2052.06
371.41	2101.22
371.62	2084.83
371.84	1994.72
372.05	2207.71
372.27	2058.21
372.48	2097.12
372.69	2072.54
372.91	2109.41
373.12	2150.37
373.34	2062.30
373.55	2170.85
373.77	2193.37
373.98	2131.94
374.20	2162.66
374.41	2322.40
374.62	2199.52
374.84	2201.57
375.05	2160.61
375.27	2152.42
375.48	2224.09
375.70	2197.47
375.91	2236.38
376.12	2318.30
376.34	2199.52
376.55	2144.22
376.77	2160.61
376.98	2082.78
377.19	2174.94
377.41	2213.85
377.62	2224.09
377.84	2224.09
378.05	2389.98
378.27	2224.09
378.48	2269.15
378.69	2394.08
378.91	2310.11
379.12	2275.29
379.34	2150.37
379.55	2396.12
379.76	2240.48
379.98	2215.90
380.19	2224.09
380.41	2260.96
380.62	2275.29
380.83	2215.90
381.05	2215.90
381.26	2404.32
381.47	2322.40
381.69	2271.20
381.90	2449.37
382.12	2349.02
382.33	2252.77
382.54	2306.01
382.76	2320.35
382.97	2387.93
383.19	2295.77
383.40	2412.51
383.61	2277.34
383.83	2387.93
384.04	2353.12
384.25	2371.55
384.47	2383.84
384.68	2363.36
384.89	2283.49
385.11	2340.83
385.32	2297.82
385.54	2383.84
385.75	2326.49
385.96	2469.85
386.18	2469.85
386.39	2492.38
386.60	2351.07
386.82	2516.95
387.03	2396.12
387.24	2486.23
387.46	2447.32
387.67	2492.38
387.88	2580.44
388.10	2469.85
388.31	2490.33
388.52	2543.58
388.74	2504.67
388.95	2547.67
389.16	2428.89
389.38	2502.62
389.59	2590.68
389.80	2580.44
390.02	2572.25
390.23	2711.51
390.44	2607.06
390.66	2582.49
390.87	2590.68
391.08	2611.16
391.30	2637.78
391.51	2611.16
391.72	2693.08
391.94	2703.32
392.15	2635.74
392.36	2559.96
392.58	2688.98
392.79	2713.56
393.00	2725.85
393.22	2750.42
393.43	2772.95
393.64	2844.63
393.85	2695.13
394.07	2658.26
394.28	2764.76
394.49	2727.89
394.71	2799.57
394.92	2813.91
395.13	2766.81
395.35	2801.62
395.56	2844.63
395.77	2746.33
395.98	2887.64
396.20	2822.10
396.41	2875.35
396.62	2928.60
396.84	2787.29
397.05	2848.72
397.26	2869.20
397.47	2957.27
397.69	2867.16
397.90	3014.61
398.11	2981.84
398.32	2957.27
398.54	2883.54
398.75	2889.68
398.96	2959.31
399.18	3080.14
399.39	2883.54
399.60	3147.73
399.81	2973.65
400.03	3006.42
400.24	3170.26
400.45	2981.84
400.66	3063.76
400.88	3151.82
401.09	3145.68
401.30	3061.71
401.51	3239.89
401.73	3231.69
401.94	3194.83
402.15	3203.02
402.36	3192.78
402.58	3194.83
402.79	3280.85
403.00	3186.64
403.21	3243.98
403.43	3356.62
403.64	3297.23
403.85	3233.74
404.06	3254.22
404.27	3217.36
404.49	3231.69
404.70	3270.61
404.91	3399.63
405.12	3321.81
405.34	3311.57
405.55	3385.29
405.76	3194.83
405.97	3235.79
406.19	3360.72
406.40	3221.45
406.61	3334.09
406.82	3436.49
407.03	3313.61
407.25	3381.20
407.46	3581.90
407.67	3452.88
407.88	3555.27
408.09	3436.49
408.31	3362.76
408.52	3446.73
408.73	3489.74
408.94	3395.53
409.15	3438.54
409.37	3495.88
409.58	3530.70
409.79	3633.10
410.00	3663.82
410.21	3405.77
410.43	3465.16
410.64	3536.84
410.85	3532.75
411.06	3620.81
411.27	3643.34
411.48	3721.16
411.70	3596.23
411.91	3698.63
412.12	3747.78
412.33	3618.76
412.54	3620.81
412.76	3708.87
412.97	3725.26
413.18	3639.24
413.39	3702.73
413.60	3649.48
413.81	3772.36
414.03	3712.97
414.24	3698.63
414.45	3999.68
414.66	3702.73
414.87	3858.37
415.08	3647.43
415.30	3862.47
415.51	3835.85
415.72	3739.59
415.93	3831.75
416.14	3915.72
416.35	3946.44
416.56	3958.72
416.78	3938.24
416.99	4022.21
417.20	3962.82
417.41	3975.11
417.62	4038.59
417.83	4022.21
418.04	3880.90
418.26	4024.26
418.47	3948.48
418.68	4069.31
418.89	3917.76
419.10	4140.99
419.31	4048.83
419.52	4057.03
419.73	4040.64
419.95	4067.27
420.16	4028.35
420.37	4124.61
420.58	4095.94
420.79	4083.65
421.00	4116.42
421.21	4261.82
421.42	4081.60
421.63	4120.51
421.85	4112.32
422.06	4272.06
422.27	4196.29
422.48	4229.06
422.69	4339.65
422.90	4231.10
423.11	4333.50
423.32	4378.56
423.53	4437.95
423.75	4343.74
423.96	4597.69
424.17	4487.10
424.38	4523.96
424.59	4368.32
424.80	4587.45
425.01	4489.15
425.22	4452.28
425.43	4435.90
425.64	4607.93
425.85	4673.46
426.06	4693.94
426.28	4650.94
426.49	4460.48
426.70	4478.91
426.91	4534.20
427.12	4612.03
427.33	4681.66
427.54	4630.46
427.75	4739.00
427.96	4978.61
428.17	4849.59
428.38	4810.68
428.59	4716.47
428.80	4927.41
429.01	4861.88
429.23	4945.84
429.44	5060.53
429.65	4960.18
429.86	5044.15
430.07	5038.00
430.28	4865.97
430.49	4945.84
430.70	5187.50
430.91	5218.22
431.12	4976.56
431.33	5261.23
431.54	5113.78
431.75	5183.41
431.96	5138.35
432.17	5056.43
432.38	5048.24
432.59	5361.58
432.80	5318.57
433.01	5498.80
433.22	5451.69
433.43	5408.69
433.64	5330.86
433.85	5179.31
434.06	5545.90
434.27	5412.78
434.49	5480.36
434.70	5701.54
434.91	5498.80
435.12	5605.29
435.33	5494.70
435.54	5543.85
435.75	5384.11
435.96	5525.42
436.17	5341.10
436.38	5541.80
436.59	5765.03
436.80	5691.31
437.01	5842.85
437.22	5851.05
437.43	5672.87
437.64	5572.52
437.85	5803.94
438.06	5818.28
438.27	5865.38
438.48	5832.62
438.69	5812.14
438.90	6010.79
439.11	5730.22
439.32	5953.45
439.53	5990.31
439.74	5988.26
439.95	5883.81
440.16	6002.60
440.37	6055.84
440.57	6090.66
440.78	6135.71
440.99	6059.94
441.20	6039.46
441.41	6004.64
441.62	6209.44
441.83	6021.03
442.04	6203.30
442.25	6164.39
442.46	6287.26
442.67	6326.18
442.88	6434.72
443.09	6262.69
443.30	6205.35
443.51	6356.90
443.72	6619.04
443.93	6184.87
444.14	6733.72
444.35	6309.79
444.56	6471.58
444.77	6408.09
444.98	6604.70
445.19	6436.77
445.40	6477.73
445.61	6418.33
445.81	6639.51
446.02	6563.74
446.23	6588.32
446.44	6389.66
446.65	6746.01
446.86	6643.61
447.07	6625.18
447.28	6801.30
447.49	6881.18
447.70	6885.27
447.91	6934.42
448.12	6926.23
448.33	6803.35
448.54	6987.67
448.74	6895.51
448.95	6821.78
449.16	6770.58
449.37	7294.86
449.58	6852.50
449.79	7104.40
450.00	7034.77
450.21	7274.38
450.42	7346.06
450.63	7221.14
450.84	7161.75
451.05	7327.63
451.25	7118.74
451.46	7049.11
451.67	7462.80
451.88	7413.65
452.09	7346.06
452.30	7268.24
452.51	7440.27
452.72	7477.13
452.93	7835.53
453.13	7249.81
453.34	7419.79
453.55	7489.42
453.76	7491.47
453.97	7917.45
454.18	7663.50
454.39	7776.14
454.60	7722.89
454.81	7702.41
455.01	7878.54
455.22	7665.55
455.43	7835.53
455.64	7946.12
455.85	8060.80
456.06	8095.62
456.27	8023.94
456.48	7905.16
456.68	7980.93
456.89	8036.23
457.10	8075.14
457.31	8210.31
457.52	8177.54
457.73	8118.15
457.94	8593.28
458.14	8171.40
458.35	8816.51
458.56	8537.98
458.77	8394.62
458.98	8597.37
459.19	8605.56
459.39	8617.85
459.60	9029.49
459.81	8607.61
460.02	8951.67
460.23	8865.66
460.44	9039.73
460.65	8720.25
460.85	8994.68
461.06	9121.65
461.27	8605.56
461.48	9185.14
461.69	9226.10
461.89	8937.34
462.10	9062.26
462.31	9015.16
462.52	8992.63
462.73	9285.49
462.94	9439.09
463.14	9246.58
463.35	9342.83
463.56	9658.22
463.77	9564.01
463.98	9322.35
464.18	9488.24
464.39	9672.56
464.60	9959.27
464.81	9639.79
465.02	9785.19
465.23	10108.77
465.43	9758.57
465.64	10094.44
465.85	10030.95
466.06	10018.66
466.27	10301.28
466.47	10162.02
466.68	10295.14
466.89	10192.74
467.10	10569.57
467.30	10264.42
467.51	10362.72
467.72	10661.73
467.93	10157.92
468.14	10614.62
468.34	10690.40
468.55	10717.02
468.76	10790.75
468.97	10717.02
469.17	10968.92
469.38	10876.76
469.59	11151.19
469.80	10952.54
470.01	11024.22
470.21	11136.85
470.42	11568.98
470.63	11331.41
470.84	11343.70
471.04	11452.24
471.25	11503.44
471.46	11503.44
471.67	11773.77
471.87	11679.57
472.08	11904.84
472.29	11956.04
472.50	11687.76
472.70	11814.73
472.91	11800.40
473.12	12132.17
473.33	12177.22
473.53	12367.68
473.74	12144.45
473.95	12410.69
474.16	12482.37
474.36	12435.27
474.57	12986.17
474.78	12939.07
474.99	12707.65
475.19	12484.42
475.40	13166.39
475.61	13059.90
475.81	13258.55
476.02	13260.60
476.23	13184.82
476.44	13446.96
476.64	13586.22
476.85	13428.53
477.06	13662.00
477.27	14001.96
477.47	13854.51
477.68	13817.65
477.89	14030.63
478.09	14200.62
478.30	14126.89
478.51	14016.30
478.71	14386.98
478.92	14354.21
479.13	14655.26
479.34	14919.45
479.54	14556.96
479.75	14815.01
479.96	14939.93
480.16	14798.62
480.37	15060.76
480.58	15204.12
480.78	15488.79
480.99	15408.92
481.20	15564.56
481.41	15324.95
481.61	15570.71
481.82	15773.46
482.03	15683.34
482.23	15847.18
482.44	16150.28
482.65	16230.15
482.85	16291.59
483.06	16353.03
483.27	16137.99
483.47	16486.15
483.68	16572.16
483.89	16488.20
484.09	16525.06
484.30	16729.86
484.51	16834.30
484.71	17106.68
484.92	16994.04
485.13	17338.10
485.33	17362.68
485.54	17342.20
485.75	17508.08
485.95	17716.98
486.16	17770.22
486.37	17614.58
486.57	17944.30
486.78	17653.49
486.98	17567.48
487.19	18005.74
487.40	18069.23
487.60	18095.85
487.81	18448.10
488.02	18245.35
488.22	18302.70
488.43	18714.34
488.64	18710.24
488.84	18585.32
489.05	19025.63
489.25	19037.92
489.46	19150.56
489.67	18843.36
489.87	19367.64
490.08	19271.39
490.29	19619.54
490.49	19783.38
490.70	19877.58
490.90	19734.23
491.11	19791.57
491.32	19977.94
491.52	19959.50
491.73	20027.09
491.94	20162.25
492.14	20238.03
492.35	20389.58
492.55	20547.27
492.76	20752.07
492.97	20707.01
493.17	20977.34
493.38	20598.47
493.58	21184.19
493.79	21239.48
494.00	21120.70
494.20	20960.96
494.41	21491.38
494.61	21255.87
494.82	21264.06
495.02	21241.53
495.23	21708.47
495.44	21767.86
495.64	22048.43
495.85	21739.19
496.05	22376.11
496.26	21950.13
496.47	22341.29
496.67	21872.31
496.88	22505.13
497.08	22259.37
497.29	22636.20
497.49	22312.62
497.70	22640.29
497.91	22924.96
498.11	22967.97
498.32	23051.94
498.52	23084.70
498.73	23379.61
498.93	23266.97
499.14	23219.87
499.34	23561.88
499.55	23719.57
499.76	23303.84
499.96	23582.36
500.17	23686.81
500.37	23699.09
500.58	23641.75
500.78	24080.02
500.99	24008.34
501.19	24198.80
501.40	24213.13
501.60	24151.70
501.81	24252.05
502.02	24280.72
502.22	24090.26
502.43	24336.01
502.63	24747.65
502.84	24956.55
503.04	24626.82
503.25	24788.61
503.45	25112.19
503.66	24989.31
503.86	24811.14
504.07	25310.85
504.27	24934.02
504.48	25689.72
504.68	25493.12
504.89	25589.37
505.09	25497.21
505.30	25529.98
505.50	25771.64
505.71	25777.78
505.91	25984.63
506.12	25876.09
506.32	25712.25
506.53	25816.69
506.73	26033.78
506.94	26199.66
507.14	26472.04
507.35	25794.17
507.55	26203.76
507.76	26369.65
507.96	26359.41
508.17	26531.44
508.37	26338.93
508.58	26654.31
508.78	26549.87
508.99	26846.82
509.19	26672.74
509.40	26938.98
509.60	26893.93
509.81	27313.76
510.01	26920.55
510.22	27016.80
510.42	26984.04
510.63	27321.95
510.83	27291.23
511.04	27313.76
511.24	27733.59
511.44	27455.07
511.65	27938.39
511.85	27465.31
512.06	27741.78
512.26	27696.73
512.47	27858.52
512.67	27913.81
512.88	28014.16
513.08	27647.58
513.29	28008.02
513.49	27872.85
513.69	27676.25
513.90	28057.17
514.10	28266.06
514.31	28024.40
514.51	28421.71
514.72	28227.15
514.92	28298.83
515.13	28212.82
515.33	28253.78
515.53	28657.23
515.74	28438.09
515.94	28792.39
516.15	29029.96
516.35	28477.01
516.56	29005.38
516.76	28573.26
516.96	29095.49
517.17	28935.75
517.37	29261.38
517.58	28864.07
517.78	29163.08
517.99	29130.31
518.19	29560.38
518.39	29607.48
518.60	29406.78
518.80	29570.62
519.01	29754.94
519.21	29802.04
519.41	29843.00
519.62	29840.95
519.82	29752.89
520.03	29945.40
520.23	30025.27
520.43	29668.92
520.64	30113.33
520.84	30260.79
521.05	29879.86
521.25	30346.80
521.45	30357.04
521.66	30866.98
521.86	30721.58
522.07	30449.20
522.27	30402.10
522.47	30592.56
522.68	31071.78
522.88	30674.48
523.08	31030.82
523.29	31075.88
523.49	31254.05
523.70	30950.95
523.90	31628.83
524.10	31508.00
524.31	31364.64
524.51	31553.05
524.71	31596.06
524.92	31712.80
525.12	31800.86
525.33	31546.91
525.53	32153.11
525.73	32212.50
525.94	31655.45
526.14	31782.43
526.34	32157.21
526.55	32327.19
526.75	32243.22
526.95	32398.87
527.16	32378.39
527.36	32396.82
527.56	32933.39
527.77	32828.94
527.97	32486.93
528.17	32701.96
528.38	33099.27
528.58	32906.76
528.78	33459.71
528.99	33230.34
529.19	33512.96
529.39	33166.85
529.60	33775.10
529.80	33506.82
530.00	33463.81
530.21	33861.12
530.41	34141.69
530.61	33574.40
530.82	34160.12
531.02	33928.70
531.22	33967.61
531.43	34389.49
531.63	34266.61
531.83	34633.20
532.04	34764.27
532.24	34538.99
532.44	34846.19
532.64	35093.99
532.85	35091.94
533.05	34655.73
533.25	34967.02
533.46	34921.96
533.66	35243.49
533.86	35263.97
534.07	35282.41
534.27	35417.57
534.47	35622.37
534.67	35880.41
534.88	35386.85
535.08	35972.57
535.28	36052.44
535.49	35786.21
535.69	35904.99
535.89	35991.00
536.09	36165.08
536.30	36517.33
536.50	36371.92
536.70	36349.40
536.91	36582.87
537.11	36675.02
537.31	36689.36
537.51	36957.64
537.72	36750.80
537.92	37234.12
538.12	37295.56
538.32	37092.81
538.53	37500.36
538.73	37246.41
538.93	37502.40
539.13	37400.01
539.34	37434.82
539.54	37377.48
539.74	37682.62
539.94	37588.42
540.15	37520.84
540.35	37871.04
540.55	37744.06
540.75	37901.76
540.96	38041.02
541.16	38262.20
541.36	38325.69
541.56	38086.07
541.77	38167.99
541.97	38135.23
542.17	38520.24
542.37	38434.23
542.58	38434.23
542.78	38518.20
542.98	38176.19
543.18	38600.12
543.38	39101.87
543.59	39261.61
543.79	38766.00
543.99	39445.93
544.19	39294.38
544.40	38843.82
544.60	39458.21
544.80	39536.04
545.00	39577.00
545.20	39433.64
545.41	39474.60
545.61	39581.09
545.81	39677.35
546.01	39830.94
546.21	39550.37
546.42	39855.52
546.62	39816.61
546.82	39687.59
547.02	40146.33
547.22	40326.55
547.43	39716.26
547.63	40162.72
547.83	40338.84
548.03	40033.69
548.23	40168.86
548.44	40168.86
548.64	40789.39
548.84	40603.03
549.04	40512.92
549.24	40832.40
549.45	40807.83
549.65	40502.68
549.85	40813.97
550.05	41078.16
550.25	40557.97
550.45	41405.83
550.66	41256.33
550.86	40928.66
551.06	41137.55
551.26	41241.99
551.46	41575.81
551.66	41174.41
551.87	41260.43
552.07	41317.77
552.27	41448.84
552.47	41264.52
552.67	41825.67
552.87	41293.19
553.07	41461.13
553.28	41631.11
553.48	41842.05
553.68	41557.38
553.88	42139.00
554.08	41772.42
554.28	41721.22
554.48	41801.09
554.69	41870.72
554.89	41840.00
555.09	41944.45
555.29	41725.32
555.49	42114.43
555.69	42452.34
555.89	42444.15
556.10	42741.11
556.30	42399.10
556.50	42884.47
556.70	42769.78
556.90	42954.10
557.10	43111.79
557.30	42136.96
557.50	42769.78
557.70	42755.44
557.91	42931.57
558.11	42841.46
558.31	42990.96
558.51	42669.43
558.71	42831.22
558.91	43466.09
559.11	42751.35
559.31	43179.37
559.51	42997.10
559.72	43109.74
559.92	43228.52
560.12	43068.78
560.32	43267.44
560.52	43036.02
560.72	43355.50
560.92	43519.34
561.12	43181.42
561.32	43775.33
561.52	43257.20
561.72	43554.15
561.93	43410.79
562.13	42954.10
562.33	43398.51
562.53	43984.22
562.73	43306.35
562.93	43806.05
563.13	43799.91
563.33	43754.85
563.53	43777.38
563.73	43490.66
563.93	43808.10
564.13	44311.90
564.33	43752.80
564.53	44070.24
564.74	44195.17
564.94	44016.99
565.14	43998.56
565.34	44537.18
565.54	44580.18
565.74	44039.52
565.94	44596.57
566.14	44754.26
566.34	44139.87
566.54	44776.79
566.74	44055.90
566.94	44301.66
567.14	44592.47
567.34	44154.21
567.54	45258.06
567.74	44598.62
567.94	44631.38
568.14	44995.92
568.34	44877.14
568.54	44633.43
568.74	44737.88
568.94	45323.60
569.14	44948.82
569.34	45088.08
569.54	45040.98
569.75	44983.63
569.95	45174.09
570.15	45561.16
570.35	45323.60
570.55	45686.09
570.75	45491.53
570.95	45667.66
571.15	45223.25
571.35	45473.10
571.55	45761.86
571.75	45626.70
571.95	45876.55
572.15	45743.43
572.35	45610.31
572.55	45481.29
572.75	46136.64
572.95	45913.41
573.15	45694.28
573.35	46103.87
573.55	45878.60
573.75	46116.16
573.95	46232.89
574.15	46058.82
574.35	46144.83
574.55	46112.06
574.75	46462.27
574.95	46511.42
575.15	46583.10
575.34	46687.54
575.54	46732.60
575.74	47084.85
575.94	46826.81
576.14	46853.43
576.34	47240.50
576.54	46794.04
576.74	47142.19
576.94	46873.91
577.14	46918.96
577.34	47369.52
577.54	47148.34
577.74	47205.68
577.94	46992.69
578.14	47437.10
578.34	47691.05
578.54	47390.00
578.74	47803.69
578.94	47539.50
579.14	46916.92
579.34	47445.29
579.54	47801.64
579.74	47572.27
579.94	47904.04
580.13	48010.53
580.33	47854.89
580.53	48264.48
580.73	47648.04
580.93	48035.11
581.13	47861.03
581.33	48461.08
581.53	48592.15
581.73	48327.97
581.93	48602.39
582.13	48102.69
582.33	48719.13
582.53	48579.87
582.73	48854.29
582.92	48997.65
583.12	48973.08
583.32	48966.93
583.52	48399.65
583.72	49380.62
583.92	48993.56
584.12	49124.63
584.32	49429.77
584.52	49016.08
584.72	49188.11
584.92	49093.91
585.11	49562.89
585.31	49282.32
585.51	49566.99
585.71	49462.54
585.91	49665.29
586.11	49378.57
586.31	49597.71
586.51	49372.43
586.71	49388.81
586.91	50181.38
587.10	49626.38
587.30	49782.02
587.50	50109.70
587.70	49902.85
587.90	50042.12
588.10	50140.42
588.30	49997.06
588.50	49927.43
