SpectraSuite Data File
++++++++++++++++++++++++++++++++++++
Date: Fri Jun 02 14:52:23 CEST 2017
User: INFO_000
Dark Spectrum Present: No
Reference Spectrum Present: No
Number of Sampled Component Spectra: 1
Spectrometers: USB4H00879
Integration Time (usec): 80000 (USB4H00879)
Spectra Averaged: 1 (USB4H00879)
Boxcar Smoothing: 0 (USB4H00879)
Correct for Electrical Dark: No (USB4H00879)
Strobe/Lamp Enabled: No (USB4H00879)
Correct for Detector Non-linearity: No (USB4H00879)
Correct for Stray Light: No (USB4H00879)
Number of Pixels in Processed Spectrum: 3648
>>>>>Begin Processed Spectral Data<<<<<
345.13	1189.87
345.34	1189.87
345.56	1189.87
345.78	1247.21
345.99	1267.69
346.21	1734.63
346.42	1687.53
346.64	1597.42
346.86	1769.44
347.07	1593.32
347.29	1753.06
347.50	1634.28
347.72	1626.09
347.94	1787.88
348.15	1560.55
348.37	1597.42
348.59	1675.24
348.80	1673.19
349.02	1761.25
349.23	1871.84
349.45	1812.45
349.67	1851.36
349.88	1705.96
350.10	1941.47
350.31	1839.08
350.53	1708.01
350.75	1933.28
350.96	1753.06
351.18	1777.64
351.39	1857.51
351.61	1761.25
351.82	1837.03
352.04	1851.36
352.26	1796.07
352.47	1777.64
352.69	1845.22
352.90	1755.11
353.12	1777.64
353.34	1869.80
353.55	1888.23
353.77	1865.70
353.98	1839.08
354.20	1765.35
354.41	1888.23
354.63	1912.80
354.85	1988.58
355.06	1914.85
355.28	1712.10
355.49	1814.50
355.71	1871.84
355.92	1841.12
356.14	1920.99
356.35	1765.35
356.57	1757.16
356.79	1916.90
357.00	1861.60
357.22	1961.95
357.43	1748.97
357.65	1890.28
357.86	1806.31
358.08	1843.17
358.29	1945.57
358.51	1888.23
358.72	1896.42
358.94	1904.61
359.16	1892.32
359.37	1992.67
359.59	2013.15
359.80	1929.19
360.02	1906.66
360.23	1937.38
360.45	2033.63
360.66	1908.71
360.88	1859.56
361.09	1884.13
361.31	1931.23
361.52	1875.94
361.74	2060.26
361.95	2017.25
362.17	1920.99
362.38	1961.95
362.60	1988.58
362.81	2011.11
363.03	1920.99
363.24	1998.82
363.46	2043.87
363.67	1959.91
363.89	1892.32
364.10	1939.43
364.32	1902.56
364.53	2060.26
364.75	1923.04
364.96	1982.43
365.18	1968.10
365.39	1853.41
365.61	2011.11
365.82	2115.55
366.04	2015.20
366.25	1986.53
366.47	2019.30
366.68	2027.49
366.90	1966.05
367.11	1994.72
367.33	2035.68
367.54	2097.12
367.76	2056.16
367.97	2121.70
368.19	2002.91
368.40	2080.74
368.62	1920.99
368.83	1884.13
369.05	1953.76
369.26	2011.11
369.48	1953.76
369.69	1968.10
369.91	1998.82
370.12	2009.06
370.33	2070.50
370.55	1888.23
370.76	2019.30
370.98	2054.11
371.19	2062.30
371.41	2035.68
371.62	2084.83
371.84	2000.87
372.05	2117.60
372.27	2043.87
372.48	2082.78
372.69	2029.54
372.91	2084.83
373.12	2142.18
373.34	2025.44
373.55	2076.64
373.77	2242.53
373.98	2111.46
374.20	2179.04
374.41	2303.96
374.62	2054.11
374.84	2226.14
375.05	2160.61
375.27	2197.47
375.48	2228.19
375.70	2273.25
375.91	2166.75
376.12	2336.73
376.34	2121.70
376.55	2203.61
376.77	2240.48
376.98	2183.13
377.19	2164.70
377.41	2183.13
377.62	2154.46
377.84	2332.64
378.05	2359.26
378.27	2222.05
378.48	2359.26
378.69	2404.32
378.91	2324.44
379.12	2236.38
379.34	2281.44
379.55	2299.87
379.76	2338.78
379.98	2238.43
380.19	2271.20
380.41	2260.96
380.62	2310.11
380.83	2238.43
381.05	2185.18
381.26	2398.17
381.47	2205.66
381.69	2242.53
381.90	2412.51
382.12	2293.72
382.33	2293.72
382.54	2314.20
382.76	2383.84
382.97	2344.92
383.19	2199.52
383.40	2361.31
383.61	2396.12
383.83	2285.53
384.04	2361.31
384.25	2279.39
384.47	2361.31
384.68	2435.03
384.89	2387.93
385.11	2400.22
385.32	2377.69
385.54	2439.13
385.75	2410.46
385.96	2465.75
386.18	2533.34
386.39	2303.96
386.60	2381.79
386.82	2408.41
387.03	2418.65
387.24	2430.94
387.46	2453.47
387.67	2541.53
387.88	2531.29
388.10	2559.96
388.31	2418.65
388.52	2607.06
388.74	2633.69
388.95	2514.91
389.16	2408.41
389.38	2525.15
389.59	2572.25
389.80	2701.27
390.02	2486.23
390.23	2594.78
390.44	2621.40
390.66	2578.39
390.87	2510.81
391.08	2623.45
391.30	2693.08
391.51	2697.17
391.72	2619.35
391.94	2693.08
392.15	2574.30
392.36	2717.65
392.58	2727.89
392.79	2639.83
393.00	2723.80
393.22	2721.75
393.43	2781.14
393.64	2852.82
393.85	2777.05
394.07	2731.99
394.28	2805.72
394.49	2848.72
394.71	2797.53
394.92	2975.70
395.13	2705.37
395.35	2691.03
395.56	2744.28
395.77	2863.06
395.98	2863.06
396.20	2940.88
396.41	2877.40
396.62	2944.98
396.84	2883.54
397.05	2840.53
397.26	2871.25
397.47	2973.65
397.69	2781.14
397.90	2957.27
398.11	2934.74
398.32	2924.50
398.54	2889.68
398.75	2891.73
398.96	2940.88
399.18	3160.02
399.39	2912.21
399.60	3051.47
399.81	2932.69
400.03	2971.60
400.24	3321.81
400.45	2967.51
400.66	3133.39
400.88	3100.62
401.09	3264.46
401.30	3121.10
401.51	3170.26
401.73	3098.58
401.94	3153.87
402.15	3180.50
402.36	3311.57
402.58	3268.56
402.79	3170.26
403.00	3155.92
403.21	3258.32
403.43	3307.47
403.64	3301.33
403.85	3141.58
404.06	3246.03
404.27	3086.29
404.49	3278.80
404.70	3149.78
404.91	3227.60
405.12	3276.75
405.34	3264.46
405.55	3344.33
405.76	3221.45
405.97	3233.74
406.19	3444.68
406.40	3319.76
406.61	3241.93
406.82	3360.72
407.03	3379.15
407.25	3311.57
407.46	3411.92
407.67	3465.16
407.88	3444.68
408.09	3338.19
408.31	3448.78
408.52	3338.19
408.73	3422.16
408.94	3432.40
409.15	3465.16
409.37	3434.44
409.58	3524.55
409.79	3563.47
410.00	3489.74
410.21	3477.45
410.43	3571.66
410.64	3508.17
410.85	3590.09
411.06	3512.27
411.27	3557.32
411.48	3581.90
411.70	3571.66
411.91	3567.56
412.12	3657.67
412.33	3612.62
412.54	3698.63
412.76	3721.16
412.97	3704.78
413.18	3577.80
413.39	3606.47
413.60	3733.45
413.81	3629.00
414.03	3590.09
414.24	3655.62
414.45	3766.21
414.66	3790.79
414.87	3889.09
415.08	3745.73
415.30	3794.89
415.51	3807.17
415.72	3672.01
415.93	3850.18
416.14	3866.56
416.35	3790.79
416.56	3821.51
416.78	3854.28
416.99	3956.68
417.20	3755.97
417.41	3897.28
417.62	3960.77
417.83	3973.06
418.04	3903.43
418.26	4081.60
418.47	4079.55
418.68	4016.07
418.89	4048.83
419.10	4116.42
419.31	4085.70
419.52	4169.66
419.73	3989.44
419.95	4140.99
420.16	4196.29
420.37	3944.39
420.58	4157.38
420.79	4024.26
421.00	3880.90
421.21	4198.34
421.42	4198.34
421.63	4192.19
421.85	4116.42
422.06	4306.88
422.27	4304.83
422.48	4173.76
422.69	4274.11
422.90	4425.66
423.11	4413.37
423.32	4261.82
423.53	4390.84
423.75	4396.99
423.96	4448.19
424.17	4433.85
424.38	4405.18
424.59	4339.65
424.80	4595.64
425.01	4503.48
425.22	4515.77
425.43	4470.72
425.64	4722.62
425.85	4751.29
426.06	4573.11
426.28	4579.26
426.49	4624.31
426.70	4693.94
426.91	4663.22
427.12	4704.18
427.33	4732.86
427.54	4614.07
427.75	4980.66
427.96	4853.69
428.17	4908.98
428.38	4886.45
428.59	4933.56
428.80	4779.96
429.01	4902.84
429.23	5005.24
429.44	5085.11
429.65	5019.57
429.86	5070.77
430.07	4995.00
430.28	4999.09
430.49	4892.60
430.70	5169.07
430.91	5066.67
431.12	5177.26
431.33	5207.98
431.54	5285.81
431.75	5232.56
431.96	5091.25
432.17	5201.84
432.38	5287.86
432.59	5371.82
432.80	5506.99
433.01	5392.30
433.22	5400.49
433.43	5306.29
433.64	5398.45
433.85	5285.81
434.06	5453.74
434.27	5320.62
434.49	5410.73
434.70	5519.28
434.91	5582.76
435.12	5607.34
435.33	5455.79
435.54	5570.48
435.75	5578.67
435.96	5629.87
436.17	5447.60
436.38	5658.54
436.59	5812.14
436.80	5547.95
437.01	5662.63
437.22	5773.22
437.43	5740.46
437.64	5523.37
437.85	5935.01
438.06	5767.08
438.27	5748.65
438.48	5836.71
438.69	5963.68
438.90	5775.27
439.11	5939.11
439.32	5992.36
439.53	5980.07
439.74	5906.34
439.95	6080.42
440.16	6049.70
440.37	6098.85
440.57	5937.06
440.78	6012.84
440.99	6066.08
441.20	6111.14
441.41	5967.78
441.62	6080.42
441.83	5961.64
442.04	6066.08
442.25	6084.52
442.46	6156.19
442.67	6322.08
442.88	6639.51
443.09	6119.33
443.30	6201.25
443.51	6195.11
443.72	6582.17
443.93	6324.13
444.14	6653.85
444.35	6291.36
444.56	6379.42
444.77	6447.01
444.98	6498.20
445.19	6477.73
445.40	6608.80
445.61	6500.25
445.81	6629.27
446.02	6604.70
446.23	6549.40
446.44	6418.33
446.65	6582.17
446.86	6582.17
447.07	6774.68
447.28	6850.46
447.49	6741.91
447.70	6715.29
447.91	6754.20
448.12	6793.11
448.33	6905.75
448.54	6836.12
448.74	6784.92
448.95	7004.05
449.16	6877.08
449.37	7229.33
449.58	6813.59
449.79	7206.80
450.00	6844.31
450.21	7141.27
450.42	7180.18
450.63	7028.63
450.84	6985.62
451.05	7290.77
451.25	7188.37
451.46	7034.77
451.67	7319.44
451.88	7206.80
452.09	7378.83
452.30	7274.38
452.51	7276.43
452.72	7450.51
452.93	7645.07
453.13	7274.38
453.34	7243.67
453.55	7382.93
453.76	7462.80
453.97	7761.80
454.18	7686.03
454.39	7726.99
454.60	7473.04
454.81	7610.25
455.01	7726.99
455.22	7403.41
455.43	7708.55
455.64	7866.25
455.85	7825.29
456.06	7997.32
456.27	7927.69
456.48	7870.34
456.68	7972.74
456.89	7972.74
457.10	8212.35
457.31	8142.72
457.52	8091.52
457.73	8148.87
457.94	8294.27
458.14	8001.41
458.35	8548.22
458.56	8343.42
458.77	8286.08
458.98	8382.34
459.19	8390.53
459.39	8576.89
459.60	8597.37
459.81	8290.18
460.02	8490.88
460.23	8607.61
460.44	8836.99
460.65	8847.22
460.85	8757.11
461.06	8871.80
461.27	8808.31
461.48	9025.40
461.69	9152.37
461.89	8753.02
462.10	9000.82
462.31	8879.99
462.52	8939.38
462.73	9209.72
462.94	9434.99
463.14	9179.00
463.35	9037.69
463.56	9637.74
463.77	9424.75
463.98	9361.27
464.18	9398.13
464.39	9584.49
464.60	9686.89
464.81	9613.17
465.02	9678.70
465.23	10030.95
465.43	9719.66
465.64	9883.50
465.85	9883.50
466.06	9846.63
466.27	10133.35
466.47	10108.77
466.68	10256.23
466.89	10098.53
467.10	10106.73
467.30	10108.77
467.51	10428.26
467.72	10680.16
467.93	10094.44
468.14	10671.97
468.34	10676.06
468.55	10807.13
468.76	10585.95
468.97	10557.28
469.17	10938.20
469.38	11001.69
469.59	10946.39
469.80	10887.00
470.01	11028.31
470.21	11143.00
470.42	11171.67
470.63	11380.56
470.84	11124.57
471.04	11280.21
471.25	11667.28
471.46	11388.75
471.67	11847.50
471.87	11521.87
472.08	11763.53
472.29	11976.52
472.50	11659.09
472.70	11792.20
472.91	11962.19
473.12	12308.29
473.33	12166.98
473.53	12222.28
473.74	12197.70
473.95	12504.90
474.16	12609.34
474.36	12500.80
474.57	12758.85
474.78	12832.57
474.99	12787.52
475.19	12820.28
475.40	13182.77
475.61	13272.89
475.81	13293.37
476.02	13623.09
476.23	13262.65
476.44	13393.72
476.64	13588.27
476.85	13666.10
477.06	13727.53
477.27	14063.40
477.47	13909.80
477.68	14024.49
477.89	14315.30
478.09	14104.36
478.30	14290.73
478.51	14356.26
478.71	14685.98
478.92	14565.15
479.13	14937.88
479.34	14772.00
479.54	14989.08
479.75	14821.15
479.96	14655.26
480.16	15091.48
480.37	15240.98
480.58	15453.97
480.78	15601.43
480.99	15392.53
481.20	15705.87
481.41	15836.94
481.61	15910.67
481.82	16002.83
482.03	15886.09
482.23	15855.37
482.44	16293.64
482.65	16439.05
482.85	16553.73
483.06	16357.13
483.27	16453.38
483.47	16652.03
483.68	16801.54
483.89	16627.46
484.09	16942.85
484.30	16731.90
484.51	17065.72
484.71	17209.08
484.92	17475.32
485.13	17483.51
485.33	17473.27
485.54	17383.16
485.75	17764.08
485.95	17702.64
486.16	17739.51
486.37	17966.83
486.57	17979.12
486.78	17977.07
486.98	18202.35
487.19	18364.14
487.40	18339.56
487.60	18228.97
487.81	18450.15
488.02	18527.97
488.22	18646.76
488.43	18839.26
488.64	18749.15
488.84	19091.16
489.05	18947.81
489.25	19101.40
489.46	19281.63
489.67	18980.57
489.87	19504.85
490.08	19605.20
490.29	19318.49
490.49	19930.83
490.70	19857.10
490.90	20123.34
491.11	19859.15
491.32	20188.88
491.52	20115.15
491.73	20188.88
491.94	20287.18
492.14	20004.56
492.35	20438.73
492.55	20735.68
492.76	20815.55
492.97	20747.97
493.17	20960.96
493.38	20942.53
493.58	21096.13
493.79	21030.59
494.00	21079.74
494.20	21122.75
494.41	21591.73
494.61	21259.96
494.82	21440.18
495.02	21569.21
495.23	21700.28
495.44	21597.88
495.64	21821.11
495.85	21640.89
496.05	21829.30
496.26	21839.54
496.47	21952.18
496.67	21995.18
496.88	22337.20
497.08	22124.21
497.29	22421.16
497.49	22314.67
497.70	22630.05
497.91	22675.11
498.11	22931.11
498.32	22865.57
498.52	22920.87
498.73	22924.96
498.93	22884.00
499.14	23168.67
499.34	23154.33
499.55	23443.10
499.76	23140.00
499.96	23191.20
500.17	23568.02
500.37	23391.90
500.58	23502.49
500.78	24055.44
500.99	23932.56
501.19	24094.35
501.40	24010.39
501.60	23547.54
501.81	23879.32
502.02	23979.67
502.22	24075.92
502.43	24450.70
502.63	24399.50
502.84	24428.17
503.04	24301.20
503.25	24336.01
503.45	24426.12
503.66	24573.58
503.86	24723.08
504.07	25101.95
504.27	25243.26
504.48	25005.70
504.68	25114.24
504.89	25081.47
505.09	25351.81
505.30	24911.49
505.50	25063.04
505.71	25310.85
505.91	25153.15
506.12	25409.15
506.32	25511.55
506.53	25497.21
506.73	25609.85
506.94	25484.92
507.14	25734.78
507.35	26238.58
507.55	25792.12
507.76	26125.94
507.96	25790.07
508.17	25912.95
508.37	25810.55
508.58	26093.17
508.78	26263.15
508.99	26611.31
509.19	26424.94
509.40	26244.72
509.60	26320.49
509.81	26490.48
510.01	26340.97
510.22	26725.99
510.42	26922.60
510.63	26742.38
510.83	26498.67
511.04	26576.49
511.24	26951.27
511.44	26941.03
511.65	27113.06
511.85	26879.59
512.06	26848.87
512.26	27493.98
512.47	27256.42
512.67	26971.75
512.88	27620.95
513.08	27068.00
513.29	27336.29
513.49	27395.68
513.69	27827.80
513.90	27405.92
514.10	27817.56
514.31	27831.90
514.51	27833.94
514.72	27745.88
514.92	27897.43
515.13	27899.48
515.33	27876.95
515.53	28280.40
515.74	28067.41
515.94	28409.42
516.15	28018.26
516.35	28116.56
516.56	28380.75
516.76	28522.06
516.96	28460.62
517.17	28687.95
517.37	28513.87
517.58	28685.90
517.78	28890.70
517.99	29083.20
518.19	29072.96
518.39	29439.55
518.60	28839.50
518.80	29230.66
519.01	29066.82
519.21	29097.54
519.41	29314.62
519.62	29331.01
519.82	29488.70
520.03	29726.27
520.23	29595.20
520.43	29693.50
520.64	30047.80
520.84	29945.40
521.05	30002.74
521.25	30279.22
521.45	29949.50
521.66	30193.20
521.86	30248.50
522.07	30029.37
522.27	30719.53
522.47	30375.47
522.68	30752.30
522.88	30576.17
523.08	30645.80
523.29	30885.42
523.49	30545.45
523.70	31014.44
523.90	31129.12
524.10	30979.62
524.31	31366.69
524.51	30948.90
524.71	31555.10
524.92	31612.45
525.12	31432.22
525.33	31663.64
525.53	32081.43
525.73	32028.18
525.94	31915.54
526.14	31725.08
526.34	31968.79
526.55	32218.64
526.75	32075.29
526.95	32335.38
527.16	32110.10
527.36	32183.83
527.56	32327.19
527.77	32808.46
527.97	32794.12
528.17	32620.05
528.38	32945.67
528.58	33318.40
528.78	32798.22
528.99	33148.42
529.19	33058.31
529.39	33000.97
529.60	33584.64
529.80	33248.77
530.00	33308.16
530.21	33754.62
530.41	33641.98
530.61	33584.64
530.82	33986.04
531.02	33918.46
531.22	34059.77
531.43	33730.05
531.63	34254.33
531.83	34653.68
532.04	34903.53
532.24	34440.69
532.44	34905.58
532.64	35030.51
532.85	34991.59
533.05	35325.41
533.25	34887.15
533.46	35161.58
533.66	35349.99
533.86	35247.59
534.07	35333.60
534.27	35130.86
534.47	35685.86
534.67	35624.42
534.88	35589.60
535.08	35753.44
535.28	35735.01
535.49	35556.83
535.69	36287.96
535.89	36361.69
536.09	36376.02
536.30	36552.15
536.50	36373.97
536.70	36623.83
536.91	36238.81
537.11	36570.58
537.31	36699.60
537.51	36789.71
537.72	37475.78
537.92	37084.62
538.12	37690.82
538.32	37168.58
538.53	37156.30
538.73	36984.27
538.93	37426.63
539.13	37369.29
539.34	37477.83
539.54	37217.74
539.74	37635.52
539.94	37604.80
540.15	37598.66
540.35	37903.81
540.55	37942.72
540.75	38241.72
540.96	38086.07
541.16	38104.51
541.36	38010.30
541.56	38294.97
541.77	38610.35
541.97	38315.45
542.17	38718.90
542.37	38616.50
542.58	38589.88
542.78	38757.81
542.98	38387.13
543.18	38759.86
543.38	39531.94
543.59	38935.98
543.79	38700.47
543.99	39075.24
544.19	39089.58
544.40	38956.46
544.60	39230.89
544.80	39407.01
545.00	39130.54
545.20	39441.83
545.41	39589.28
545.61	39566.76
545.81	39615.91
546.01	39945.63
546.21	39757.22
546.42	39400.87
546.62	39806.37
546.82	39654.82
547.02	40002.97
547.22	40252.83
547.43	39806.37
547.63	40203.67
547.83	40103.32
548.03	40056.22
548.23	40306.07
548.44	40263.07
548.64	40537.49
548.84	40625.56
549.04	40474.01
549.24	40689.04
549.45	40797.59
549.65	40441.24
549.85	40717.71
550.05	40918.42
550.25	40773.01
550.45	41414.02
550.66	40959.38
550.86	40877.46
551.06	41162.12
551.26	41227.66
551.46	41031.05
551.66	41160.08
551.87	40967.57
552.07	41158.03
552.27	41723.27
552.47	41624.96
552.67	41653.64
552.87	41256.33
553.07	41307.53
553.28	41624.96
553.48	41643.40
553.68	41629.06
553.88	42382.71
554.08	41807.23
554.28	41612.68
554.48	41575.81
554.69	41790.85
554.89	41811.33
555.09	42182.01
555.29	41928.06
555.49	41710.98
555.69	42118.53
555.89	41903.49
556.10	42040.70
556.30	41989.50
556.50	42472.82
556.70	42272.12
556.90	42603.89
557.10	42362.23
557.30	42302.84
557.50	42724.72
557.70	42651.00
557.91	42624.37
558.11	42861.94
558.31	42876.27
558.51	42583.41
558.71	43111.79
558.91	43140.46
559.11	42702.20
559.31	43224.43
559.51	42835.31
559.72	42810.74
559.92	43402.60
560.12	42990.96
560.32	43009.39
560.52	43130.22
560.72	43195.76
560.92	43621.73
561.12	43341.16
561.32	43662.69
561.52	43099.50
561.72	43789.67
561.93	43392.36
562.13	43474.28
562.33	43144.56
562.53	43959.65
562.73	43531.62
562.93	43545.96
563.13	43908.45
563.33	43380.07
563.53	44098.91
563.73	43474.28
563.93	43871.59
564.13	44481.88
564.33	44232.03
564.53	43998.56
564.74	44176.73
564.94	43844.96
565.14	44438.87
565.34	43832.68
565.54	44399.96
565.74	44291.42
565.94	44784.98
566.14	44219.74
566.34	44066.14
566.54	44883.28
566.74	43818.34
566.94	44279.13
567.14	44602.71
567.34	44647.77
567.54	44735.83
567.74	44528.98
567.94	44651.86
568.14	44762.45
568.34	44914.00
568.54	45256.01
568.74	45065.55
568.94	45043.02
569.14	45096.27
569.34	45346.12
569.54	45110.61
569.75	44946.77
569.95	44930.39
570.15	45630.79
570.35	45505.87
570.55	45411.66
570.75	45323.60
570.95	45528.39
571.15	45303.12
571.35	45376.84
571.55	46015.81
571.75	45528.39
571.95	45755.72
572.15	45827.40
572.35	45747.53
572.55	45921.60
572.75	46245.18
572.95	45753.67
573.15	46095.68
573.35	45833.54
573.55	45784.39
573.75	45980.99
573.95	46019.91
574.15	45886.79
574.35	46191.94
574.55	46249.28
574.75	46189.89
574.95	46431.55
575.15	46179.65
575.34	46746.93
575.54	46847.29
575.74	46767.41
575.94	46503.23
576.14	46347.58
576.34	46968.12
576.54	47207.73
576.74	46882.10
576.94	46722.36
577.14	47093.04
577.34	47303.98
577.54	46998.83
577.74	47639.85
577.94	47273.26
578.14	47574.31
578.34	47666.47
578.54	47416.62
578.74	47441.20
578.94	47758.63
579.14	47451.44
579.34	47531.31
579.54	47766.82
579.74	48264.48
579.94	47990.05
580.13	47930.66
580.33	48049.44
580.53	48172.32
580.73	48168.22
580.93	47768.87
581.13	48020.77
581.33	48362.78
581.53	48522.52
581.73	48325.92
581.93	48747.80
582.13	48887.06
582.33	48612.63
582.53	48710.94
582.73	49108.24
582.92	49050.90
583.12	48657.69
583.32	49026.32
583.52	48989.46
583.72	49177.87
583.92	49063.19
584.12	49415.44
584.32	49304.85
584.52	49112.34
584.72	49048.85
584.92	49030.42
585.11	49554.70
585.31	49417.49
585.51	49569.04
585.71	49773.83
585.91	49730.83
586.11	49091.86
586.31	49165.59
586.51	49235.22
586.71	49505.55
586.91	50169.09
587.10	49657.10
587.30	49937.67
587.50	49952.01
587.70	49779.98
587.90	50261.25
588.10	49999.11
588.30	50132.23
588.50	50236.67
