SpectraSuite Data File
++++++++++++++++++++++++++++++++++++
Date: Fri Jun 02 14:52:30 CEST 2017
User: INFO_000
Dark Spectrum Present: No
Reference Spectrum Present: No
Number of Sampled Component Spectra: 1
Spectrometers: USB4H00879
Integration Time (usec): 80000 (USB4H00879)
Spectra Averaged: 1 (USB4H00879)
Boxcar Smoothing: 0 (USB4H00879)
Correct for Electrical Dark: No (USB4H00879)
Strobe/Lamp Enabled: No (USB4H00879)
Correct for Detector Non-linearity: No (USB4H00879)
Correct for Stray Light: No (USB4H00879)
Number of Pixels in Processed Spectrum: 3648
>>>>>Begin Processed Spectral Data<<<<<
345.13	1284.08
345.34	1284.08
345.56	1284.08
345.78	1259.50
345.99	1335.28
346.21	1730.53
346.42	1685.48
346.64	1617.90
346.86	1779.68
347.07	1634.28
347.29	1675.24
347.50	1630.18
347.72	1624.04
347.94	1820.64
348.15	1570.79
348.37	1644.52
348.59	1724.39
348.80	1634.28
349.02	1771.49
349.23	1779.68
349.45	1814.50
349.67	1871.84
349.88	1841.12
350.10	1945.57
350.31	1830.88
350.53	1753.06
350.75	1968.10
350.96	1734.63
351.18	1910.75
351.39	1869.80
351.61	1912.80
351.82	1896.42
352.04	1914.85
352.26	1775.59
352.47	1931.23
352.69	1923.04
352.90	1716.20
353.12	1777.64
353.34	1884.13
353.55	1923.04
353.77	1869.80
353.98	1853.41
354.20	1841.12
354.41	1888.23
354.63	1929.19
354.85	2013.15
355.06	1869.80
355.28	1787.88
355.49	1931.23
355.71	2000.87
355.92	1888.23
356.14	2007.01
356.35	1791.97
356.57	1937.38
356.79	1968.10
357.00	1935.33
357.22	1955.81
357.43	1939.43
357.65	2039.78
357.86	1814.50
358.08	1951.71
358.29	1859.56
358.51	1912.80
358.72	1974.24
358.94	1939.43
359.16	1912.80
359.37	1992.67
359.59	1923.04
359.80	1904.61
360.02	1912.80
360.23	1984.48
360.45	2011.11
360.66	1890.28
360.88	1871.84
361.09	1912.80
361.31	2009.06
361.52	1925.09
361.74	2080.74
361.95	2086.88
362.17	2000.87
362.38	2097.12
362.60	2035.68
362.81	1908.71
363.03	1908.71
363.24	1949.67
363.46	2043.87
363.67	2027.49
363.89	1986.53
364.10	2031.58
364.32	1964.00
364.53	2052.06
364.75	1902.56
364.96	2056.16
365.18	2068.45
365.39	1910.75
365.61	1957.86
365.82	2060.26
366.04	2052.06
366.25	1992.67
366.47	2105.31
366.68	2080.74
366.90	1904.61
367.11	2037.73
367.33	2152.42
367.54	2082.78
367.76	2023.39
367.97	2154.46
368.19	2093.02
368.40	2023.39
368.62	2033.63
368.83	2007.01
369.05	2088.93
369.26	1972.19
369.48	2033.63
369.69	2025.44
369.91	2019.30
370.12	2017.25
370.33	2109.41
370.55	1937.38
370.76	2029.54
370.98	2142.18
371.19	2056.16
371.41	2052.06
371.62	2050.02
371.84	2023.39
372.05	2140.13
372.27	2115.55
372.48	2076.64
372.69	2064.35
372.91	2193.37
373.12	2123.74
373.34	2138.08
373.55	2228.19
373.77	2168.80
373.98	2144.22
374.20	2109.41
374.41	2281.44
374.62	2117.60
374.84	2133.98
375.05	2109.41
375.27	2189.28
375.48	2181.09
375.70	2097.12
375.91	2295.77
376.12	2289.63
376.34	2138.08
376.55	2209.76
376.77	2166.75
376.98	2088.93
377.19	2166.75
377.41	2138.08
377.62	2228.19
377.84	2236.38
378.05	2301.92
378.27	2113.50
378.48	2371.55
378.69	2357.21
378.91	2267.10
379.12	2222.05
379.34	2244.57
379.55	2250.72
379.76	2246.62
379.98	2238.43
380.19	2254.81
380.41	2279.39
380.62	2224.09
380.83	2209.76
381.05	2277.34
381.26	2439.13
381.47	2281.44
381.69	2312.16
381.90	2400.22
382.12	2303.96
382.33	2248.67
382.54	2191.33
382.76	2244.57
382.97	2371.55
383.19	2232.29
383.40	2334.68
383.61	2289.63
383.83	2269.15
384.04	2332.64
384.25	2375.64
384.47	2430.94
384.68	2361.31
384.89	2246.62
385.11	2277.34
385.32	2263.01
385.54	2361.31
385.75	2355.16
385.96	2371.55
386.18	2453.47
386.39	2418.65
386.60	2371.55
386.82	2488.28
387.03	2383.84
387.24	2439.13
387.46	2428.89
387.67	2447.32
387.88	2541.53
388.10	2441.18
388.31	2428.89
388.52	2568.15
388.74	2461.66
388.95	2578.39
389.16	2455.51
389.38	2443.23
389.59	2592.73
389.80	2598.87
390.02	2555.86
390.23	2584.54
390.44	2537.43
390.66	2516.95
390.87	2451.42
391.08	2627.54
391.30	2775.00
391.51	2619.35
391.72	2641.88
391.94	2639.83
392.15	2580.44
392.36	2650.07
392.58	2504.67
392.79	2617.30
393.00	2697.17
393.22	2750.42
393.43	2750.42
393.64	2719.70
393.85	2766.81
394.07	2758.61
394.28	2670.55
394.49	2705.37
394.71	2793.43
394.92	2797.53
395.13	2621.40
395.35	2768.85
395.56	2719.70
395.77	2791.38
395.98	2723.80
396.20	2789.33
396.41	2785.24
396.62	2871.25
396.84	2807.77
397.05	2899.92
397.26	2901.97
397.47	2949.08
397.69	2926.55
397.90	3055.57
398.11	2910.16
398.32	2832.34
398.54	2848.72
398.75	2889.68
398.96	2910.16
399.18	3100.62
399.39	3033.04
399.60	3047.38
399.81	2858.96
400.03	2949.08
400.24	3203.02
400.45	2871.25
400.66	3104.72
400.88	2992.08
401.09	3131.34
401.30	2983.89
401.51	3067.86
401.73	3252.17
401.94	3043.28
402.15	3211.22
402.36	3108.82
402.58	3121.10
402.79	3211.22
403.00	3227.60
403.21	3180.50
403.43	3182.54
403.64	3327.95
403.85	3186.64
404.06	3237.84
404.27	3076.05
404.49	3231.69
404.70	3239.89
404.91	3241.93
405.12	3194.83
405.34	3182.54
405.55	3456.97
405.76	3203.02
405.97	3270.61
406.19	3280.85
406.40	3229.65
406.61	3426.25
406.82	3452.88
407.03	3282.89
407.25	3375.05
407.46	3479.50
407.67	3346.38
407.88	3473.36
408.09	3258.32
408.31	3440.59
408.52	3454.92
408.73	3401.68
408.94	3319.76
409.15	3317.71
409.37	3370.96
409.58	3502.03
409.79	3510.22
410.00	3540.94
410.21	3428.30
410.43	3397.58
410.64	3352.52
410.85	3495.88
411.06	3567.56
411.27	3659.72
411.48	3629.00
411.70	3526.60
411.91	3760.07
412.12	3653.58
412.33	3577.80
412.54	3557.32
412.76	3624.90
412.97	3784.65
413.18	3557.32
413.39	3624.90
413.60	3631.05
413.81	3600.33
414.03	3741.64
414.24	3624.90
414.45	3813.32
414.66	3674.06
414.87	3776.45
415.08	3745.73
415.30	3712.97
415.51	3751.88
415.72	3692.49
415.93	3710.92
416.14	3715.02
416.35	3735.50
416.56	3760.07
416.78	3762.12
416.99	3837.89
417.20	3887.04
417.41	3833.80
417.62	3878.85
417.83	3837.89
418.04	3831.75
418.26	3837.89
418.47	3815.37
418.68	4005.83
418.89	3950.53
419.10	4140.99
419.31	3973.06
419.52	4018.11
419.73	4009.92
419.95	4091.84
420.16	3954.63
420.37	3940.29
420.58	4069.31
420.79	4001.73
421.00	4122.56
421.21	4061.12
421.42	3899.33
421.63	4057.03
421.85	4067.27
422.06	4194.24
422.27	4054.98
422.48	4194.24
422.69	4194.24
422.90	4063.17
423.11	4179.90
423.32	4145.09
423.53	4390.84
423.75	4210.62
423.96	4313.02
424.17	4401.08
424.38	4435.90
424.59	4288.45
424.80	4513.72
425.01	4329.41
425.22	4304.83
425.43	4388.80
425.64	4558.78
425.85	4603.83
426.06	4456.38
426.28	4474.81
426.49	4462.52
426.70	4493.24
426.91	4542.39
427.12	4609.98
427.33	4474.81
427.54	4513.72
427.75	4575.16
427.96	4593.59
428.17	4681.66
428.38	4739.00
428.59	4882.36
428.80	4716.47
429.01	4671.42
429.23	4626.36
429.44	5005.24
429.65	4849.59
429.86	4913.08
430.07	4857.78
430.28	4745.14
430.49	4902.84
430.70	5105.59
430.91	5162.93
431.12	4859.83
431.33	5040.05
431.54	4986.80
431.75	4964.28
431.96	4984.76
432.17	4988.85
432.38	5031.86
432.59	5130.16
432.80	5105.59
433.01	5183.41
433.22	5334.96
433.43	5171.12
433.64	5150.64
433.85	5169.07
434.06	5384.11
434.27	5074.87
434.49	5160.88
434.70	5472.17
434.91	5285.81
435.12	5357.49
435.33	5353.39
435.54	5418.93
435.75	5269.42
435.96	5328.81
436.17	5377.97
436.38	5621.67
436.59	5605.29
436.80	5279.66
437.01	5699.50
437.22	5679.02
437.43	5588.91
437.64	5449.64
437.85	5801.90
438.06	5562.28
438.27	5441.45
438.48	5603.24
438.69	5885.86
438.90	5799.85
439.11	5646.25
439.32	5873.57
439.53	5744.55
439.74	5785.51
439.95	5746.60
440.16	5771.18
440.37	5853.09
440.57	5812.14
440.78	5975.97
440.99	6191.01
441.20	5902.25
441.41	5834.66
441.62	5996.45
441.83	5762.98
442.04	6070.18
442.25	6172.58
442.46	5887.91
442.67	6238.11
442.88	6616.99
443.09	5969.83
443.30	6023.08
443.51	6252.45
443.72	6367.13
443.93	6008.74
444.14	6434.72
444.35	6137.76
444.56	6320.03
444.77	6490.01
444.98	6332.32
445.19	6389.66
445.40	6172.58
445.61	6244.26
445.81	6539.16
446.02	6541.21
446.23	6264.74
446.44	6358.94
446.65	6373.28
446.86	6442.91
447.07	6578.08
447.28	6688.67
447.49	6688.67
447.70	6727.58
447.91	6682.52
448.12	6588.32
448.33	6756.25
448.54	6832.02
448.74	6567.84
448.95	6631.32
449.16	6825.88
449.37	7137.17
449.58	6741.91
449.79	6946.71
450.00	6692.76
450.21	6936.47
450.42	6920.09
450.63	7110.55
450.84	7034.77
451.05	7137.17
451.25	7061.40
451.46	7085.97
451.67	7251.86
451.88	7276.43
452.09	7178.13
452.30	7196.56
452.51	7159.70
452.72	7253.91
452.93	7557.00
453.13	7352.21
453.34	7315.34
453.55	7356.30
453.76	7647.12
453.97	7577.48
454.18	7360.40
454.39	7559.05
454.60	7620.49
454.81	7698.31
455.01	7737.23
455.22	7501.71
455.43	7726.99
455.64	7923.59
455.85	7929.74
456.06	7958.41
456.27	7892.87
456.48	7866.25
456.68	7847.82
456.89	7980.93
457.10	7989.13
457.31	8058.76
457.52	7862.15
457.73	8134.53
457.94	8433.54
458.14	7989.13
458.35	8353.66
458.56	8255.36
458.77	8116.10
458.98	8509.31
459.19	8310.66
459.39	8429.44
459.60	8507.26
459.81	8339.33
460.02	8707.96
460.23	8472.45
460.44	8566.65
460.65	8642.43
460.85	8626.04
461.06	8943.48
461.27	8605.56
461.48	9047.93
461.69	9119.60
461.89	8558.46
462.10	8927.10
462.31	8918.90
462.52	8818.55
462.73	8982.39
462.94	9176.95
463.14	9160.56
463.35	9203.57
463.56	9492.34
463.77	9400.18
463.98	9217.91
464.18	9238.39
464.39	9258.87
464.60	9504.62
464.81	9574.25
465.02	9553.77
465.23	9748.33
465.43	9533.29
465.64	9873.26
465.85	9674.60
466.06	9662.32
466.27	10065.77
466.47	10092.39
466.68	10055.53
466.89	9893.74
467.10	10151.78
467.30	9836.39
467.51	10139.49
467.72	10291.04
467.93	9901.93
468.14	10186.60
468.34	10456.93
468.55	10446.69
468.76	10479.46
468.97	10301.28
469.17	10727.26
469.38	10678.11
469.59	10915.67
469.80	10731.36
470.01	10743.64
470.21	10653.53
470.42	10864.47
470.63	10983.26
470.84	10919.77
471.04	11175.77
471.25	11099.99
471.46	11112.28
471.67	11362.13
471.87	11329.36
472.08	11298.64
472.29	11687.76
472.50	11267.92
472.70	11474.77
472.91	11581.26
473.12	11591.50
473.33	11730.76
473.53	12052.30
473.74	12085.06
473.95	11892.55
474.16	12527.42
474.36	11970.38
474.57	12365.64
474.78	12402.50
474.99	12318.53
475.19	12085.06
475.40	12660.54
475.61	12652.35
475.81	12805.95
476.02	12969.79
476.23	12826.43
476.44	12988.22
476.64	13176.63
476.85	13412.15
477.06	13014.84
477.27	13471.54
477.47	13358.90
477.68	13508.40
477.89	13543.22
478.09	13643.57
478.30	13754.16
478.51	13756.21
478.71	14038.83
478.92	13905.71
479.13	13997.87
479.34	14198.57
479.54	14401.32
479.75	14337.83
479.96	14415.65
480.16	14548.77
480.37	14622.50
480.58	14749.47
480.78	14909.21
480.99	15099.67
481.20	14937.88
481.41	15085.34
481.61	15111.96
481.82	15292.18
482.03	15064.86
482.23	15419.16
482.44	15613.71
482.65	15838.99
482.85	15632.15
483.06	15642.39
483.27	15632.15
483.47	15693.58
483.68	15798.03
483.89	16123.66
484.09	16181.00
484.30	16244.49
484.51	16422.66
484.71	16353.03
484.92	16430.85
485.13	16695.04
485.33	16867.07
485.54	16715.52
485.75	16797.44
485.95	16946.94
486.16	17149.69
486.37	17108.73
486.57	16959.23
486.78	17297.14
486.98	17501.94
487.19	17415.93
487.40	17768.18
487.60	17759.98
487.81	17905.39
488.02	17600.24
488.22	17972.97
488.43	17970.93
488.64	18058.99
488.84	18153.20
489.05	18126.57
489.25	18147.05
489.46	18745.06
489.67	18454.25
489.87	18874.08
490.08	18876.13
490.29	18607.84
490.49	19125.98
490.70	19248.86
490.90	19476.18
491.11	19197.66
491.32	19295.96
491.52	19588.82
491.73	19580.63
491.94	19488.47
492.14	19586.77
492.35	20164.30
492.55	20137.68
492.76	19893.97
492.97	19930.83
493.17	19910.35
493.38	20436.68
493.58	20549.32
493.79	20577.99
494.00	20381.38
494.20	20227.79
494.41	20473.54
494.61	20819.65
494.82	20803.27
495.02	20901.57
495.23	21102.27
495.44	21159.61
495.64	21202.62
495.85	21024.45
496.05	21393.08
496.26	21368.51
496.47	21769.91
496.67	21440.18
496.88	21812.92
497.08	21331.64
497.29	21860.02
497.49	21759.67
497.70	21900.98
497.91	22333.10
498.11	22193.84
498.32	22171.31
498.52	22548.14
498.73	22896.29
498.93	22552.23
499.14	22560.42
499.34	22722.21
499.55	22812.32
499.76	22519.46
499.96	23092.90
500.17	22849.19
500.37	22847.14
500.58	23056.03
500.78	23307.93
500.99	22988.45
501.19	23469.72
501.40	23371.42
501.60	23369.37
501.81	23426.71
502.02	23674.52
502.22	23619.22
502.43	23711.38
502.63	24135.31
502.84	24100.50
503.04	23981.71
503.25	24053.39
503.45	24112.78
503.66	24262.29
503.86	24028.82
504.07	24483.47
504.27	24385.16
504.48	24823.43
504.68	24544.91
504.89	25077.38
505.09	24843.91
505.30	24948.36
505.50	24848.00
505.71	25091.71
505.91	25128.58
506.12	24970.88
506.32	24972.93
506.53	25335.42
506.73	25403.00
506.94	25233.02
507.14	25075.33
507.35	25396.86
507.55	25349.76
507.76	25917.04
507.96	25773.69
508.17	25757.30
508.37	26117.75
508.58	25923.19
508.78	25980.53
508.99	26009.20
509.19	26312.30
509.40	26111.60
509.60	26035.83
509.81	26230.38
510.01	26232.43
510.22	26328.69
510.42	26318.45
510.63	26480.24
510.83	26275.44
511.04	26312.30
511.24	26637.93
511.44	26762.86
511.65	26648.17
511.85	26517.10
512.06	26719.85
512.26	26863.21
512.47	27197.02
512.67	27102.82
512.88	26895.97
513.08	26984.04
513.29	26936.93
513.49	27188.83
513.69	27223.65
513.90	27352.67
514.10	27530.84
514.31	27590.24
514.51	27485.79
514.72	27536.99
514.92	27522.65
515.13	27629.15
515.33	27782.74
515.53	27573.85
515.74	27723.35
515.94	27786.84
516.15	28063.32
516.35	27823.70
516.56	28132.95
516.76	28075.60
516.96	28036.69
517.17	28345.94
517.37	28298.83
517.58	28360.27
517.78	28565.07
517.99	28644.94
518.19	28769.86
518.39	28601.93
518.60	28702.28
518.80	28694.09
519.01	28933.70
519.21	28632.65
519.41	29214.27
519.62	28470.86
519.82	29158.98
520.03	29347.39
520.23	29371.97
520.43	29101.64
520.64	29140.55
520.84	29484.61
521.05	29644.35
521.25	29570.62
521.45	29752.89
521.66	29763.13
521.86	29818.42
522.07	29521.47
522.27	29836.86
522.47	29709.88
522.68	30150.20
522.88	29896.25
523.08	30225.97
523.29	30047.80
523.49	30125.62
523.70	30311.99
523.90	30258.74
524.10	30203.44
524.31	30633.52
524.51	30113.33
524.71	31092.26
524.92	30711.34
525.12	30971.43
525.33	31004.20
525.53	30770.73
525.73	31114.79
525.94	31239.72
526.14	31073.83
526.34	31247.91
526.55	31477.28
526.75	31249.96
526.95	31413.79
527.16	31374.88
527.36	31522.34
527.56	31948.31
527.77	32239.12
527.97	31688.22
528.17	31968.79
528.38	32366.10
528.58	32179.73
528.78	32345.62
528.99	32165.40
529.19	32521.74
529.39	32099.86
529.60	32323.09
529.80	32726.54
530.00	32845.32
530.21	32833.04
530.41	32865.80
530.61	32792.08
530.82	32902.67
531.02	32886.28
531.22	33431.04
531.43	33156.61
531.63	33342.98
531.83	33646.08
532.04	34004.47
532.24	33537.54
532.44	33957.37
532.64	33693.18
532.85	34141.69
533.05	33836.54
533.25	34403.83
533.46	34231.80
533.66	34272.76
533.86	33842.68
534.07	34409.97
534.27	33996.28
534.47	34633.20
534.67	34829.80
534.88	34901.48
535.08	34924.01
535.28	34917.87
535.49	35081.70
535.69	35050.99
535.89	35507.68
536.09	35177.96
536.30	35855.84
536.50	35468.77
536.70	35608.03
536.91	35782.11
537.11	35694.05
537.31	35921.37
537.51	35773.92
537.72	36251.09
537.92	36150.74
538.12	36103.64
538.32	36083.16
538.53	35759.58
538.73	35962.33
538.93	36247.00
539.13	36117.98
539.34	36404.69
539.54	36595.15
539.74	36758.99
539.94	36857.29
540.15	36197.85
540.35	36998.60
540.55	36963.79
540.75	36877.77
540.96	37092.81
541.16	37115.34
541.36	36996.56
541.56	37107.15
541.77	37197.26
541.97	37225.93
542.17	37254.60
542.37	37602.75
542.58	37279.18
542.78	37350.85
542.98	37496.26
543.18	37959.10
543.38	37940.67
543.59	38137.27
543.79	37809.60
543.99	37531.08
544.19	37905.85
544.40	37922.24
544.60	38276.54
544.80	38020.54
545.00	38327.74
545.20	38471.09
545.41	38254.01
545.61	38190.52
545.81	38766.00
546.01	38618.55
546.21	38712.75
546.42	38137.27
546.62	38981.04
546.82	38577.59
547.02	38661.55
547.22	38786.48
547.43	38962.61
547.63	38843.82
547.83	39175.59
548.03	39075.24
548.23	39400.87
548.44	39175.59
548.64	39460.26
548.84	39382.44
549.04	39142.83
549.24	39359.91
549.45	39546.28
549.65	39341.48
549.85	39251.37
550.05	39634.34
550.25	39525.80
550.45	40005.02
550.66	39712.16
550.86	40150.43
551.06	40015.26
551.26	39847.33
551.46	40146.33
551.66	40199.58
551.87	39691.68
552.07	40377.75
552.27	39843.23
552.47	40344.98
552.67	39859.62
552.87	40660.37
553.07	40510.87
553.28	40068.51
553.48	40514.97
553.68	40746.39
553.88	40998.29
554.08	40623.51
554.28	40643.99
554.48	40957.33
554.69	40703.38
554.89	40822.16
555.09	40809.87
555.29	40732.05
555.49	40781.20
555.69	40969.61
555.89	41188.75
556.10	41291.15
556.30	41057.68
556.50	41246.09
556.70	40848.78
556.90	41452.94
557.10	41465.22
557.30	41121.16
557.50	41301.39
557.70	41305.48
557.91	41792.90
558.11	41366.92
558.31	41899.39
558.51	41348.49
558.71	41735.56
558.91	41395.59
559.11	41710.98
559.31	41993.60
559.51	41776.51
559.72	41567.62
559.92	41817.47
560.12	41766.27
560.32	42028.41
560.52	41899.39
560.72	42169.72
560.92	42132.86
561.12	42427.77
561.32	42356.09
561.52	41696.64
561.72	42481.02
561.93	42446.20
562.13	42298.75
562.33	42093.95
562.53	42739.06
562.73	42433.91
562.93	42841.46
563.13	42212.73
563.33	42374.52
563.53	42853.75
563.73	42364.28
563.93	42915.19
564.13	43044.21
564.33	42466.68
564.53	42448.25
564.74	42700.15
564.94	43054.45
565.14	43173.23
565.34	43079.02
565.54	42845.55
565.74	42976.62
565.94	43349.35
566.14	42868.08
566.34	42954.10
566.54	43658.60
566.74	42853.75
566.94	43255.15
567.14	43412.84
567.34	43386.22
567.54	43482.47
567.74	43373.93
567.94	43711.84
568.14	43642.21
568.34	43822.44
568.54	43484.52
568.74	43859.30
568.94	43484.52
569.14	44103.01
569.34	44162.40
569.54	44008.80
569.75	43744.61
569.95	43969.89
570.15	44449.11
570.35	44432.73
570.55	44111.20
570.75	44406.11
570.95	44174.69
571.15	44211.55
571.35	44498.26
571.55	44547.42
571.75	44354.91
571.95	44782.93
572.15	44346.72
572.35	44660.05
572.55	44506.46
572.75	44551.51
572.95	44682.58
573.15	44744.02
573.35	44875.09
573.55	44680.53
573.75	44825.94
573.95	44989.78
574.15	44848.47
574.35	44635.48
574.55	45167.95
574.75	44918.10
574.95	45260.11
575.15	45135.18
575.34	45153.62
575.54	45684.04
575.74	45569.35
575.94	45360.46
576.14	45331.79
576.34	45651.27
576.54	45649.22
576.74	45731.14
576.94	45425.99
577.14	46032.19
577.34	46437.69
577.54	45653.32
577.74	45985.09
577.94	46208.32
578.14	46017.86
578.34	46181.70
578.54	45557.06
578.74	45913.41
578.94	46251.33
579.14	46232.89
579.34	46689.59
579.54	46376.25
579.74	47224.11
579.94	46585.15
580.13	46847.29
580.33	46820.66
580.53	46568.76
580.73	46908.72
580.93	47134.00
581.13	47170.86
581.33	47226.16
581.53	47390.00
581.73	47217.97
581.93	47482.16
582.13	47504.68
582.33	47555.88
582.53	47109.43
582.73	47699.24
582.92	47404.33
583.12	47760.68
583.32	47815.97
583.52	47492.40
583.72	47502.64
583.92	47654.18
584.12	47787.30
584.32	48348.45
584.52	48395.55
584.72	48014.63
584.92	48581.91
585.11	48565.53
585.31	48291.10
585.51	48219.42
585.71	48184.61
585.91	48334.11
586.11	48413.98
586.31	48475.42
586.51	48633.11
586.71	48958.74
586.91	48958.74
587.10	48710.94
587.30	49341.71
587.50	48487.71
587.70	48995.60
587.90	49100.05
588.10	48645.40
588.30	49157.39
588.50	49501.45
