SpectraSuite Data File
++++++++++++++++++++++++++++++++++++
Date: Fri Jun 02 14:52:28 CEST 2017
User: INFO_000
Dark Spectrum Present: No
Reference Spectrum Present: No
Number of Sampled Component Spectra: 1
Spectrometers: USB4H00879
Integration Time (usec): 80000 (USB4H00879)
Spectra Averaged: 1 (USB4H00879)
Boxcar Smoothing: 0 (USB4H00879)
Correct for Electrical Dark: No (USB4H00879)
Strobe/Lamp Enabled: No (USB4H00879)
Correct for Detector Non-linearity: No (USB4H00879)
Correct for Stray Light: No (USB4H00879)
Number of Pixels in Processed Spectrum: 3648
>>>>>Begin Processed Spectral Data<<<<<
345.13	1261.55
345.34	1261.55
345.56	1261.55
345.78	1257.45
345.99	1298.41
346.21	1644.52
346.42	1736.68
346.64	1708.01
346.86	1761.25
347.07	1673.19
347.29	1720.29
347.50	1607.66
347.72	1673.19
347.94	1724.39
348.15	1673.19
348.37	1593.32
348.59	1621.99
348.80	1669.09
349.02	1710.05
349.23	1886.18
349.45	1818.60
349.67	1822.69
349.88	1820.64
350.10	1949.67
350.31	1877.99
350.53	1849.32
350.75	2015.20
350.96	1820.64
351.18	1869.80
351.39	1923.04
351.61	1851.36
351.82	1869.80
352.04	1900.52
352.26	1775.59
352.47	1916.90
352.69	1974.24
352.90	1724.39
353.12	1929.19
353.34	1830.88
353.55	1890.28
353.77	1875.94
353.98	1822.69
354.20	1824.74
354.41	1910.75
354.63	1959.91
354.85	2060.26
355.06	1927.14
355.28	1826.79
355.49	1783.78
355.71	1787.88
355.92	1877.99
356.14	1957.86
356.35	1894.37
356.57	1900.52
356.79	1982.43
357.00	1837.03
357.22	2004.96
357.43	1908.71
357.65	1900.52
357.86	1761.25
358.08	1992.67
358.29	1886.18
358.51	2025.44
358.72	1992.67
358.94	1902.56
359.16	1943.52
359.37	1957.86
359.59	1978.34
359.80	1992.67
360.02	1972.19
360.23	1994.72
360.45	2029.54
360.66	1929.19
360.88	1863.65
361.09	1964.00
361.31	1986.53
361.52	2025.44
361.74	2025.44
361.95	2082.78
362.17	1972.19
362.38	2052.06
362.60	2074.59
362.81	2009.06
363.03	1968.10
363.24	2045.92
363.46	2031.58
363.67	2043.87
363.89	2029.54
364.10	2080.74
364.32	1869.80
364.53	2068.45
364.75	1910.75
364.96	2031.58
365.18	2064.35
365.39	2097.12
365.61	1974.24
365.82	2146.27
366.04	2019.30
366.25	1957.86
366.47	2050.02
366.68	2101.22
366.90	1947.62
367.11	2099.17
367.33	2068.45
367.54	2043.87
367.76	2056.16
367.97	2148.32
368.19	2037.73
368.40	2105.31
368.62	2045.92
368.83	1970.15
369.05	2017.25
369.26	1988.58
369.48	2045.92
369.69	1923.04
369.91	2105.31
370.12	2043.87
370.33	2158.56
370.55	1984.48
370.76	2064.35
370.98	2131.94
371.19	2074.59
371.41	2058.21
371.62	2115.55
371.84	2019.30
372.05	2123.74
372.27	2023.39
372.48	2117.60
372.69	2088.93
372.91	2160.61
373.12	2142.18
373.34	2119.65
373.55	2172.89
373.77	2121.70
373.98	2062.30
374.20	2193.37
374.41	2205.66
374.62	2129.89
374.84	2136.03
375.05	2160.61
375.27	2209.76
375.48	2224.09
375.70	2205.66
375.91	2209.76
376.12	2306.01
376.34	2129.89
376.55	2117.60
376.77	2238.43
376.98	2138.08
377.19	2179.04
377.41	2226.14
377.62	2275.29
377.84	2197.47
378.05	2385.88
378.27	2158.56
378.48	2416.60
378.69	2357.21
378.91	2344.92
379.12	2172.89
379.34	2203.61
379.55	2281.44
379.76	2279.39
379.98	2285.53
380.19	2285.53
380.41	2340.83
380.62	2303.96
380.83	2369.50
381.05	2195.42
381.26	2473.95
381.47	2248.67
381.69	2232.29
381.90	2451.42
382.12	2320.35
382.33	2248.67
382.54	2353.12
382.76	2392.03
382.97	2328.54
383.19	2265.05
383.40	2408.41
383.61	2369.50
383.83	2306.01
384.04	2263.01
384.25	2396.12
384.47	2379.74
384.68	2383.84
384.89	2408.41
385.11	2299.87
385.32	2379.74
385.54	2349.02
385.75	2349.02
385.96	2402.27
386.18	2346.97
386.39	2467.80
386.60	2457.56
386.82	2383.84
387.03	2379.74
387.24	2572.25
387.46	2478.04
387.67	2471.90
387.88	2496.47
388.10	2482.14
388.31	2500.57
388.52	2506.71
388.74	2514.91
388.95	2527.19
389.16	2459.61
389.38	2551.77
389.59	2555.86
389.80	2648.02
390.02	2572.25
390.23	2660.31
390.44	2584.54
390.66	2609.11
390.87	2510.81
391.08	2598.87
391.30	2701.27
391.51	2600.92
391.72	2664.41
391.94	2729.94
392.15	2713.56
392.36	2631.64
392.58	2545.63
392.79	2705.37
393.00	2666.46
393.22	2772.95
393.43	2770.90
393.64	2727.89
393.85	2842.58
394.07	2797.53
394.28	2748.37
394.49	2850.77
394.71	2756.57
394.92	2938.84
395.13	2820.05
395.35	2666.46
395.56	2746.33
395.77	2824.15
395.98	2877.40
396.20	2830.29
396.41	2875.35
396.62	2848.72
396.84	2953.17
397.05	2920.40
397.26	2942.93
397.47	3026.90
397.69	2912.21
397.90	3098.58
398.11	2944.98
398.32	2891.73
398.54	2965.46
398.75	2887.64
398.96	2942.93
399.18	3121.10
399.39	3010.51
399.60	3114.96
399.81	3008.47
400.03	2953.17
400.24	3235.79
400.45	3102.67
400.66	3110.86
400.88	3022.80
401.09	3155.92
401.30	3155.92
401.51	3198.93
401.73	3121.10
401.94	3127.25
402.15	3194.83
402.36	3174.35
402.58	3176.40
402.79	3241.93
403.00	3241.93
403.21	3207.12
403.43	3248.08
403.64	3293.13
403.85	3178.45
404.06	3375.05
404.27	3119.06
404.49	3342.28
404.70	3246.03
404.91	3282.89
405.12	3299.28
405.34	3301.33
405.55	3499.98
405.76	3205.07
405.97	3262.41
406.19	3450.83
406.40	3213.26
406.61	3411.92
406.82	3274.70
407.03	3334.09
407.25	3428.30
407.46	3401.68
407.67	3487.69
407.88	3530.70
408.09	3542.99
408.31	3452.88
408.52	3463.12
408.73	3430.35
408.94	3379.15
409.15	3536.84
409.37	3504.07
409.58	3590.09
409.79	3475.40
410.00	3583.95
410.21	3426.25
410.43	3569.61
410.64	3393.48
410.85	3540.94
411.06	3545.03
411.27	3639.24
411.48	3649.48
411.70	3592.14
411.91	3618.76
412.12	3680.20
412.33	3606.47
412.54	3680.20
412.76	3702.73
412.97	3696.58
413.18	3545.03
413.39	3594.19
413.60	3743.69
413.81	3786.69
414.03	3624.90
414.24	3698.63
414.45	3846.09
414.66	3721.16
414.87	3821.51
415.08	3643.34
415.30	3682.25
415.51	3794.89
415.72	3819.46
415.93	3803.08
416.14	3794.89
416.35	3846.09
416.56	3885.00
416.78	3960.77
416.99	3809.22
417.20	3837.89
417.41	3962.82
417.62	3913.67
417.83	4036.55
418.04	3958.72
418.26	3833.80
418.47	3903.43
418.68	3993.54
418.89	3913.67
419.10	4095.94
419.31	4001.73
419.52	4143.04
419.73	4003.78
419.95	4114.37
420.16	4032.45
420.37	3942.34
420.58	4251.58
420.79	4026.31
421.00	4188.10
421.21	4167.62
421.42	4048.83
421.63	4028.35
421.85	4093.89
422.06	4247.49
422.27	4237.25
422.48	4198.34
422.69	4339.65
422.90	4251.58
423.11	4286.40
423.32	4382.65
423.53	4460.48
423.75	4394.94
423.96	4526.01
424.17	4456.38
424.38	4550.59
424.59	4523.96
424.80	4702.14
425.01	4495.29
425.22	4528.06
425.43	4554.68
425.64	4632.51
425.85	4693.94
426.06	4564.92
426.28	4607.93
426.49	4646.84
426.70	4693.94
426.91	4526.01
427.12	4698.04
427.33	4669.37
427.54	4673.46
427.75	4886.45
427.96	4927.41
428.17	4839.35
428.38	4888.50
428.59	4843.45
428.80	4816.82
429.01	4913.08
429.23	4900.79
429.44	5027.76
429.65	4943.80
429.86	5050.29
430.07	4923.32
430.28	4943.80
430.49	5167.03
430.70	5152.69
430.91	5052.34
431.12	5158.83
431.33	5195.70
431.54	5248.94
431.75	5236.66
431.96	5058.48
432.17	5218.22
432.38	5261.23
432.59	5588.91
432.80	5377.97
433.01	5345.20
433.22	5441.45
433.43	5396.40
433.64	5384.11
433.85	5365.68
434.06	5369.77
434.27	5365.68
434.49	5441.45
434.70	5615.53
434.91	5584.81
435.12	5480.36
435.33	5648.30
435.54	5601.19
435.75	5545.90
435.96	5511.08
436.17	5726.12
436.38	5787.56
436.59	5762.98
436.80	5674.92
437.01	5836.71
437.22	5836.71
437.43	5699.50
437.64	5660.59
437.85	5918.63
438.06	5916.58
438.27	5801.90
438.48	5873.57
438.69	5980.07
438.90	5879.72
439.11	5818.28
439.32	6045.60
439.53	5951.40
439.74	5963.68
439.95	5969.83
440.16	6109.09
440.37	6031.27
440.57	5924.77
440.78	6152.10
440.99	6217.63
441.20	6135.71
441.41	6090.66
441.62	5986.21
441.83	6012.84
442.04	6197.15
442.25	6176.67
442.46	6242.21
442.67	6256.54
442.88	6713.24
443.09	6090.66
443.30	6223.78
443.51	6371.23
443.72	6545.31
443.93	6274.98
444.14	6584.22
444.35	6320.03
444.56	6459.29
444.77	6365.09
444.98	6397.85
445.19	6598.56
445.40	6471.58
445.61	6475.68
445.81	6711.19
446.02	6809.50
446.23	6703.00
446.44	6514.59
446.65	6760.34
446.86	6606.75
447.07	6748.06
447.28	7008.15
447.49	6827.93
447.70	6741.91
447.91	6809.50
448.12	6836.12
448.33	6881.18
448.54	6883.22
448.74	6885.27
448.95	6909.85
449.16	7026.58
449.37	7268.24
449.58	6911.89
449.79	7090.07
450.00	6803.35
450.21	7278.48
450.42	7452.56
450.63	7106.45
450.84	7057.30
451.05	6985.62
451.25	7108.50
451.46	7065.49
451.67	7241.62
451.88	7311.25
452.09	7292.82
452.30	7235.47
452.51	7415.69
452.72	7405.46
452.93	7593.87
453.13	7348.11
453.34	7311.25
453.55	7585.68
453.76	7448.46
453.97	7726.99
454.18	7559.05
454.39	7649.16
454.60	7442.32
454.81	7632.78
455.01	7841.67
455.22	7554.96
455.43	7864.20
455.64	7944.07
455.85	8034.18
456.06	8286.08
456.27	8093.57
456.48	7862.15
456.68	7968.65
456.89	8099.72
457.10	8220.55
457.31	8267.65
457.52	8150.92
457.73	8269.70
457.94	8308.61
458.14	8228.74
458.35	8546.17
458.56	8304.51
458.77	8351.62
458.98	8447.87
459.19	8529.79
459.39	8722.30
459.60	8613.76
459.81	8308.61
460.02	8787.83
460.23	8580.99
460.44	8990.58
460.65	8966.01
460.85	8849.27
461.06	8949.62
461.27	8759.16
461.48	9086.84
461.69	9207.67
461.89	8736.63
462.10	9119.60
462.31	9037.69
462.52	8949.62
462.73	9146.23
462.94	9351.03
463.14	9252.72
463.35	9258.87
463.56	9695.08
463.77	9664.36
463.98	9391.98
464.18	9523.05
464.39	9553.77
464.60	9822.06
464.81	9744.24
465.02	9635.69
465.23	9824.11
465.43	9705.32
465.64	10076.01
465.85	9828.20
466.06	9834.35
466.27	10071.91
466.47	10143.59
466.68	10227.56
466.89	10194.79
467.10	10227.56
467.30	10047.33
467.51	10375.01
467.72	10542.94
467.93	10422.11
468.14	10426.21
468.34	10762.08
468.55	10583.90
468.76	10661.73
468.97	10469.22
469.17	10917.72
469.38	10979.16
469.59	11040.60
469.80	10970.97
470.01	10731.36
470.21	10968.92
470.42	11505.49
470.63	11392.85
470.84	11163.48
471.04	11433.81
471.25	11403.09
471.46	11509.58
471.67	11505.49
471.87	11472.72
472.08	11532.11
472.29	11872.07
472.50	11562.83
472.70	11773.77
472.91	11951.95
473.12	11923.27
473.33	12128.07
473.53	12398.40
473.74	12228.42
473.95	12476.23
474.16	12590.91
474.36	12435.27
474.57	12627.78
474.78	12674.88
474.99	12414.79
475.19	12767.04
475.40	12980.03
475.61	13172.54
475.81	13252.41
476.02	13473.59
476.23	13383.48
476.44	13289.27
476.64	13504.31
476.85	13569.84
477.06	13768.49
477.27	13795.12
477.47	13831.98
477.68	14094.12
477.89	14186.28
478.09	14075.69
478.30	14159.66
478.51	14348.07
478.71	14685.98
478.92	14491.43
479.13	14640.93
479.34	14991.13
479.54	14845.73
479.75	14931.74
479.96	14794.53
480.16	14944.03
480.37	15124.25
480.58	15177.50
480.78	15443.73
480.99	15630.10
481.20	15671.06
481.41	15783.70
481.61	15947.53
481.82	15920.91
482.03	15834.89
482.23	15863.57
482.44	16158.47
482.65	16420.61
482.85	16416.52
483.06	16256.78
483.27	16244.49
483.47	16369.41
483.68	16672.51
483.89	16977.66
484.09	16598.79
484.30	17049.34
484.51	17172.22
484.71	17313.53
484.92	17299.19
485.13	17420.02
485.33	17395.45
485.54	17471.22
485.75	17620.72
485.95	17762.03
486.16	17542.90
486.37	18040.56
486.57	17843.95
486.78	17977.07
486.98	18050.80
487.19	18267.88
487.40	18368.23
487.60	18251.50
487.81	18732.77
488.02	18548.45
488.22	18454.25
488.43	18927.33
488.64	19037.92
488.84	19205.85
489.05	19246.81
489.25	19197.66
489.46	19447.51
489.67	19130.08
489.87	19424.98
490.08	19631.83
490.29	19525.33
490.49	20033.23
490.70	19896.02
490.90	19728.08
491.11	19777.23
491.32	20135.63
491.52	20383.43
491.73	20324.04
491.94	20305.61
492.14	20612.81
492.35	20653.76
492.55	20598.47
492.76	20979.39
492.97	21034.69
493.17	20901.57
493.38	21210.81
493.58	21401.27
493.79	21159.61
494.00	21061.31
494.20	21513.91
494.41	21204.67
494.61	21685.94
494.82	21778.10
495.02	21552.82
495.23	21618.36
495.44	21933.75
495.64	21847.73
495.85	22111.92
496.05	22163.12
496.26	22013.62
496.47	22474.41
496.67	22349.48
496.88	22724.26
497.08	22562.47
497.29	22658.73
497.49	22576.81
497.70	23035.55
497.91	22765.22
498.11	23066.27
498.32	23246.49
498.52	23135.90
498.73	23500.44
498.93	23529.11
499.14	23066.27
499.34	23475.87
499.55	23731.86
499.76	23436.95
499.96	23611.03
500.17	23733.91
500.37	23877.27
500.58	24094.35
500.78	24026.77
500.99	23760.53
501.19	24364.68
501.40	24213.13
501.60	24344.20
501.81	24084.11
502.02	24514.19
502.22	24479.37
502.43	24669.83
502.63	24702.60
502.84	24882.82
503.04	24651.40
503.25	24690.31
503.45	24784.52
503.66	25038.47
503.86	25009.79
504.07	25263.74
504.27	24970.88
504.48	25644.66
504.68	25476.73
504.89	25192.06
505.09	25691.77
505.30	25523.83
505.50	25679.48
505.71	25773.69
505.91	25976.44
506.12	25871.99
506.32	25945.72
506.53	25681.53
506.73	26023.54
506.94	26310.25
507.14	26267.25
507.35	26199.66
507.55	26193.52
507.76	26322.54
507.96	26316.40
508.17	26408.56
508.37	26510.96
508.58	26539.63
508.78	26824.29
508.99	26914.41
509.19	26850.92
509.40	26349.17
509.60	26908.26
509.81	27006.56
510.01	26623.59
510.22	26977.89
510.42	27149.92
510.63	27385.44
510.83	26981.99
511.04	27375.20
511.24	27334.24
511.44	27592.28
511.65	27154.02
511.85	27405.92
512.06	27221.60
512.26	27532.89
512.47	27606.62
512.67	27647.58
512.88	27461.21
513.08	27631.19
513.29	28014.16
513.49	27643.48
513.69	27991.64
513.90	27922.01
514.10	28278.35
514.31	27977.30
514.51	28163.67
514.72	28044.88
514.92	27973.21
515.13	28165.71
515.33	28159.57
515.53	28266.06
515.74	28378.70
515.94	28384.85
516.15	28665.42
516.35	28296.78
516.56	28440.14
516.76	28542.54
516.96	28165.71
517.17	28991.05
517.37	28970.57
517.58	29290.05
517.78	28612.17
517.99	28804.68
518.19	29195.84
518.39	29277.76
518.60	29288.00
518.80	29208.13
519.01	29283.91
519.21	29591.10
519.41	29662.78
519.62	29374.02
519.82	29621.82
520.03	29492.80
520.23	29636.16
520.43	29550.14
520.64	29894.20
520.84	30121.52
521.05	29965.88
521.25	30193.20
521.45	30023.22
521.66	30422.58
521.86	29892.15
522.07	30379.57
522.27	30311.99
522.47	30340.66
522.68	30807.59
522.88	30406.19
523.08	30404.14
523.29	30737.96
523.49	30584.37
523.70	30823.98
523.90	30965.29
524.10	30948.90
524.31	31272.48
524.51	30766.63
524.71	31295.01
524.92	31188.52
525.12	31573.53
525.33	31309.35
525.53	31391.26
525.73	31782.43
525.94	31686.17
526.14	31804.95
526.34	31940.12
526.55	32237.08
526.75	32081.43
526.95	32054.81
527.16	32355.86
527.36	31940.12
527.56	32497.17
527.77	32572.94
527.97	32431.63
528.17	32534.03
528.38	32931.34
528.58	32820.75
528.78	32947.72
528.99	32783.88
529.19	32960.01
529.39	32960.01
529.60	33402.37
529.80	33209.86
530.00	33291.78
530.21	33281.54
530.41	33662.46
530.61	33406.47
530.82	33627.65
531.02	33568.26
531.22	33527.30
531.43	33756.67
531.63	33996.28
531.83	34483.70
532.04	34532.85
532.24	34334.20
532.44	34688.49
532.64	34549.23
532.85	34829.80
533.05	34670.06
533.25	34674.16
533.46	34481.65
533.66	35149.29
533.86	34864.62
534.07	35446.24
534.27	35020.27
534.47	35438.05
534.67	35288.55
534.88	34928.11
535.08	35565.03
535.28	35913.18
535.49	35577.31
535.69	35997.15
535.89	35997.15
536.09	35861.98
536.30	36351.45
536.50	36619.73
536.70	36423.12
536.91	36249.05
537.11	36494.80
537.31	36468.18
537.51	36664.78
537.72	36871.63
537.92	37064.14
538.12	37060.04
538.32	36969.93
538.53	37316.04
538.73	36722.13
538.93	37045.71
539.13	37127.63
539.34	37735.87
539.54	37101.00
539.74	37664.19
539.94	37889.47
540.15	37598.66
540.35	37942.72
540.55	37711.30
540.75	37866.94
540.96	38020.54
541.16	38106.55
541.36	38084.03
541.56	38026.68
541.77	38657.46
541.97	38380.98
542.17	38198.71
542.37	38399.41
542.58	38774.19
542.78	38624.69
542.98	38784.43
543.18	38884.78
543.38	39357.86
543.59	39314.86
543.79	39288.23
543.99	39083.44
544.19	39044.52
544.40	39036.33
544.60	39325.10
544.80	39411.11
545.00	39611.81
545.20	39712.16
545.41	39497.13
545.61	39384.49
545.81	40045.98
546.01	39966.11
546.21	39679.39
546.42	39783.84
546.62	40166.81
546.82	40039.84
547.02	40029.60
547.22	40158.62
547.43	40154.52
547.63	40478.10
547.83	40408.47
548.03	39992.73
548.23	40508.82
548.44	40553.88
548.64	40238.49
548.84	41110.92
549.04	40639.89
549.24	41184.65
549.45	40592.79
549.65	40859.02
549.85	41045.39
550.05	41012.62
550.25	41035.15
550.45	41424.26
550.66	41022.86
550.86	40936.85
551.06	41272.71
551.26	41235.85
551.46	41534.85
551.66	41637.25
551.87	41166.22
552.07	41260.43
552.27	41391.50
552.47	41819.52
552.67	41678.21
552.87	41704.84
553.07	41819.52
553.28	41958.78
553.48	42163.58
553.68	42134.91
553.88	42366.33
554.08	41893.25
554.28	42235.26
554.48	42052.99
554.69	41956.74
554.89	42151.29
555.09	42395.00
555.29	42093.95
555.49	42177.92
555.69	42351.99
555.89	42374.52
556.10	42964.34
556.30	42737.01
556.50	42993.01
556.70	42651.00
556.90	42589.56
557.10	42501.50
557.30	42800.50
557.50	43076.97
557.70	43050.35
557.91	43142.51
558.11	43201.90
558.31	43240.81
558.51	43197.80
558.71	42974.58
558.91	43488.62
559.11	43097.45
559.31	43281.77
559.51	43283.82
559.72	43101.55
559.92	43670.89
560.12	43265.39
560.32	43629.93
560.52	43625.83
560.72	43834.72
560.92	43953.51
561.12	43814.24
561.32	43853.15
561.52	43527.53
561.72	44008.80
561.93	43861.35
562.13	43738.47
562.33	43945.31
562.53	44338.52
562.73	43670.89
562.93	44150.11
563.13	44062.05
563.33	44055.90
563.53	44555.61
563.73	43638.12
563.93	44342.62
564.13	45124.94
564.33	44035.42
564.53	44262.75
564.74	44461.40
564.94	44856.66
565.14	44447.07
565.34	44483.93
565.54	44860.76
565.74	44651.86
565.94	44954.96
566.14	45049.17
566.34	44387.67
566.54	45149.52
566.74	44328.28
566.94	45086.03
567.14	44989.78
567.34	44631.38
567.54	45145.42
567.74	44846.42
567.94	44729.69
568.14	45454.67
568.34	45409.61
568.54	45233.49
568.74	45423.95
568.94	44997.97
569.14	45497.67
569.34	45616.46
569.54	45602.12
569.75	45407.56
569.95	45415.76
570.15	45749.57
570.35	45399.37
570.55	45667.66
570.75	45602.12
570.95	45716.81
571.15	45749.57
571.35	46007.62
571.55	45481.29
571.75	45753.67
571.95	45665.61
572.15	45800.77
572.35	46372.16
572.55	46159.17
572.75	46185.79
572.95	45978.95
573.15	45909.32
573.35	45806.92
573.55	45751.62
573.75	46392.64
573.95	46554.43
574.15	46396.73
574.35	46333.24
574.55	46349.63
574.75	46310.72
574.95	46548.28
575.15	46609.72
575.34	46490.94
575.54	46923.06
575.74	46900.53
575.94	46693.69
576.14	46847.29
576.34	47109.43
576.54	47514.92
576.74	47074.61
576.94	46953.78
577.14	46814.52
577.34	47625.51
577.54	47367.47
577.74	47551.79
577.94	47260.97
578.14	47379.76
578.34	47478.06
578.54	47168.82
578.74	47695.14
578.94	47775.02
579.14	47600.94
579.34	47293.74
579.54	47621.42
579.74	47713.58
579.94	47947.04
580.13	48313.63
580.33	48024.87
580.53	48221.47
580.73	48094.50
580.93	48280.86
581.13	48342.30
581.33	48473.37
581.53	48452.89
581.73	48526.62
581.93	48674.07
582.13	48782.62
582.33	48903.45
582.53	48334.11
582.73	48968.98
582.92	48403.74
583.12	49134.87
583.32	48780.57
583.52	48674.07
583.72	48790.81
583.92	48669.98
584.12	48856.34
584.32	49612.04
584.52	49323.28
584.72	48977.17
584.92	49493.26
585.11	49743.11
585.31	49149.20
585.51	49386.77
585.71	49485.07
585.91	49636.62
586.11	49251.60
586.31	48905.49
586.51	49466.64
586.71	49595.66
586.91	50029.83
587.10	49980.68
587.30	49859.85
587.50	49749.26
587.70	50078.98
587.90	50394.37
588.10	49937.67
588.30	49945.86
588.50	50259.20
