SpectraSuite Data File
++++++++++++++++++++++++++++++++++++
Date: Fri Jun 02 14:52:23 CEST 2017
User: INFO_000
Dark Spectrum Present: No
Reference Spectrum Present: No
Number of Sampled Component Spectra: 1
Spectrometers: USB4H00879
Integration Time (usec): 80000 (USB4H00879)
Spectra Averaged: 1 (USB4H00879)
Boxcar Smoothing: 0 (USB4H00879)
Correct for Electrical Dark: No (USB4H00879)
Strobe/Lamp Enabled: No (USB4H00879)
Correct for Detector Non-linearity: No (USB4H00879)
Correct for Stray Light: No (USB4H00879)
Number of Pixels in Processed Spectrum: 3648
>>>>>Begin Processed Spectral Data<<<<<
345.13	1230.83
345.34	1230.83
345.56	1230.83
345.78	1300.46
345.99	1253.36
346.21	1728.49
346.42	1705.96
346.64	1765.35
346.86	1748.97
347.07	1646.57
347.29	1667.05
347.50	1632.23
347.72	1697.77
347.94	1748.97
348.15	1581.03
348.37	1564.65
348.59	1753.06
348.80	1601.51
349.02	1738.73
349.23	1820.64
349.45	1742.82
349.67	1757.16
349.88	1765.35
350.10	1892.32
350.31	1810.40
350.53	1798.12
350.75	1910.75
350.96	1740.77
351.18	1843.17
351.39	1787.88
351.61	1800.16
351.82	1851.36
352.04	1941.47
352.26	1738.73
352.47	1865.70
352.69	1892.32
352.90	1681.38
353.12	1808.36
353.34	1841.12
353.55	1830.88
353.77	1779.68
353.98	1853.41
354.20	1828.84
354.41	1857.51
354.63	1914.85
354.85	2033.63
355.06	1826.79
355.28	1734.63
355.49	1806.31
355.71	1806.31
355.92	1808.36
356.14	1882.08
356.35	1771.49
356.57	1841.12
356.79	1894.37
357.00	1755.11
357.22	1916.90
357.43	1806.31
357.65	1871.84
357.86	1787.88
358.08	1804.26
358.29	1890.28
358.51	1851.36
358.72	1894.37
358.94	1822.69
359.16	1779.68
359.37	1892.32
359.59	1884.13
359.80	1966.05
360.02	1859.56
360.23	1892.32
360.45	1955.81
360.66	1898.47
360.88	1830.88
361.09	1765.35
361.31	1888.23
361.52	1843.17
361.74	1955.81
361.95	2023.39
362.17	1853.41
362.38	2072.54
362.60	1980.39
362.81	1904.61
363.03	1880.04
363.24	1929.19
363.46	1978.34
363.67	1986.53
363.89	1867.75
364.10	1992.67
364.32	1941.47
364.53	1976.29
364.75	1787.88
364.96	1949.67
365.18	1992.67
365.39	2015.20
365.61	1961.95
365.82	2017.25
366.04	1937.38
366.25	1953.76
366.47	1984.48
366.68	2084.83
366.90	1986.53
367.11	2015.20
367.33	1988.58
367.54	1994.72
367.76	1945.57
367.97	2131.94
368.19	2009.06
368.40	1978.34
368.62	1970.15
368.83	1931.23
369.05	2035.68
369.26	1968.10
369.48	1910.75
369.69	1912.80
369.91	1994.72
370.12	1902.56
370.33	2037.73
370.55	1978.34
370.76	2031.58
370.98	2088.93
371.19	1982.43
371.41	1994.72
371.62	2050.02
371.84	1976.29
372.05	2136.03
372.27	2031.58
372.48	2029.54
372.69	2029.54
372.91	2162.66
373.12	2123.74
373.34	1986.53
373.55	2031.58
373.77	2199.52
373.98	2056.16
374.20	2150.37
374.41	2256.86
374.62	2090.98
374.84	2201.57
375.05	2119.65
375.27	2084.83
375.48	2160.61
375.70	2187.23
375.91	2224.09
376.12	2316.25
376.34	2179.04
376.55	2080.74
376.77	2183.13
376.98	2107.36
377.19	2080.74
377.41	2207.71
377.62	2181.09
377.84	2181.09
378.05	2279.39
378.27	2187.23
378.48	2318.30
378.69	2303.96
378.91	2328.54
379.12	2310.11
379.34	2195.42
379.55	2291.68
379.76	2271.20
379.98	2232.29
380.19	2269.15
380.41	2271.20
380.62	2312.16
380.83	2301.92
381.05	2203.61
381.26	2396.12
381.47	2154.46
381.69	2316.25
381.90	2271.20
382.12	2303.96
382.33	2260.96
382.54	2295.77
382.76	2334.68
382.97	2353.12
383.19	2222.05
383.40	2447.32
383.61	2306.01
383.83	2310.11
384.04	2318.30
384.25	2392.03
384.47	2338.78
384.68	2334.68
384.89	2359.26
385.11	2332.64
385.32	2303.96
385.54	2387.93
385.75	2351.07
385.96	2430.94
386.18	2379.74
386.39	2482.14
386.60	2387.93
386.82	2461.66
387.03	2416.60
387.24	2572.25
387.46	2539.48
387.67	2590.68
387.88	2492.38
388.10	2449.37
388.31	2496.47
388.52	2531.29
388.74	2519.00
388.95	2576.34
389.16	2566.10
389.38	2463.71
389.59	2641.88
389.80	2551.77
390.02	2559.96
390.23	2686.94
390.44	2494.43
390.66	2613.21
390.87	2441.18
391.08	2672.60
391.30	2678.74
391.51	2637.78
391.72	2600.92
391.94	2668.50
392.15	2619.35
392.36	2703.32
392.58	2625.50
392.79	2723.80
393.00	2709.46
393.22	2629.59
393.43	2793.43
393.64	2850.77
393.85	2869.20
394.07	2658.26
394.28	2707.41
394.49	2828.24
394.71	2729.94
394.92	2865.11
395.13	2762.71
395.35	2842.58
395.56	2781.14
395.77	2820.05
395.98	2762.71
396.20	2818.00
396.41	2793.43
396.62	3000.27
396.84	2846.68
397.05	2793.43
397.26	2942.93
397.47	2975.70
397.69	2908.12
397.90	3188.69
398.11	2961.36
398.32	2998.23
398.54	2846.68
398.75	2891.73
398.96	2977.75
399.18	3082.19
399.39	2967.51
399.60	3157.97
399.81	2994.13
400.03	2791.38
400.24	3289.04
400.45	2920.40
400.66	3057.62
400.88	3114.96
401.09	3166.16
401.30	3061.71
401.51	3170.26
401.73	3123.15
401.94	3137.49
402.15	3205.07
402.36	3174.35
402.58	3188.69
402.79	3284.94
403.00	3237.84
403.21	3135.44
403.43	3241.93
403.64	3301.33
403.85	3143.63
404.06	3291.09
404.27	3108.82
404.49	3172.30
404.70	3194.83
404.91	3338.19
405.12	3352.52
405.34	3362.76
405.55	3497.93
405.76	3180.50
405.97	3235.79
406.19	3491.79
406.40	3284.94
406.61	3381.20
406.82	3360.72
407.03	3362.76
407.25	3293.13
407.46	3463.12
407.67	3450.83
407.88	3567.56
408.09	3332.05
408.31	3469.26
408.52	3510.22
408.73	3282.89
408.94	3444.68
409.15	3432.40
409.37	3567.56
409.58	3549.13
409.79	3493.83
410.00	3563.47
410.21	3420.11
410.43	3559.37
410.64	3512.27
410.85	3622.86
411.06	3643.34
411.27	3641.29
411.48	3604.42
411.70	3561.42
411.91	3573.71
412.12	3655.62
412.33	3669.96
412.54	3557.32
412.76	3710.92
412.97	3708.87
413.18	3596.23
413.39	3712.97
413.60	3786.69
413.81	3749.83
414.03	3655.62
414.24	3690.44
414.45	3952.58
414.66	3620.81
414.87	3700.68
415.08	3831.75
415.30	3766.21
415.51	3731.40
415.72	3786.69
415.93	3760.07
416.14	3835.85
416.35	3923.91
416.56	4048.83
416.78	3805.13
416.99	3909.57
417.20	3735.50
417.41	3973.06
417.62	3993.54
417.83	3985.35
418.04	4069.31
418.26	4036.55
418.47	3903.43
418.68	4050.88
418.89	4016.07
419.10	4276.16
419.31	3968.96
419.52	4126.66
419.73	3971.01
419.95	4169.66
420.16	3993.54
420.37	4081.60
420.58	4149.18
420.79	4061.12
421.00	4097.99
421.21	4216.77
421.42	4095.94
421.63	4132.80
421.85	4112.32
422.06	4292.54
422.27	4253.63
422.48	4188.10
422.69	4241.34
422.90	4169.66
423.11	4308.93
423.32	4317.12
423.53	4536.25
423.75	4317.12
423.96	4403.13
424.17	4497.34
424.38	4605.88
424.59	4642.75
424.80	4661.18
425.01	4601.79
425.22	4464.57
425.43	4581.31
425.64	4603.83
425.85	4661.18
426.06	4603.83
426.28	4577.21
426.49	4556.73
426.70	4569.02
426.91	4784.06
427.12	4712.38
427.33	4691.90
427.54	4661.18
427.75	4722.62
427.96	4927.41
428.17	4841.40
428.38	4857.78
428.59	4845.49
428.80	4790.20
429.01	4964.28
429.23	4908.98
429.44	5054.39
429.65	4929.46
429.86	5195.70
430.07	4904.89
430.28	4902.84
430.49	5089.20
430.70	5160.88
430.91	5234.61
431.12	5078.96
431.33	5175.22
431.54	5359.53
431.75	5265.33
431.96	5162.93
432.17	5189.55
432.38	5218.22
432.59	5248.94
432.80	5289.90
433.01	5259.18
433.22	5341.10
433.43	5500.84
433.64	5400.49
433.85	5255.09
434.06	5490.60
434.27	5386.16
434.49	5500.84
434.70	5492.65
434.91	5420.97
435.12	5539.76
435.33	5541.80
435.54	5556.14
435.75	5418.93
435.96	5691.31
436.17	5463.98
436.38	5760.94
436.59	5730.22
436.80	5644.20
437.01	5767.08
437.22	5738.41
437.43	5679.02
437.64	5351.34
437.85	5963.68
438.06	5883.81
438.27	5803.94
438.48	5697.45
438.69	5978.02
438.90	5785.51
439.11	5830.57
439.32	5971.88
439.53	5941.16
439.74	5918.63
439.95	5887.91
440.16	5883.81
440.37	5912.49
440.57	5779.37
440.78	5992.36
440.99	5990.31
441.20	6002.60
441.41	5894.05
441.62	6172.58
441.83	5883.81
442.04	6207.39
442.25	6219.68
442.46	6113.19
442.67	6141.86
442.88	6539.16
443.09	6211.49
443.30	6125.47
443.51	6279.07
443.72	6408.09
443.93	6221.73
444.14	6479.77
444.35	6193.06
444.56	6508.44
444.77	6512.54
444.98	6508.44
445.19	6440.86
445.40	6569.88
445.61	6545.31
445.81	6619.04
446.02	6666.14
446.23	6588.32
446.44	6537.12
446.65	6614.94
446.86	6625.18
447.07	6690.71
447.28	6709.15
447.49	6803.35
447.70	6698.91
447.91	6670.23
448.12	6680.47
448.33	6776.73
448.54	6864.79
448.74	6664.09
448.95	6879.13
449.16	6756.25
449.37	7159.70
449.58	6856.60
449.79	7085.97
450.00	6799.26
450.21	7120.79
450.42	7223.19
450.63	7145.36
450.84	7065.49
451.05	6954.90
451.25	6950.81
451.46	7049.11
451.67	7073.68
451.88	7233.43
452.09	7417.74
452.30	7229.33
452.51	7200.66
452.72	7278.48
452.93	7683.98
453.13	7370.64
453.34	7319.44
453.55	7405.46
453.76	7450.51
453.97	7784.33
454.18	7430.03
454.39	7761.80
454.60	7554.96
454.81	7589.77
455.01	7892.87
455.22	7614.35
455.43	7737.23
455.64	7935.88
455.85	7964.55
456.06	8271.75
456.27	7802.76
456.48	7739.27
456.68	8087.43
456.89	7845.77
457.10	8163.20
457.31	8107.91
457.52	8021.89
457.73	8105.86
457.94	8408.96
458.14	8114.05
458.35	8441.73
458.56	8355.71
458.77	8408.96
458.98	8505.21
459.19	8515.45
459.39	8441.73
459.60	8480.64
459.81	8408.96
460.02	8669.05
460.23	8687.48
460.44	8777.59
460.65	8793.98
460.85	8900.47
461.06	8900.47
461.27	8562.56
461.48	8931.19
461.69	9205.62
461.89	8720.25
462.10	8980.34
462.31	8875.90
462.52	8957.82
462.73	9084.79
462.94	9488.24
463.14	9293.68
463.35	9322.35
463.56	9600.88
463.77	9408.37
463.98	9434.99
464.18	9467.76
464.39	9707.37
464.60	9867.11
464.81	9807.72
465.02	9465.71
465.23	10047.33
465.43	9863.02
465.64	10229.60
465.85	9858.92
466.06	9961.32
466.27	10141.54
466.47	10207.08
466.68	10172.26
466.89	10305.38
467.10	10344.29
467.30	10178.40
467.51	10452.83
467.72	10538.85
467.93	10420.06
468.14	10540.90
468.34	10862.43
468.55	10733.40
468.76	10725.21
468.97	10606.43
469.17	10823.51
469.38	10866.52
469.59	11128.66
469.80	10893.15
470.01	11097.94
470.21	11071.32
470.42	11030.36
470.63	11337.56
470.84	11251.54
471.04	11530.06
471.25	11417.43
471.46	11456.34
471.67	11704.14
471.87	11824.97
472.08	11953.99
472.29	12021.58
472.50	11755.34
472.70	11935.56
472.91	12011.34
473.12	12115.78
473.33	12242.76
473.53	12193.61
473.74	12228.42
473.95	12457.79
474.16	12699.45
474.36	12517.18
474.57	12857.15
474.78	12928.83
474.99	12748.61
475.19	12744.51
475.40	13272.89
475.61	13141.82
475.81	13262.65
476.02	13518.64
476.23	13143.86
476.44	13385.52
476.64	13463.35
476.85	13913.90
477.06	13725.49
477.27	13897.52
477.47	14165.80
477.68	13907.76
477.89	14063.40
478.09	14210.86
478.30	14100.26
478.51	14157.61
478.71	14366.50
478.92	14497.57
479.13	14536.48
479.34	14587.68
479.54	14827.29
479.75	14776.09
479.96	14944.03
480.16	14702.37
480.37	15134.49
480.58	15232.79
480.78	15445.78
480.99	15146.78
481.20	15451.92
481.41	15523.60
481.61	15740.69
481.82	15740.69
482.03	15824.65
482.23	15748.88
482.44	16127.75
482.65	16224.01
482.85	16234.25
483.06	16277.26
483.27	16252.68
483.47	16430.85
483.68	16465.67
483.89	16543.49
484.09	16803.58
484.30	17168.12
484.51	16926.46
484.71	17207.03
484.92	17037.05
485.13	17372.92
485.33	17307.38
485.54	17313.53
485.75	17350.39
485.95	17663.73
486.16	17604.34
486.37	17805.04
486.57	17694.45
486.78	17964.78
486.98	17858.29
487.19	18220.78
487.40	18253.55
487.60	18249.45
487.81	18472.68
488.02	18362.09
488.22	18458.34
488.43	18517.73
488.64	18761.44
488.84	19070.68
489.05	19095.26
489.25	18878.18
489.46	19259.10
489.67	19222.23
489.87	19326.68
490.08	19367.64
490.29	19377.88
490.49	19932.88
490.70	19726.04
490.90	19799.76
491.11	19703.51
491.32	19766.99
491.52	20102.86
491.73	20072.14
491.94	20061.90
492.14	20053.71
492.35	20403.91
492.55	20442.82
492.76	20684.48
492.97	20958.91
493.17	20534.98
493.38	20954.82
493.58	21198.52
493.79	20829.89
494.00	20989.63
494.20	21089.98
494.41	21409.47
494.61	21595.83
494.82	21456.57
495.02	21302.97
495.23	21601.97
495.44	21956.27
495.64	21878.45
495.85	22013.62
496.05	21927.60
496.26	22044.34
496.47	22230.70
496.67	22314.67
496.88	22673.06
497.08	22191.79
497.29	22453.93
497.49	22779.56
497.70	22931.11
497.91	22828.71
498.11	22742.69
498.32	23072.42
498.52	23092.90
498.73	23338.65
498.93	23332.51
499.14	23168.67
499.34	23352.99
499.55	23387.80
499.76	23236.25
499.96	23740.05
500.17	23731.86
500.37	23758.49
500.58	23670.42
500.78	23973.52
500.99	23819.92
501.19	24354.44
501.40	24133.26
501.60	23920.28
501.81	24137.36
502.02	24211.09
502.22	24250.00
502.43	24436.36
502.63	24557.19
502.84	24944.26
503.04	24786.57
503.25	24647.30
503.45	24510.09
503.66	25206.40
503.86	24645.26
504.07	25241.21
504.27	24487.56
504.48	25280.13
504.68	25282.17
504.89	25525.88
505.09	25360.00
505.30	25372.28
505.50	25556.60
505.71	25632.38
505.91	25988.72
506.12	25540.22
506.32	25572.99
506.53	25925.24
506.73	25960.05
506.94	26003.06
507.14	25804.41
507.35	25994.87
507.55	25992.82
507.76	26394.22
507.96	26191.47
508.17	26351.21
508.37	26410.60
508.58	26236.53
508.78	26338.93
508.99	26476.14
509.19	26572.39
509.40	26553.96
509.60	26707.56
509.81	26842.73
510.01	26574.44
510.22	26539.63
510.42	26707.56
510.63	26910.31
510.83	27012.71
511.04	26900.07
511.24	27297.38
511.44	27231.84
511.65	27305.57
511.85	27432.54
512.06	27436.64
512.26	27205.22
512.47	27379.29
512.67	27715.16
512.88	27395.68
513.08	27287.14
513.29	28038.74
513.49	27682.39
513.69	27696.73
513.90	27879.00
514.10	27645.53
514.31	27786.84
514.51	27887.19
514.72	27860.57
514.92	28014.16
515.13	27782.74
515.33	28304.98
515.53	28124.75
515.74	28005.97
515.94	28343.89
516.15	28413.52
516.35	27995.73
516.56	28532.30
516.76	28214.87
516.96	28477.01
517.17	28833.35
517.37	28556.88
517.58	28423.76
517.78	28520.01
517.99	28788.30
518.19	29189.70
518.39	29060.68
518.60	28931.65
518.80	29060.68
519.01	29410.88
519.21	29044.29
519.41	29257.28
519.62	29064.77
519.82	29191.75
520.03	29402.69
520.23	29414.98
520.43	29369.92
520.64	29763.13
520.84	29689.40
521.05	30064.18
521.25	29986.36
521.45	29990.45
521.66	30078.52
521.86	29924.92
522.07	29828.66
522.27	30045.75
522.47	30150.20
522.68	30774.83
522.88	30271.03
523.08	30670.38
523.29	30699.05
523.49	30533.17
523.70	30809.64
523.90	30615.08
524.10	30846.51
524.31	30895.66
524.51	30772.78
524.71	31299.11
524.92	30672.43
525.12	31141.41
525.33	31243.81
525.53	31557.15
525.73	31663.64
525.94	31510.05
526.14	31370.79
526.34	31837.72
526.55	31428.13
526.75	31548.96
526.95	31979.03
527.16	31657.50
527.36	32138.77
527.56	32095.77
527.77	32398.87
527.97	32159.25
528.17	32341.52
528.38	32284.18
528.58	32503.31
528.78	32669.20
528.99	32452.11
529.19	32796.17
529.39	32538.13
529.60	32931.34
529.80	32728.59
530.00	33035.78
530.21	33404.42
530.41	33279.49
530.61	33179.14
530.82	33267.20
531.02	33189.38
531.22	33814.01
531.43	33283.59
531.63	33875.45
531.83	34084.34
532.04	34313.72
532.24	34196.98
532.44	34457.07
532.64	34737.65
532.85	34627.06
533.05	34360.82
533.25	34694.64
533.46	34813.42
533.66	34864.62
533.86	34809.32
534.07	35243.49
534.27	34915.82
534.47	35737.05
534.67	35163.62
534.88	34987.50
535.08	35366.37
535.28	35726.81
535.49	35773.92
535.69	36054.49
535.89	36171.22
536.09	36019.67
536.30	36421.08
536.50	36287.96
536.70	36509.14
536.91	36476.37
537.11	36275.67
537.31	36247.00
537.51	36595.15
537.72	37174.73
537.92	37176.78
538.12	37125.58
538.32	37246.41
538.53	37451.20
538.73	37074.38
538.93	37035.47
539.13	37207.50
539.34	37342.66
539.54	37137.87
539.74	37465.54
539.94	37412.29
540.15	37309.89
540.35	38102.46
540.55	37860.80
540.75	38030.78
540.96	38301.11
541.16	38071.74
541.36	37901.76
541.56	38555.06
541.77	38391.22
541.97	38864.30
542.17	38598.07
542.37	38813.10
542.58	38786.48
542.78	38686.13
542.98	38827.44
543.18	38931.89
543.38	39507.37
543.59	39386.54
543.79	39058.86
543.99	38999.47
544.19	39638.44
544.40	39239.08
544.60	39792.03
544.80	39245.23
545.00	39986.59
545.20	40025.50
545.41	39562.66
545.61	39577.00
545.81	40136.09
546.01	40136.09
546.21	40172.96
546.42	40109.47
546.62	40416.66
546.82	40142.24
547.02	40179.10
547.22	40678.80
547.43	40398.23
547.63	40322.46
547.83	40521.11
548.03	39910.82
548.23	40773.01
548.44	40957.33
548.64	41051.53
548.84	40838.54
549.04	40840.59
549.24	41344.39
549.45	41053.58
549.65	41088.40
549.85	41088.40
550.05	41211.28
550.25	41295.24
550.45	41915.78
550.66	41117.07
550.86	41158.03
551.06	41502.09
551.26	41790.85
551.46	42014.08
551.66	41758.08
551.87	41690.50
552.07	41782.66
552.27	41756.03
552.47	41815.43
552.67	41952.64
552.87	41997.70
553.07	41801.09
553.28	42425.72
553.48	42505.59
553.68	42048.89
553.88	42624.37
554.08	42415.48
554.28	42395.00
554.48	42198.40
554.69	43072.88
554.89	42462.58
555.09	42497.40
555.29	42218.88
555.49	42595.70
555.69	42849.65
555.89	42763.64
556.10	43079.02
556.30	42771.83
556.50	43013.49
556.70	42847.60
556.90	43427.18
557.10	43519.34
557.30	42546.55
557.50	43242.86
557.70	43294.06
557.91	43685.22
558.11	43109.74
558.31	43421.03
558.51	43455.85
558.71	43091.31
558.91	43550.06
559.11	43369.83
559.31	43670.89
559.51	43335.02
559.72	43113.84
559.92	43525.48
560.12	43423.08
560.32	43621.73
560.52	43582.82
560.72	43662.69
560.92	44072.29
561.12	43967.84
561.32	44025.18
561.52	43406.70
561.72	44035.42
561.93	43933.03
562.13	43930.98
562.33	43441.51
562.53	44254.56
562.73	43816.29
562.93	43677.03
563.13	43935.07
563.33	44260.70
563.53	44397.91
563.73	44143.97
563.93	44275.04
564.13	44756.31
564.33	44074.34
564.53	44412.25
564.74	44397.91
564.94	44277.08
565.14	44846.42
565.34	43922.79
565.54	44356.96
565.74	44621.14
565.94	45018.45
566.14	44643.67
566.34	44334.43
566.54	44719.45
566.74	44490.07
566.94	44545.37
567.14	45124.94
567.34	44514.65
567.54	45098.32
567.74	44934.48
567.94	44746.07
568.14	45241.68
568.34	45210.96
568.54	44928.34
568.74	45081.94
568.94	44758.36
569.14	45112.66
569.34	45020.50
569.54	44778.84
569.75	44971.35
569.95	45225.29
570.15	45552.97
570.35	45376.84
570.55	45137.23
570.75	45161.81
570.95	45487.43
571.15	45368.65
571.35	45710.66
571.55	45653.32
571.75	45301.07
571.95	45839.68
572.15	45176.14
572.35	45681.99
572.55	45276.49
572.75	45522.25
572.95	45628.74
573.15	45602.12
573.35	45972.80
573.55	45573.45
573.75	45858.12
573.95	46132.54
574.15	45471.05
574.35	45708.61
574.55	45561.16
574.75	45708.61
574.95	45847.88
575.15	46030.15
575.34	46032.19
575.54	46187.84
575.74	46325.05
575.94	46325.05
576.14	46083.39
576.34	46839.09
576.54	46552.38
576.74	46755.13
576.94	46484.79
577.14	46495.03
577.34	46636.34
577.54	46552.38
577.74	46677.30
577.94	46849.33
578.14	46511.42
578.34	47172.91
578.54	46458.17
578.74	46460.22
578.94	47236.40
579.14	46712.12
579.34	46884.15
579.54	46955.83
579.74	47088.95
579.94	47090.99
580.13	47162.67
580.33	47412.52
580.53	47285.55
580.73	47412.52
580.93	47439.15
581.13	47322.41
581.33	47844.65
581.53	47512.88
581.73	47547.69
581.93	47312.17
582.13	47947.04
582.33	47799.59
582.53	47213.87
582.73	47936.80
582.92	48389.41
583.12	48244.00
583.32	48071.97
583.52	47795.49
583.72	48557.34
583.92	47947.04
584.12	48309.53
584.32	48774.42
584.52	48223.52
584.72	48669.98
584.92	48319.77
585.11	48602.39
585.31	48518.43
585.51	48631.07
585.71	48698.65
585.91	49087.76
586.11	48700.70
586.31	48444.70
586.51	48938.26
586.71	48708.89
586.91	49128.72
587.10	49327.38
587.30	48938.26
587.50	48678.17
587.70	49347.86
587.90	49276.18
588.10	49177.87
588.30	49089.81
588.50	49366.29
