SpectraSuite Data File
++++++++++++++++++++++++++++++++++++
Date: Fri Jun 02 14:52:28 CEST 2017
User: INFO_000
Dark Spectrum Present: No
Reference Spectrum Present: No
Number of Sampled Component Spectra: 1
Spectrometers: USB4H00879
Integration Time (usec): 80000 (USB4H00879)
Spectra Averaged: 1 (USB4H00879)
Boxcar Smoothing: 0 (USB4H00879)
Correct for Electrical Dark: No (USB4H00879)
Strobe/Lamp Enabled: No (USB4H00879)
Correct for Detector Non-linearity: No (USB4H00879)
Correct for Stray Light: No (USB4H00879)
Number of Pixels in Processed Spectrum: 3648
>>>>>Begin Processed Spectral Data<<<<<
345.13	1191.92
345.34	1191.92
345.56	1191.92
345.78	1226.73
345.99	1322.99
346.21	1671.14
346.42	1710.05
346.64	1662.95
346.86	1806.31
347.07	1679.33
347.29	1712.10
347.50	1611.75
347.72	1695.72
347.94	1695.72
348.15	1593.32
348.37	1609.70
348.59	1724.39
348.80	1671.14
349.02	1851.36
349.23	1865.70
349.45	1855.46
349.67	1896.42
349.88	1843.17
350.10	1955.81
350.31	1832.93
350.53	1689.57
350.75	1964.00
350.96	1798.12
351.18	1828.84
351.39	1884.13
351.61	1824.74
351.82	1945.57
352.04	1931.23
352.26	1853.41
352.47	1886.18
352.69	1933.28
352.90	1726.44
353.12	1875.94
353.34	1814.50
353.55	1945.57
353.77	1892.32
353.98	1916.90
354.20	1834.98
354.41	1912.80
354.63	1970.15
354.85	1955.81
355.06	1894.37
355.28	1812.45
355.49	1894.37
355.71	1947.62
355.92	1886.18
356.14	1849.32
356.35	1859.56
356.57	1873.89
356.79	1927.14
357.00	1890.28
357.22	2019.30
357.43	1880.04
357.65	1931.23
357.86	1931.23
358.08	1912.80
358.29	1869.80
358.51	1941.47
358.72	2039.78
358.94	1931.23
359.16	1953.76
359.37	1951.71
359.59	1867.75
359.80	2009.06
360.02	1984.48
360.23	1986.53
360.45	1943.52
360.66	1906.66
360.88	1890.28
361.09	1927.14
361.31	1998.82
361.52	1884.13
361.74	2066.40
361.95	2007.01
362.17	1888.23
362.38	2088.93
362.60	1968.10
362.81	1880.04
363.03	1970.15
363.24	1990.63
363.46	2111.46
363.67	1972.19
363.89	1990.63
364.10	2043.87
364.32	2033.63
364.53	2035.68
364.75	1923.04
364.96	2011.11
365.18	1994.72
365.39	2029.54
365.61	1904.61
365.82	2174.94
366.04	1970.15
366.25	1976.29
366.47	2142.18
366.68	2115.55
366.90	1964.00
367.11	2052.06
367.33	2125.79
367.54	2093.02
367.76	2047.97
367.97	2136.03
368.19	2033.63
368.40	2011.11
368.62	1916.90
368.83	1953.76
369.05	2080.74
369.26	2029.54
369.48	1990.63
369.69	2007.01
369.91	2021.35
370.12	2029.54
370.33	2125.79
370.55	1986.53
370.76	2068.45
370.98	2109.41
371.19	2060.26
371.41	2076.64
371.62	2074.59
371.84	2099.17
372.05	2199.52
372.27	2121.70
372.48	2068.45
372.69	2154.46
372.91	2211.81
373.12	2174.94
373.34	2158.56
373.55	2121.70
373.77	2203.61
373.98	2138.08
374.20	2152.42
374.41	2258.91
374.62	2232.29
374.84	2142.18
375.05	2146.27
375.27	2220.00
375.48	2166.75
375.70	2201.57
375.91	2289.63
376.12	2357.21
376.34	2142.18
376.55	2250.72
376.77	2174.94
376.98	2123.74
377.19	2119.65
377.41	2205.66
377.62	2168.80
377.84	2215.90
378.05	2432.99
378.27	2209.76
378.48	2285.53
378.69	2389.98
378.91	2334.68
379.12	2238.43
379.34	2269.15
379.55	2279.39
379.76	2252.77
379.98	2260.96
380.19	2258.91
380.41	2238.43
380.62	2301.92
380.83	2203.61
381.05	2240.48
381.26	2422.75
381.47	2246.62
381.69	2273.25
381.90	2371.55
382.12	2351.07
382.33	2361.31
382.54	2269.15
382.76	2363.36
382.97	2293.72
383.19	2328.54
383.40	2420.70
383.61	2299.87
383.83	2328.54
384.04	2332.64
384.25	2322.40
384.47	2430.94
384.68	2349.02
384.89	2344.92
385.11	2422.75
385.32	2351.07
385.54	2377.69
385.75	2424.80
385.96	2443.23
386.18	2406.36
386.39	2404.32
386.60	2478.04
386.82	2334.68
387.03	2373.60
387.24	2545.63
387.46	2590.68
387.67	2400.22
387.88	2502.62
388.10	2463.71
388.31	2492.38
388.52	2623.45
388.74	2539.48
388.95	2531.29
389.16	2516.95
389.38	2451.42
389.59	2621.40
389.80	2686.94
390.02	2547.67
390.23	2648.02
390.44	2543.58
390.66	2478.04
390.87	2441.18
391.08	2611.16
391.30	2740.18
391.51	2656.22
391.72	2660.31
391.94	2672.60
392.15	2658.26
392.36	2570.20
392.58	2639.83
392.79	2625.50
393.00	2729.94
393.22	2721.75
393.43	2752.47
393.64	2803.67
393.85	2772.95
394.07	2609.11
394.28	2826.20
394.49	2768.85
394.71	2807.77
394.92	2942.93
395.13	2764.76
395.35	2772.95
395.56	2742.23
395.77	2815.96
395.98	2838.48
396.20	2912.21
396.41	2797.53
396.62	2916.31
396.84	2904.02
397.05	2836.44
397.26	3010.51
397.47	2992.08
397.69	2865.11
397.90	3000.27
398.11	2975.70
398.32	2918.36
398.54	2910.16
398.75	2914.26
398.96	2846.68
399.18	3076.05
399.39	2932.69
399.60	3114.96
399.81	3059.67
400.03	2973.65
400.24	3258.32
400.45	3059.67
400.66	3092.43
400.88	3039.19
401.09	3196.88
401.30	3020.75
401.51	3194.83
401.73	3145.68
401.94	3112.91
402.15	3069.91
402.36	3170.26
402.58	3252.17
402.79	3250.13
403.00	3264.46
403.21	3186.64
403.43	3268.56
403.64	3340.24
403.85	3090.38
404.06	3205.07
404.27	3129.30
404.49	3309.52
404.70	3151.82
404.91	3196.88
405.12	3276.75
405.34	3313.61
405.55	3448.78
405.76	3174.35
405.97	3338.19
406.19	3473.36
406.40	3315.66
406.61	3424.20
406.82	3379.15
407.03	3389.39
407.25	3256.27
407.46	3506.12
407.67	3588.04
407.88	3530.70
408.09	3229.65
408.31	3497.93
408.52	3545.03
408.73	3389.39
408.94	3579.85
409.15	3428.30
409.37	3596.23
409.58	3567.56
409.79	3430.35
410.00	3596.23
410.21	3469.26
410.43	3600.33
410.64	3432.40
410.85	3514.31
411.06	3688.39
411.27	3694.54
411.48	3624.90
411.70	3608.52
411.91	3733.45
412.12	3768.26
412.33	3659.72
412.54	3753.93
412.76	3841.99
412.97	3719.11
413.18	3538.89
413.39	3749.83
413.60	3850.18
413.81	3792.84
414.03	3694.54
414.24	3706.82
414.45	3928.00
414.66	3690.44
414.87	3770.31
415.08	3833.80
415.30	3878.85
415.51	3876.80
415.72	3749.83
415.93	3880.90
416.14	3952.58
416.35	3921.86
416.56	3841.99
416.78	3950.53
416.99	3925.96
417.20	3835.85
417.41	4067.27
417.62	4089.79
417.83	3954.63
418.04	4040.64
418.26	3923.91
418.47	3960.77
418.68	4040.64
418.89	4009.92
419.10	4190.14
419.31	4067.27
419.52	4114.37
419.73	4151.23
419.95	4155.33
420.16	4067.27
420.37	4116.42
420.58	4163.52
420.79	3950.53
421.00	4181.95
421.21	4251.58
421.42	4071.36
421.63	4319.17
421.85	4114.37
422.06	4337.60
422.27	4214.72
422.48	4229.06
422.69	4315.07
422.90	4259.78
423.11	4218.82
423.32	4317.12
423.53	4384.70
423.75	4425.66
423.96	4491.20
424.17	4460.48
424.38	4693.94
424.59	4478.91
424.80	4665.27
425.01	4577.21
425.22	4491.20
425.43	4501.44
425.64	4798.39
425.85	4726.71
426.06	4513.72
426.28	4626.36
426.49	4493.24
426.70	4632.51
426.91	4638.65
427.12	4786.10
427.33	4734.90
427.54	4505.53
427.75	4853.69
427.96	4956.08
428.17	4870.07
428.38	4757.43
428.59	4825.01
428.80	4865.97
429.01	4816.82
429.23	4878.26
429.44	5052.34
429.65	5031.86
429.86	5066.67
430.07	4898.74
430.28	4812.73
430.49	5023.67
430.70	5027.76
430.91	5158.83
431.12	5050.29
431.33	5083.06
431.54	5097.39
431.75	5144.50
431.96	5220.27
432.17	5169.07
432.38	5189.55
432.59	5332.91
432.80	5357.49
433.01	5328.81
433.22	5326.77
433.43	5390.25
433.64	5328.81
433.85	5318.57
434.06	5373.87
434.27	5392.30
434.49	5367.73
434.70	5451.69
434.91	5625.77
435.12	5588.91
435.33	5494.70
435.54	5502.89
435.75	5320.62
435.96	5537.71
436.17	5504.94
436.38	5707.69
436.59	5732.26
436.80	5595.05
437.01	5883.81
437.22	5830.57
437.43	5722.02
437.64	5625.77
437.85	5732.26
438.06	5812.14
438.27	5719.98
438.48	5646.25
438.69	5965.73
438.90	5937.06
439.11	5834.66
439.32	5949.35
439.53	5777.32
439.74	5937.06
439.95	5836.71
440.16	6014.88
440.37	5914.53
440.57	5738.41
440.78	5967.78
440.99	6023.08
441.20	6041.51
441.41	6072.23
441.62	6057.89
441.83	5967.78
442.04	6113.19
442.25	6201.25
442.46	6193.06
442.67	6160.29
442.88	6707.10
443.09	6057.89
443.30	6186.91
443.51	6277.02
443.72	6586.27
443.93	6393.76
444.14	6465.44
444.35	6164.39
444.56	6371.23
444.77	6498.20
444.98	6328.22
445.19	6285.22
445.40	6565.79
445.61	6514.59
445.81	6528.92
446.02	6653.85
446.23	6510.49
446.44	6533.02
446.65	6629.27
446.86	6754.20
447.07	6649.75
447.28	6875.03
447.49	6811.54
447.70	6616.99
447.91	6840.22
448.12	6676.38
448.33	6934.42
448.54	6852.50
448.74	6770.58
448.95	6846.36
449.16	6735.77
449.37	7270.29
449.58	6963.09
449.79	7221.14
450.00	6717.34
450.21	7212.95
450.42	7243.67
450.63	7120.79
450.84	7186.32
451.05	7143.32
451.25	7180.18
451.46	7206.80
451.67	7356.30
451.88	7440.27
452.09	7540.62
452.30	7337.87
452.51	7341.97
452.72	7534.48
452.93	7663.50
453.13	7344.02
453.34	7368.59
453.55	7546.76
453.76	7432.08
453.97	7819.14
454.18	7647.12
454.39	7634.83
454.60	7651.21
454.81	7604.11
455.01	7839.62
455.22	7538.57
455.43	7917.45
455.64	8124.29
455.85	8134.53
456.06	8050.57
456.27	7829.38
456.48	7991.17
456.68	8095.62
456.89	8097.67
457.10	8318.85
457.31	8099.72
457.52	8071.04
457.73	8370.05
457.94	8425.34
458.14	8333.18
458.35	8677.24
458.56	8454.02
458.77	8324.99
458.98	8574.85
459.19	8374.14
459.39	8537.98
459.60	8873.85
459.81	8693.63
460.02	8857.46
460.23	8662.91
460.44	8939.38
460.65	9078.65
460.85	8963.96
461.06	9133.94
461.27	8828.79
461.48	9140.08
461.69	9211.76
461.89	8830.84
462.10	9234.29
462.31	8906.62
462.52	9080.69
462.73	9133.94
462.94	9441.14
463.14	9316.21
463.35	9297.78
463.56	9971.56
463.77	9787.24
463.98	9510.77
464.18	9529.20
464.39	9629.55
464.60	10010.47
464.81	9707.37
465.02	9750.38
465.23	10086.25
465.43	9834.35
465.64	10225.51
465.85	9906.02
466.06	10125.16
466.27	10272.61
466.47	10258.28
466.68	10321.76
466.89	10221.41
467.10	10540.90
467.30	10278.76
467.51	10528.61
467.72	10714.97
467.93	10432.35
468.14	10608.48
468.34	10710.88
468.55	10823.51
468.76	10682.20
468.97	10790.75
469.17	11020.12
469.38	10985.30
469.59	11104.09
469.80	10768.22
470.01	11095.89
470.21	11085.65
470.42	11214.68
470.63	11626.32
470.84	11382.61
471.04	11618.13
471.25	11480.91
471.46	11325.27
471.67	11802.44
471.87	11763.53
472.08	11855.69
472.29	12242.76
472.50	11796.30
472.70	11837.26
472.91	12035.91
473.12	12257.09
473.33	12216.13
473.53	12515.14
473.74	12269.38
473.95	12404.55
474.16	12615.49
474.36	12664.64
474.57	12834.62
474.78	13117.24
474.99	12664.64
475.19	12656.45
475.40	12977.98
475.61	13111.10
475.81	13489.97
476.02	13342.52
476.23	13236.02
476.44	13494.07
476.64	13553.46
476.85	14001.96
477.06	13702.96
477.27	13897.52
477.47	13975.34
477.68	13944.62
477.89	14077.74
478.09	14108.46
478.30	14178.09
478.51	14438.18
478.71	14518.05
478.92	14667.55
479.13	14657.31
479.34	14675.74
479.54	14724.90
479.75	14825.25
479.96	14931.74
480.16	15222.55
480.37	15062.81
480.58	15410.96
480.78	15269.66
480.99	15503.12
481.20	15544.08
481.41	15851.28
481.61	15810.32
481.82	15791.89
482.03	15953.68
482.23	15691.54
482.44	16105.23
482.65	16238.34
482.85	16236.30
483.06	16455.43
483.27	16359.17
483.47	16441.09
483.68	16445.19
483.89	16891.65
484.09	16641.79
484.30	16965.37
484.51	17118.97
484.71	16914.17
484.92	17037.05
485.13	17346.30
485.33	17291.00
485.54	17407.73
485.75	17911.53
485.95	17716.98
486.16	17637.11
486.37	17708.79
486.57	17788.66
486.78	17889.01
486.98	17829.62
487.19	18095.85
487.40	18380.52
487.60	18355.94
487.81	18673.38
488.02	18206.44
488.22	18394.86
488.43	18869.98
488.64	18816.74
488.84	18773.73
489.05	18939.62
489.25	19072.73
489.46	19316.44
489.67	19228.38
489.87	19252.95
490.08	19517.14
490.29	19422.94
490.49	19840.72
490.70	19488.47
490.90	19803.86
491.11	19945.17
491.32	19939.02
491.52	19947.22
491.73	19885.78
491.94	20293.32
492.14	20041.42
492.35	20195.02
492.55	20530.89
492.76	20766.40
492.97	20727.49
493.17	20637.38
493.38	20762.31
493.58	20913.86
493.79	20856.51
494.00	21075.65
494.20	21034.69
494.41	21407.42
494.61	21165.76
494.82	21784.24
495.02	21360.31
495.23	21733.04
495.44	21745.33
495.64	22189.74
495.85	21761.72
496.05	22038.19
496.26	22005.42
496.47	22480.55
496.67	22044.34
496.88	22498.98
497.08	22169.26
497.29	22439.59
497.49	22406.83
497.70	22472.36
497.91	22605.48
498.11	22943.39
498.32	22650.53
498.52	23008.93
498.73	23529.11
498.93	22957.73
499.14	23350.94
499.34	22937.25
499.55	23447.19
499.76	23221.92
499.96	23621.27
500.17	23594.65
500.37	23432.86
500.58	23729.81
500.78	23838.36
500.99	23518.87
501.19	24213.13
501.40	23930.51
501.60	23856.79
501.81	24030.87
502.02	24037.01
502.22	24223.37
502.43	24280.72
502.63	24290.96
502.84	24692.36
503.04	24532.62
503.25	24432.27
503.45	24462.99
503.66	24514.19
503.86	24776.33
504.07	24927.88
504.27	24675.98
504.48	25362.04
504.68	25167.49
504.89	25671.29
505.09	25609.85
505.30	25245.31
505.50	25364.09
505.71	25312.89
505.91	25450.11
506.12	25599.61
506.32	25568.89
506.53	25548.41
506.73	25638.52
506.94	25904.76
507.14	25636.47
507.35	26197.62
507.55	26048.11
507.76	26238.58
507.96	26170.99
508.17	26183.28
508.37	26422.89
508.58	26340.97
508.78	26056.31
508.99	26742.38
509.19	26685.03
509.40	26613.35
509.60	26711.66
509.81	26719.85
510.01	26746.47
510.22	26852.97
510.42	27205.22
510.63	27111.01
510.83	26879.59
511.04	27180.64
511.24	27356.77
511.44	27555.42
511.65	27381.34
511.85	27252.32
512.06	27530.84
512.26	27600.47
512.47	27577.95
512.67	27522.65
512.88	27700.83
513.08	27262.56
513.29	28278.35
513.49	28010.07
513.69	27825.75
513.90	27895.38
514.10	28091.99
514.31	28163.67
514.51	28278.35
514.72	27950.68
514.92	28069.46
515.13	28378.70
515.33	28304.98
515.53	28257.87
515.74	28632.65
515.94	28538.44
516.15	28313.17
516.35	28294.74
516.56	28499.53
516.76	28657.23
516.96	28821.06
517.17	28927.56
517.37	28751.43
517.58	28868.17
517.78	29070.92
517.99	28751.43
518.19	29345.34
518.39	29122.12
518.60	29419.07
518.80	29302.34
519.01	29537.85
519.21	29404.74
519.41	29580.86
519.62	29544.00
519.82	29736.51
520.03	29904.44
520.23	29716.03
520.43	29806.14
520.64	30068.28
520.84	30017.08
521.05	30187.06
521.25	30570.03
521.45	30264.88
521.66	30449.20
521.86	30416.43
522.07	30578.22
522.27	30717.48
522.47	30273.07
522.68	30797.35
522.88	30670.38
523.08	30866.98
523.29	30912.04
523.49	31026.73
523.70	31571.49
523.90	30744.11
524.10	31335.97
524.31	31581.73
524.51	31335.97
524.71	32013.85
524.92	31426.08
525.12	31675.93
525.33	31172.13
525.53	31936.02
525.73	32042.52
525.94	32155.16
526.14	31890.97
526.34	32306.71
526.55	32534.03
526.75	31950.36
526.95	32759.31
527.16	32200.21
527.36	32513.55
527.56	32767.50
527.77	32929.29
527.97	32949.77
528.17	32701.96
528.38	32970.25
528.58	33039.88
528.78	33070.60
528.99	33269.25
529.19	33793.53
529.39	32747.02
529.60	33607.17
529.80	33394.18
530.00	33668.61
530.21	33603.07
530.41	33779.20
530.61	33742.33
530.82	34379.25
531.02	34084.34
531.22	34471.41
531.43	34000.38
531.63	34221.56
531.83	34528.75
532.04	34770.41
532.24	34401.78
532.44	34858.48
532.64	34858.48
532.85	35118.57
533.05	35096.04
533.25	34928.11
533.46	35016.17
533.66	35681.76
533.86	35276.26
534.07	35501.54
534.27	35540.45
534.47	35610.08
534.67	35984.86
534.88	35577.31
535.08	35683.81
535.28	36072.92
535.49	36365.78
535.69	36355.54
535.89	36228.57
536.09	36779.47
536.30	36722.13
536.50	36701.65
536.70	36652.50
536.91	36705.74
537.11	37168.58
537.31	36791.76
537.51	36834.77
537.72	36976.08
537.92	37389.77
538.12	37494.21
538.32	37313.99
538.53	37731.78
538.73	37213.64
538.93	37828.03
539.13	37268.94
539.34	37543.36
539.54	37637.57
539.74	38038.97
539.94	38192.57
540.15	37879.23
540.35	37866.94
540.55	37928.38
540.75	38479.28
540.96	38342.07
541.16	38309.30
541.36	38403.51
541.56	38581.68
541.77	38530.48
541.97	38540.72
542.17	38862.26
542.37	38700.47
542.58	38944.17
542.78	38776.24
542.98	38940.08
543.18	39097.77
543.38	39337.38
543.59	39517.60
543.79	38944.17
543.99	39439.78
544.19	39220.65
544.40	38854.06
544.60	39679.39
544.80	39603.62
545.00	39564.71
545.20	39933.34
545.41	39777.70
545.61	39345.58
545.81	39945.63
546.01	40263.07
546.21	39837.09
546.42	39646.63
546.62	40250.78
546.82	40195.48
547.02	40625.56
547.22	40271.26
547.43	40232.35
547.63	40465.81
547.83	40322.46
548.03	39953.82
548.23	40586.64
548.44	40445.33
548.64	40838.54
548.84	40848.78
549.04	40863.12
549.24	40801.68
549.45	41098.64
549.65	40689.04
549.85	41098.64
550.05	41391.50
550.25	41246.09
550.45	41534.85
550.66	41026.96
550.86	41305.48
551.06	41545.09
551.26	41579.91
551.46	41713.03
551.66	41631.11
551.87	41430.41
552.07	42071.42
552.27	41334.15
552.47	42014.08
552.67	41835.91
552.87	41995.65
553.07	41903.49
553.28	41739.65
553.48	42202.49
553.68	42042.75
553.88	42196.35
554.08	42171.77
554.28	42055.04
554.48	41665.92
554.69	42134.91
554.89	42179.96
555.09	42196.35
555.29	42194.30
555.49	42374.52
555.69	42356.09
555.89	42349.95
556.10	42687.86
556.30	42433.91
556.50	42669.43
556.70	42808.69
556.90	42550.65
557.10	42607.99
557.30	42450.30
557.50	42980.72
557.70	43165.04
557.91	43343.21
558.11	43017.58
558.31	43013.49
558.51	43095.41
558.71	43355.50
558.91	43373.93
559.11	43165.04
559.31	42976.62
559.51	42866.03
559.72	43349.35
559.92	43060.59
560.12	42917.23
560.32	43603.30
560.52	43404.65
560.72	43810.15
560.92	43380.07
561.12	43425.13
561.32	43621.73
561.52	43398.51
561.72	43844.96
561.93	43396.46
562.13	44037.47
562.33	43898.21
562.53	44041.57
562.73	43574.63
562.93	43799.91
563.13	43627.88
563.33	43777.38
563.53	43984.22
563.73	43636.07
563.93	43867.49
564.13	44348.76
564.33	44160.35
564.53	43783.52
564.74	44889.43
564.94	44203.36
565.14	44195.17
565.34	43980.13
565.54	44514.65
565.74	44373.34
565.94	45063.50
566.14	44123.49
566.34	44504.41
566.54	44805.46
566.74	44594.52
566.94	45032.78
567.14	45088.08
567.34	44365.15
567.54	44989.78
567.74	44625.24
567.94	44959.06
568.14	44852.56
568.34	45122.90
568.54	44633.43
568.74	44770.64
568.94	44735.83
569.14	45126.99
569.34	45088.08
569.54	44989.78
569.75	44778.84
569.95	45028.69
570.15	45460.81
570.35	45172.05
570.55	45200.72
570.75	45225.29
570.95	45741.38
571.15	45106.51
571.35	45395.28
571.55	45753.67
571.75	45626.70
571.95	45352.27
572.15	45569.35
572.35	45856.07
572.55	45589.83
572.75	45569.35
572.95	45780.29
573.15	45616.46
573.35	45665.61
573.55	45780.29
573.75	46054.72
573.95	46308.67
574.15	45970.75
574.35	45843.78
574.55	45940.04
574.75	46116.16
574.95	46296.38
575.15	46286.14
575.34	45985.09
575.54	46228.80
575.74	46660.92
575.94	46327.10
576.14	46765.37
576.34	46751.03
576.54	46943.54
576.74	47072.56
576.94	46810.42
577.14	47004.98
577.34	47158.58
577.54	46714.17
577.74	46767.41
577.94	47166.77
578.14	46828.85
578.34	47357.23
578.54	46980.40
578.74	46861.62
578.94	47166.77
579.14	47076.66
579.34	47039.79
579.54	47568.17
579.74	47732.01
579.94	47189.30
580.13	47990.05
580.33	47840.55
580.53	47666.47
580.73	47627.56
580.93	47963.43
581.13	47725.86
581.33	48342.30
581.53	48274.72
581.73	48018.72
581.93	48225.57
582.13	48137.51
582.33	48192.80
582.53	48162.08
582.73	48571.67
582.92	48418.08
583.12	48303.39
583.32	48274.72
583.52	48477.47
583.72	48747.80
583.92	48600.35
584.12	48706.84
584.32	49247.50
584.52	48561.44
584.72	48946.45
584.92	49091.86
585.11	49478.92
585.31	49075.48
585.51	49323.28
585.71	49042.71
585.91	49401.10
586.11	49218.83
586.31	48860.44
586.51	49110.29
586.71	49591.56
586.91	49480.97
587.10	49798.41
587.30	50029.83
587.50	49673.48
587.70	49362.19
587.90	49943.81
588.10	50105.60
588.30	49665.29
588.50	50353.41
