SpectraSuite Data File
++++++++++++++++++++++++++++++++++++
Date: Fri Jun 02 14:49:26 CEST 2017
User: INFO_000
Dark Spectrum Present: No
Reference Spectrum Present: No
Number of Sampled Component Spectra: 1
Spectrometers: USB4H00879
Integration Time (usec): 80000 (USB4H00879)
Spectra Averaged: 1 (USB4H00879)
Boxcar Smoothing: 0 (USB4H00879)
Correct for Electrical Dark: No (USB4H00879)
Strobe/Lamp Enabled: No (USB4H00879)
Correct for Detector Non-linearity: No (USB4H00879)
Correct for Stray Light: No (USB4H00879)
Number of Pixels in Processed Spectrum: 3648
>>>>>Begin Processed Spectral Data<<<<<
345.13	1296.36
345.34	1296.36
345.56	1296.36
345.78	1263.60
345.99	1273.84
346.21	1759.21
346.42	1699.81
346.64	1597.42
346.86	1773.54
347.07	1593.32
347.29	1634.28
347.50	1605.61
347.72	1740.77
347.94	1759.21
348.15	1601.51
348.37	1683.43
348.59	1687.53
348.80	1658.85
349.02	1763.30
349.23	1906.66
349.45	1718.25
349.67	1904.61
349.88	1863.65
350.10	1890.28
350.31	1863.65
350.53	1787.88
350.75	2007.01
350.96	1810.40
351.18	1871.84
351.39	1843.17
351.61	1773.54
351.82	1861.60
352.04	1896.42
352.26	1820.64
352.47	1998.82
352.69	1918.95
352.90	1755.11
353.12	1839.08
353.34	1839.08
353.55	1929.19
353.77	1949.67
353.98	1884.13
354.20	1867.75
354.41	1837.03
354.63	1947.62
354.85	2088.93
355.06	1939.43
355.28	1814.50
355.49	1935.33
355.71	1869.80
355.92	1896.42
356.14	1912.80
356.35	1904.61
356.57	1837.03
356.79	1953.76
357.00	1832.93
357.22	1929.19
357.43	1822.69
357.65	2058.21
357.86	1853.41
358.08	1941.47
358.29	1937.38
358.51	2017.25
358.72	2002.91
358.94	1951.71
359.16	1912.80
359.37	1964.00
359.59	1976.29
359.80	2009.06
360.02	1943.52
360.23	1910.75
360.45	2004.96
360.66	1939.43
360.88	1880.04
361.09	1920.99
361.31	2019.30
361.52	1996.77
361.74	2066.40
361.95	2007.01
362.17	2021.35
362.38	2070.50
362.60	2052.06
362.81	2033.63
363.03	1957.86
363.24	1920.99
363.46	2062.30
363.67	1980.39
363.89	1941.47
364.10	2037.73
364.32	1920.99
364.53	2082.78
364.75	1933.28
364.96	2050.02
365.18	2058.21
365.39	2027.49
365.61	2007.01
365.82	2117.60
366.04	1972.19
366.25	2011.11
366.47	2017.25
366.68	2062.30
366.90	1959.91
367.11	2121.70
367.33	2099.17
367.54	2133.98
367.76	1945.57
367.97	2105.31
368.19	2039.78
368.40	2072.54
368.62	1978.34
368.83	1961.95
369.05	1978.34
369.26	1994.72
369.48	1978.34
369.69	2072.54
369.91	2066.40
370.12	2009.06
370.33	2129.89
370.55	1961.95
370.76	1966.05
370.98	2152.42
371.19	2031.58
371.41	2031.58
371.62	2027.49
371.84	2099.17
372.05	2176.99
372.27	2004.96
372.48	2045.92
372.69	2076.64
372.91	2156.51
373.12	2142.18
373.34	2090.98
373.55	2144.22
373.77	2181.09
373.98	2033.63
374.20	2095.07
374.41	2211.81
374.62	2070.50
374.84	2209.76
375.05	2189.28
375.27	2123.74
375.48	2189.28
375.70	2215.90
375.91	2199.52
376.12	2269.15
376.34	2164.70
376.55	2279.39
376.77	2265.05
376.98	2080.74
377.19	2152.42
377.41	2144.22
377.62	2230.24
377.84	2220.00
378.05	2279.39
378.27	2187.23
378.48	2363.36
378.69	2291.68
378.91	2275.29
379.12	2230.24
379.34	2232.29
379.55	2320.35
379.76	2256.86
379.98	2181.09
380.19	2209.76
380.41	2176.99
380.62	2328.54
380.83	2277.34
381.05	2183.13
381.26	2420.70
381.47	2338.78
381.69	2172.89
381.90	2414.56
382.12	2338.78
382.33	2246.62
382.54	2176.99
382.76	2340.83
382.97	2236.38
383.19	2176.99
383.40	2398.17
383.61	2287.58
383.83	2240.48
384.04	2248.67
384.25	2361.31
384.47	2371.55
384.68	2301.92
384.89	2320.35
385.11	2359.26
385.32	2269.15
385.54	2383.84
385.75	2285.53
385.96	2385.88
386.18	2408.41
386.39	2441.18
386.60	2422.75
386.82	2375.64
387.03	2430.94
387.24	2457.56
387.46	2439.13
387.67	2494.43
387.88	2463.71
388.10	2435.03
388.31	2529.24
388.52	2553.82
388.74	2572.25
388.95	2559.96
389.16	2539.48
389.38	2496.47
389.59	2492.38
389.80	2576.34
390.02	2537.43
390.23	2564.06
390.44	2600.92
390.66	2525.15
390.87	2523.10
391.08	2553.82
391.30	2621.40
391.51	2658.26
391.72	2688.98
391.94	2553.82
392.15	2533.34
392.36	2639.83
392.58	2543.58
392.79	2586.58
393.00	2709.46
393.22	2594.78
393.43	2734.04
393.64	2779.09
393.85	2799.57
394.07	2701.27
394.28	2691.03
394.49	2736.09
394.71	2729.94
394.92	2758.61
395.13	2602.97
395.35	2734.04
395.56	2693.08
395.77	2738.13
395.98	2781.14
396.20	2830.29
396.41	2924.50
396.62	2912.21
396.84	2768.85
397.05	2826.20
397.26	2963.41
397.47	2887.64
397.69	2719.70
397.90	2942.93
398.11	2914.26
398.32	2838.48
398.54	2863.06
398.75	2897.88
398.96	2897.88
399.18	3112.91
399.39	2936.79
399.60	3049.43
399.81	2981.84
400.03	2977.75
400.24	3198.93
400.45	3000.27
400.66	3108.82
400.88	2998.23
401.09	3170.26
401.30	3127.25
401.51	3135.44
401.73	3125.20
401.94	3030.99
402.15	3125.20
402.36	3110.86
402.58	3153.87
402.79	3325.90
403.00	3170.26
403.21	3155.92
403.43	3100.62
403.64	3223.50
403.85	3004.37
404.06	3213.26
404.27	3065.81
404.49	3149.78
404.70	3074.00
404.91	3239.89
405.12	3260.37
405.34	3143.63
405.55	3356.62
405.76	3149.78
405.97	3160.02
406.19	3381.20
406.40	3194.83
406.61	3362.76
406.82	3272.65
407.03	3254.22
407.25	3284.94
407.46	3424.20
407.67	3360.72
407.88	3401.68
408.09	3397.58
408.31	3338.19
408.52	3391.44
408.73	3362.76
408.94	3248.08
409.15	3395.53
409.37	3413.96
409.58	3413.96
409.79	3502.03
410.00	3473.36
410.21	3368.91
410.43	3489.74
410.64	3397.58
410.85	3459.02
411.06	3426.25
411.27	3551.18
411.48	3502.03
411.70	3487.69
411.91	3463.12
412.12	3682.25
412.33	3575.75
412.54	3565.51
412.76	3655.62
412.97	3602.38
413.18	3477.45
413.39	3596.23
413.60	3657.67
413.81	3649.48
414.03	3528.65
414.24	3631.05
414.45	3729.35
414.66	3463.12
414.87	3760.07
415.08	3651.53
415.30	3717.06
415.51	3725.26
415.72	3633.10
415.93	3676.10
416.14	3725.26
416.35	3735.50
416.56	3796.93
416.78	3790.79
416.99	3942.34
417.20	3727.30
417.41	3917.76
417.62	3936.20
417.83	3854.28
418.04	3727.30
418.26	3919.81
418.47	3819.46
418.68	3864.52
418.89	3917.76
419.10	4075.46
419.31	3876.80
419.52	3899.33
419.73	4046.79
419.95	4026.31
420.16	3887.04
420.37	3991.49
420.58	3893.19
420.79	3889.09
421.00	4116.42
421.21	4100.03
421.42	3983.30
421.63	3993.54
421.85	4061.12
422.06	4165.57
422.27	4153.28
422.48	4054.98
422.69	4237.25
422.90	4151.23
423.11	4214.72
423.32	4151.23
423.53	4415.42
423.75	4325.31
423.96	4444.09
424.17	4452.28
424.38	4460.48
424.59	4392.89
424.80	4513.72
425.01	4523.96
425.22	4427.71
425.43	4374.46
425.64	4519.87
425.85	4609.98
426.06	4601.79
426.28	4532.15
426.49	4386.75
426.70	4560.83
426.91	4380.61
427.12	4718.52
427.33	4558.78
427.54	4593.59
427.75	4763.58
427.96	4712.38
428.17	4763.58
428.38	4667.32
428.59	4751.29
428.80	4630.46
429.01	4710.33
429.23	4612.03
429.44	4939.70
429.65	4927.41
429.86	4923.32
430.07	4765.62
430.28	4822.97
430.49	4929.46
430.70	4960.18
430.91	5066.67
431.12	4890.55
431.33	5031.86
431.54	5083.06
431.75	5093.30
431.96	5070.77
432.17	4992.95
432.38	5060.53
432.59	5396.40
432.80	5089.20
433.01	5203.89
433.22	5253.04
433.43	5341.10
433.64	5212.08
433.85	5226.42
434.06	5285.81
434.27	5289.90
434.49	5255.09
434.70	5539.76
434.91	5326.77
435.12	5443.50
435.33	5427.12
435.54	5291.95
435.75	5320.62
435.96	5466.03
436.17	5365.68
436.38	5431.21
436.59	5613.48
436.80	5605.29
437.01	5820.33
437.22	5722.02
437.43	5578.67
437.64	5457.84
437.85	5787.56
438.06	5724.07
438.27	5615.53
438.48	5629.87
438.69	5672.87
438.90	5818.28
439.11	5597.10
439.32	5832.62
439.53	5719.98
439.74	5713.83
439.95	5805.99
440.16	5859.24
440.37	5881.77
440.57	5670.83
440.78	5851.05
440.99	5935.01
441.20	5982.12
441.41	5818.28
441.62	5863.33
441.83	5941.16
442.04	5955.49
442.25	6090.66
442.46	5932.97
442.67	6113.19
442.88	6326.18
443.09	6072.23
443.30	6029.22
443.51	6049.70
443.72	6252.45
443.93	6047.65
444.14	6436.77
444.35	6096.80
444.56	6092.71
444.77	6086.56
444.98	6215.59
445.19	6258.59
445.40	6340.51
445.61	6338.46
445.81	6348.70
446.02	6369.18
446.23	6309.79
446.44	6367.13
446.65	6481.82
446.86	6457.25
447.07	6533.02
447.28	6533.02
447.49	6637.47
447.70	6522.78
447.91	6690.71
448.12	6664.09
448.33	6729.63
448.54	6754.20
448.74	6764.44
448.95	6631.32
449.16	6537.12
449.37	7032.72
449.58	6770.58
449.79	6995.86
450.00	6604.70
450.21	6926.23
450.42	7047.06
450.63	6946.71
450.84	6856.60
451.05	6950.81
451.25	6870.94
451.46	6811.54
451.67	6991.77
451.88	7079.83
452.09	7051.16
452.30	6965.14
452.51	6997.91
452.72	7153.55
452.93	7389.07
453.13	7198.61
453.34	7182.23
453.55	7296.91
453.76	7253.91
453.97	7458.70
454.18	7305.10
454.39	7262.10
454.60	7452.56
454.81	7415.69
455.01	7536.52
455.22	7270.29
455.43	7387.02
455.64	7769.99
455.85	7694.22
456.06	7722.89
456.27	7786.38
456.48	7585.68
456.68	7808.90
456.89	7745.42
457.10	7966.60
457.31	7974.79
457.52	7942.02
457.73	7858.06
457.94	8118.15
458.14	7858.06
458.35	8333.18
458.56	8042.37
458.77	7946.12
458.98	8161.16
459.19	8173.44
459.39	8310.66
459.60	8533.89
459.81	8380.29
460.02	8464.25
460.23	8408.96
460.44	8798.07
460.65	8429.44
460.85	8593.28
461.06	8615.80
461.27	8343.42
461.48	8826.75
461.69	8869.75
461.89	8556.41
462.10	8669.05
462.31	8626.04
462.52	8642.43
462.73	8877.94
462.94	9033.59
463.14	9062.26
463.35	9047.93
463.56	9467.76
463.77	9287.54
463.98	9103.22
464.18	9336.69
464.39	9455.47
464.60	9564.01
464.81	9406.32
465.02	9328.50
465.23	9721.71
465.43	9492.34
465.64	9746.28
465.85	9598.83
466.06	9588.59
466.27	9928.55
466.47	9703.28
466.68	9971.56
466.89	9783.15
467.10	10119.01
467.30	9793.39
467.51	10067.81
467.72	10358.63
467.93	9959.27
468.14	10375.01
468.34	10233.70
468.55	10450.78
468.76	10270.56
468.97	10250.08
469.17	10665.82
469.38	10559.33
469.59	10907.48
469.80	10663.77
470.01	10798.94
470.21	10852.19
470.42	10977.11
470.63	11194.20
470.84	11073.37
471.04	11147.09
471.25	11198.29
471.46	11239.25
471.67	11460.43
471.87	11298.64
472.08	11337.56
472.29	11609.93
472.50	11231.06
472.70	11536.21
472.91	11450.19
473.12	11779.92
473.33	11734.86
473.53	12076.87
473.74	11949.90
473.95	12207.94
474.16	12187.46
474.36	12336.96
474.57	12402.50
474.78	12431.17
474.99	12445.51
475.19	12619.58
475.40	12846.91
475.61	12578.62
475.81	12848.96
476.02	13045.56
476.23	12969.79
476.44	13033.27
476.64	13102.90
476.85	13453.11
477.06	13369.14
477.27	13496.11
477.47	13563.70
477.68	13604.66
477.89	13760.30
478.09	13901.61
478.30	13817.65
478.51	13950.76
478.71	14085.93
478.92	14016.30
479.13	14305.06
479.34	14466.85
479.54	14350.12
479.75	14110.50
479.96	14436.13
480.16	14741.28
480.37	14757.66
480.58	14884.64
480.78	15021.85
480.99	15046.43
481.20	15308.57
481.41	15046.43
481.61	15167.26
481.82	15372.05
482.03	15296.28
482.23	15327.00
482.44	15736.59
482.65	15843.09
482.85	15722.26
483.06	15677.20
483.27	16015.12
483.47	16076.55
483.68	16152.33
483.89	16013.07
484.09	16340.74
484.30	16346.89
484.51	16473.86
484.71	16637.70
484.92	16613.12
485.13	16830.21
485.33	16727.81
485.54	16672.51
485.75	17127.16
485.95	16998.14
486.16	17121.02
486.37	17215.23
486.57	17430.26
486.78	17489.65
486.98	17366.78
487.19	17520.37
487.40	17501.94
487.60	17575.67
487.81	18036.46
488.02	17999.60
488.22	17833.71
488.43	18145.00
488.64	18171.63
488.84	18317.03
489.05	18419.43
489.25	18523.88
489.46	18730.72
489.67	18450.15
489.87	18847.46
490.08	19066.59
490.29	18613.99
490.49	19207.90
490.70	19187.42
490.90	19441.37
491.11	19123.93
491.32	19633.88
491.52	19338.97
491.73	19289.82
491.94	19766.99
492.14	19328.73
492.35	19693.27
492.55	20035.28
492.76	20166.35
492.97	20104.91
493.17	20080.33
493.38	20231.88
493.58	20291.27
493.79	20405.96
494.00	20307.66
494.20	20782.79
494.41	20248.27
494.61	20809.41
494.82	20893.38
495.02	20852.42
495.23	21096.13
495.44	20997.82
495.64	21257.92
495.85	21235.39
496.05	21405.37
496.26	21446.33
496.47	21571.25
496.67	21388.99
496.88	21796.53
497.08	21687.99
497.29	21821.11
497.49	21956.27
497.70	22259.37
497.91	21923.51
498.11	21986.99
498.32	22277.80
498.52	22472.36
498.73	22578.86
498.93	22470.31
499.14	22431.40
499.34	22834.85
499.55	22738.60
499.76	22423.21
499.96	22810.28
500.17	23004.83
500.37	22763.17
500.58	22644.39
500.78	22845.09
500.99	23232.16
501.19	23363.23
501.40	23223.97
501.60	23336.60
501.81	23522.97
502.02	23510.68
502.22	23465.63
502.43	23717.53
502.63	23905.94
502.84	24098.45
503.04	23817.88
503.25	24174.22
503.45	23916.18
503.66	23934.61
503.86	24063.63
504.07	24284.81
504.27	24030.87
504.48	24383.12
504.68	24313.48
504.89	24800.90
505.09	24549.00
505.30	24772.23
505.50	24630.92
505.71	24815.24
505.91	24798.85
506.12	24874.63
506.32	24872.58
506.53	24903.30
506.73	24700.55
506.94	25153.15
507.14	25233.02
507.35	25446.01
507.55	25116.29
507.76	25454.20
507.96	25437.82
508.17	25591.42
508.37	25409.15
508.58	25566.84
508.78	25562.75
508.99	26029.68
509.19	25861.75
509.40	25685.62
509.60	25669.24
509.81	25949.81
510.01	26056.31
510.22	26353.26
510.42	25831.03
510.63	26345.07
510.83	26285.68
511.04	26357.36
511.24	26642.03
511.44	26320.49
511.65	26457.71
511.85	26117.75
512.06	26560.11
512.26	26623.59
512.47	26492.52
512.67	26611.31
512.88	26814.05
513.08	26543.72
513.29	27287.14
513.49	27473.50
513.69	26994.28
513.90	27254.37
514.10	26930.79
514.31	27045.48
514.51	27252.32
514.72	27395.68
514.92	27209.31
515.13	27315.81
515.33	27647.58
515.53	27342.43
515.74	27549.28
515.94	27457.12
516.15	27584.09
516.35	27565.66
516.56	27872.85
516.76	27747.93
516.96	27965.01
517.17	27764.31
517.37	28022.36
517.58	28173.91
517.78	27946.58
517.99	27938.39
518.19	28347.98
518.39	28180.05
518.60	28548.68
518.80	28538.44
519.01	28649.03
519.21	28470.86
519.41	28565.07
519.62	28294.74
519.82	28771.91
520.03	28933.70
520.23	28536.40
520.43	28696.14
520.64	29050.44
520.84	29267.52
521.05	28870.22
521.25	29292.10
521.45	29244.99
521.66	29511.23
521.86	29367.87
522.07	29355.58
522.27	29685.31
522.47	29421.12
522.68	29838.90
522.88	29705.79
523.08	29957.69
523.29	29711.93
523.49	30101.04
523.70	30240.31
523.90	29951.54
524.10	30484.01
524.31	30508.59
524.51	29621.82
524.71	30553.65
524.92	30252.59
525.12	30365.23
525.33	30674.48
525.53	30791.21
525.73	30774.83
525.94	30875.18
526.14	30920.23
526.34	30979.62
526.55	30840.36
526.75	31082.02
526.95	31399.46
527.16	31311.39
527.36	31110.69
527.56	31385.12
527.77	31493.66
527.97	31352.35
528.17	31710.75
528.38	31686.17
528.58	31931.93
528.78	31710.75
528.99	31450.66
529.19	32335.38
529.39	31698.46
529.60	32255.51
529.80	32306.71
530.00	32042.52
530.21	32669.20
530.41	32716.30
530.61	32523.79
530.82	32486.93
531.02	32796.17
531.22	32986.63
531.43	32693.77
531.63	32644.62
531.83	33422.85
532.04	33447.43
532.24	33297.92
532.44	33463.81
532.64	33562.11
532.85	33732.09
533.05	33863.16
533.25	33764.86
533.46	34024.95
533.66	34147.83
533.86	33934.84
534.07	34364.92
534.27	34160.12
534.47	34229.75
534.67	34420.21
534.88	34153.97
535.08	34328.05
535.28	34840.04
535.49	34932.20
535.69	34983.40
535.89	34895.34
536.09	34874.86
536.30	35327.46
536.50	35202.53
536.70	35380.71
536.91	35382.76
537.11	35354.08
537.31	35616.22
537.51	35659.23
537.72	35681.76
537.92	36031.96
538.12	36359.64
538.32	35753.44
538.53	36152.79
538.73	35814.88
538.93	36009.43
539.13	36562.39
539.34	35890.65
539.54	36152.79
539.74	36582.87
539.94	36230.62
540.15	36435.41
540.35	36617.68
540.55	36617.68
540.75	36599.25
540.96	37088.71
541.16	37248.46
541.36	36863.44
541.56	37178.82
541.77	37168.58
541.97	37281.22
542.17	37420.48
542.37	37696.96
542.58	37692.86
542.78	37336.52
542.98	37594.56
543.18	37432.77
543.38	38397.37
543.59	37756.35
543.79	37705.15
543.99	38180.28
544.19	38413.75
544.40	37811.65
544.60	38262.20
544.80	37926.33
545.00	38081.98
545.20	38464.95
545.41	38677.94
545.61	38180.28
545.81	38489.52
546.01	38770.10
546.21	38575.54
546.42	38561.20
546.62	38911.41
546.82	38866.35
547.02	39036.33
547.22	39122.35
547.43	38690.23
547.63	39280.04
547.83	39263.66
548.03	39019.95
548.23	39460.26
548.44	39529.89
548.64	39548.32
548.84	39599.52
549.04	39380.39
549.24	40074.65
549.45	39927.20
549.65	39765.41
549.85	39968.16
550.05	40093.08
550.25	39966.11
550.45	40648.08
550.66	40244.63
550.86	39863.71
551.06	40484.25
551.26	40500.63
551.46	40314.26
551.66	40398.23
551.87	40379.80
552.07	40510.87
552.27	40639.89
552.47	40906.13
552.67	40635.80
552.87	40543.64
553.07	40758.67
553.28	40873.36
553.48	41133.45
553.68	41008.53
553.88	41348.49
554.08	41139.60
554.28	41346.44
554.48	41264.52
554.69	41225.61
554.89	41571.72
555.09	41295.24
555.29	41024.91
555.49	41262.47
555.69	41524.61
555.89	41710.98
556.10	41612.68
556.30	41424.26
556.50	41659.78
556.70	41579.91
556.90	42409.34
557.10	41772.42
557.30	41706.88
557.50	42171.77
557.70	42505.59
557.91	41907.58
558.11	42014.08
558.31	41911.68
558.51	41946.50
558.71	42638.71
558.91	42538.36
559.11	41784.71
559.31	42165.63
559.51	42390.91
559.72	42290.55
559.92	42184.06
560.12	42210.68
560.32	42542.45
560.52	42308.99
560.72	42501.50
560.92	42521.98
561.12	42399.10
561.32	42753.40
561.52	42468.73
561.72	42859.89
561.93	42835.31
562.13	43052.40
562.33	42603.89
562.53	43464.04
562.73	42734.96
562.93	43031.92
563.13	42958.19
563.33	42560.89
563.53	43089.26
563.73	42913.14
563.93	43130.22
564.13	43576.68
564.33	43210.09
564.53	43246.96
564.74	43441.51
564.94	42890.61
565.14	43588.97
565.34	43263.34
565.54	43447.66
565.74	43025.78
565.94	43742.56
566.14	43404.65
566.34	43615.59
566.54	44283.23
566.74	43763.04
566.94	43423.08
567.14	44072.29
567.34	43568.49
567.54	44266.84
567.74	43973.98
567.94	43484.52
568.14	43885.92
568.34	44168.54
568.54	44354.91
568.74	44279.13
568.94	44037.47
569.14	44414.30
569.34	44418.39
569.54	44180.83
569.75	43990.37
569.95	44467.55
570.15	44488.03
570.35	44520.79
570.55	44203.36
570.75	44201.31
570.95	44717.40
571.15	44750.17
571.35	44496.22
571.55	44787.03
571.75	44901.71
571.95	44873.04
572.15	44406.11
572.35	44639.57
572.55	44762.45
572.75	44893.52
572.95	45008.21
573.15	45215.05
573.35	45079.89
573.55	44746.07
573.75	44973.39
573.95	45299.02
574.15	44868.95
574.35	45159.76
574.55	44758.36
574.75	45268.30
574.95	45415.76
575.15	45382.99
575.34	45272.40
575.54	45604.17
575.74	45757.77
575.94	45475.15
576.14	45454.67
576.34	45559.11
576.54	45790.53
576.74	45665.61
576.94	45892.93
577.14	45888.84
577.34	45931.84
577.54	45524.30
577.74	45909.32
577.94	45997.38
578.14	45845.83
578.34	46060.87
578.54	45735.24
578.74	46003.52
578.94	46308.67
579.14	46079.30
579.34	45987.14
579.54	46406.97
579.74	46488.89
579.94	46464.32
580.13	46763.32
580.33	46527.80
580.53	46259.52
580.73	46560.57
580.93	46660.92
581.13	46523.71
581.33	46640.44
581.53	47047.99
581.73	46970.16
581.93	46918.96
582.13	47025.46
582.33	46705.98
582.53	46806.33
582.73	47351.09
582.92	47222.06
583.12	47105.33
583.32	47013.17
583.52	47191.34
583.72	47273.26
583.92	47443.24
584.12	47078.71
584.32	47768.87
584.52	47514.92
584.72	47412.52
584.92	47584.55
585.11	48006.44
585.31	47590.70
585.51	47662.38
585.71	47707.43
585.91	48256.29
586.11	47756.58
586.31	47469.87
586.51	47983.91
586.71	48123.17
586.91	48229.66
587.10	48327.97
587.30	47979.81
587.50	48178.46
587.70	48706.84
587.90	48289.06
588.10	48278.82
588.30	48301.34
588.50	48420.13
