SpectraSuite Data File
++++++++++++++++++++++++++++++++++++
Date: Fri Jun 02 14:49:29 CEST 2017
User: INFO_000
Dark Spectrum Present: No
Reference Spectrum Present: No
Number of Sampled Component Spectra: 1
Spectrometers: USB4H00879
Integration Time (usec): 80000 (USB4H00879)
Spectra Averaged: 1 (USB4H00879)
Boxcar Smoothing: 0 (USB4H00879)
Correct for Electrical Dark: No (USB4H00879)
Strobe/Lamp Enabled: No (USB4H00879)
Correct for Detector Non-linearity: No (USB4H00879)
Correct for Stray Light: No (USB4H00879)
Number of Pixels in Processed Spectrum: 3648
>>>>>Begin Processed Spectral Data<<<<<
345.13	1267.69
345.34	1267.69
345.56	1267.69
345.78	1220.59
345.99	1286.12
346.21	1701.86
346.42	1744.87
346.64	1654.76
346.86	1763.30
347.07	1660.90
347.29	1716.20
347.50	1642.47
347.72	1669.09
347.94	1650.66
348.15	1593.32
348.37	1611.75
348.59	1646.57
348.80	1630.18
349.02	1761.25
349.23	1855.46
349.45	1783.78
349.67	1912.80
349.88	1800.16
350.10	1945.57
350.31	1867.75
350.53	1763.30
350.75	2019.30
350.96	1832.93
351.18	1800.16
351.39	1769.44
351.61	1798.12
351.82	1888.23
352.04	1984.48
352.26	1761.25
352.47	1877.99
352.69	1929.19
352.90	1738.73
353.12	1902.56
353.34	1896.42
353.55	1910.75
353.77	1904.61
353.98	1849.32
354.20	1873.89
354.41	1871.84
354.63	1867.75
354.85	2025.44
355.06	1839.08
355.28	1783.78
355.49	1914.85
355.71	1859.56
355.92	1886.18
356.14	1943.52
356.35	1894.37
356.57	1841.12
356.79	1900.52
357.00	1916.90
357.22	1986.53
357.43	1806.31
357.65	1982.43
357.86	1806.31
358.08	1976.29
358.29	1957.86
358.51	2015.20
358.72	1937.38
358.94	1929.19
359.16	1877.99
359.37	1949.67
359.59	1966.05
359.80	1912.80
360.02	1945.57
360.23	1925.09
360.45	1968.10
360.66	1974.24
360.88	1802.21
361.09	1957.86
361.31	2078.69
361.52	1937.38
361.74	2052.06
361.95	2076.64
362.17	1908.71
362.38	2097.12
362.60	1943.52
362.81	1927.14
363.03	2021.35
363.24	2007.01
363.46	2115.55
363.67	2056.16
363.89	1972.19
364.10	1976.29
364.32	1923.04
364.53	2062.30
364.75	1884.13
364.96	2062.30
365.18	2062.30
365.39	2099.17
365.61	1937.38
365.82	2041.82
366.04	2035.68
366.25	1990.63
366.47	2023.39
366.68	2066.40
366.90	2017.25
367.11	2039.78
367.33	2148.32
367.54	2172.89
367.76	1978.34
367.97	2039.78
368.19	2033.63
368.40	2064.35
368.62	2000.87
368.83	2002.91
369.05	2050.02
369.26	1918.95
369.48	1933.28
369.69	1982.43
369.91	2068.45
370.12	1972.19
370.33	2162.66
370.55	1959.91
370.76	1996.77
370.98	2136.03
371.19	2097.12
371.41	2033.63
371.62	2121.70
371.84	2023.39
372.05	2252.77
372.27	2021.35
372.48	2045.92
372.69	2052.06
372.91	2115.55
373.12	2109.41
373.34	2113.50
373.55	2033.63
373.77	2109.41
373.98	2064.35
374.20	2113.50
374.41	2240.48
374.62	2113.50
374.84	2156.51
375.05	2273.25
375.27	2117.60
375.48	2199.52
375.70	2131.94
375.91	2267.10
376.12	2273.25
376.34	2166.75
376.55	2050.02
376.77	2215.90
376.98	2176.99
377.19	2121.70
377.41	2142.18
377.62	2166.75
377.84	2154.46
378.05	2379.74
378.27	2222.05
378.48	2265.05
378.69	2355.16
378.91	2258.91
379.12	2176.99
379.34	2234.33
379.55	2283.49
379.76	2236.38
379.98	2263.01
380.19	2242.53
380.41	2271.20
380.62	2363.36
380.83	2265.05
381.05	2170.85
381.26	2402.27
381.47	2222.05
381.69	2267.10
381.90	2396.12
382.12	2359.26
382.33	2252.77
382.54	2291.68
382.76	2234.33
382.97	2312.16
383.19	2230.24
383.40	2260.96
383.61	2398.17
383.83	2273.25
384.04	2301.92
384.25	2367.45
384.47	2432.99
384.68	2406.36
384.89	2228.19
385.11	2400.22
385.32	2367.45
385.54	2377.69
385.75	2392.03
385.96	2363.36
386.18	2402.27
386.39	2404.32
386.60	2306.01
386.82	2430.94
387.03	2398.17
387.24	2404.32
387.46	2465.75
387.67	2387.93
387.88	2469.85
388.10	2455.51
388.31	2441.18
388.52	2592.73
388.74	2455.51
388.95	2475.99
389.16	2416.60
389.38	2461.66
389.59	2553.82
389.80	2519.00
390.02	2580.44
390.23	2654.17
390.44	2596.82
390.66	2469.85
390.87	2504.67
391.08	2588.63
391.30	2707.41
391.51	2611.16
391.72	2609.11
391.94	2535.39
392.15	2621.40
392.36	2576.34
392.58	2607.06
392.79	2650.07
393.00	2766.81
393.22	2709.46
393.43	2656.22
393.64	2688.98
393.85	2777.05
394.07	2686.94
394.28	2670.55
394.49	2801.62
394.71	2854.87
394.92	2844.63
395.13	2680.79
395.35	2750.42
395.56	2705.37
395.77	2729.94
395.98	2861.01
396.20	2904.02
396.41	2791.38
396.62	2899.92
396.84	2785.24
397.05	2813.91
397.26	2940.88
397.47	2893.78
397.69	2867.16
397.90	3002.32
398.11	2981.84
398.32	2881.49
398.54	2879.44
398.75	2865.11
398.96	2994.13
399.18	3094.48
399.39	2961.36
399.60	3022.80
399.81	2863.06
400.03	2922.45
400.24	3166.16
400.45	2959.31
400.66	3004.37
400.88	3028.95
401.09	3178.45
401.30	3057.62
401.51	3151.82
401.73	3145.68
401.94	3098.58
402.15	3147.73
402.36	3121.10
402.58	3098.58
402.79	3168.21
403.00	3166.16
403.21	3190.74
403.43	3213.26
403.64	3338.19
403.85	3194.83
404.06	3170.26
404.27	3162.06
404.49	3182.54
404.70	3143.63
404.91	3356.62
405.12	3321.81
405.34	3117.01
405.55	3346.38
405.76	3141.58
405.97	3280.85
406.19	3379.15
406.40	3164.11
406.61	3286.99
406.82	3385.29
407.03	3289.04
407.25	3162.06
407.46	3368.91
407.67	3448.78
407.88	3497.93
408.09	3385.29
408.31	3291.09
408.52	3450.83
408.73	3344.33
408.94	3389.39
409.15	3403.72
409.37	3469.26
409.58	3510.22
409.79	3440.59
410.00	3626.95
410.21	3407.82
410.43	3477.45
410.64	3370.96
410.85	3471.31
411.06	3508.17
411.27	3583.95
411.48	3553.23
411.70	3549.13
411.91	3598.28
412.12	3588.04
412.33	3530.70
412.54	3672.01
412.76	3688.39
412.97	3510.22
413.18	3467.21
413.39	3532.75
413.60	3659.72
413.81	3643.34
414.03	3657.67
414.24	3633.10
414.45	3700.68
414.66	3542.99
414.87	3770.31
415.08	3680.20
415.30	3719.11
415.51	3753.93
415.72	3534.79
415.93	3672.01
416.14	3729.35
416.35	3764.17
416.56	3782.60
416.78	3848.13
416.99	3829.70
417.20	3930.05
417.41	3909.57
417.62	3878.85
417.83	3868.61
418.04	3846.09
418.26	3954.63
418.47	3936.20
418.68	3971.01
418.89	3971.01
419.10	4100.03
419.31	3936.20
419.52	4071.36
419.73	4005.83
419.95	4120.51
420.16	3911.62
420.37	3989.44
420.58	3966.92
420.79	3997.64
421.00	3942.34
421.21	4050.88
421.42	4087.75
421.63	4057.03
421.85	4081.60
422.06	4054.98
422.27	4163.52
422.48	4114.37
422.69	4140.99
422.90	4235.20
423.11	4255.68
423.32	4358.08
423.53	4272.06
423.75	4251.58
423.96	4480.96
424.17	4329.41
424.38	4458.43
424.59	4370.37
424.80	4540.35
425.01	4372.41
425.22	4380.61
425.43	4489.15
425.64	4626.36
425.85	4548.54
426.06	4581.31
426.28	4530.11
426.49	4440.00
426.70	4546.49
426.91	4624.31
427.12	4511.68
427.33	4657.08
427.54	4683.70
427.75	4640.70
427.96	4761.53
428.17	4775.86
428.38	4704.18
428.59	4779.96
428.80	4722.62
429.01	4794.29
429.23	4786.10
429.44	4958.13
429.65	4933.56
429.86	5038.00
430.07	4857.78
430.28	4892.60
430.49	5019.57
430.70	5128.11
430.91	5017.52
431.12	5074.87
431.33	5031.86
431.54	5138.35
431.75	4964.28
431.96	4902.84
432.17	5068.72
432.38	5197.74
432.59	5334.96
432.80	5154.74
433.01	5357.49
433.22	5281.71
433.43	5291.95
433.64	5255.09
433.85	5197.74
434.06	5365.68
434.27	5269.42
434.49	5394.35
434.70	5408.69
434.91	5416.88
435.12	5414.83
435.33	5486.51
435.54	5457.84
435.75	5357.49
435.96	5410.73
436.17	5466.03
436.38	5533.61
436.59	5478.32
436.80	5572.52
437.01	5687.21
437.22	5670.83
437.43	5629.87
437.64	5457.84
437.85	5687.21
438.06	5777.32
438.27	5683.11
438.48	5638.06
438.69	5935.01
438.90	5863.33
439.11	5773.22
439.32	5724.07
439.53	5916.58
439.74	5939.11
439.95	5842.85
440.16	5865.38
440.37	5900.20
440.57	5873.57
440.78	5889.96
440.99	6027.17
441.20	5877.67
441.41	5855.14
441.62	6018.98
441.83	5750.70
442.04	6008.74
442.25	5900.20
442.46	6047.65
442.67	6098.85
442.88	6336.42
443.09	6092.71
443.30	6049.70
443.51	6141.86
443.72	6172.58
443.93	6162.34
444.14	6320.03
444.35	5994.40
444.56	6258.59
444.77	6244.26
444.98	6203.30
445.19	6332.32
445.40	6303.65
445.61	6287.26
445.81	6455.20
446.02	6485.92
446.23	6277.02
446.44	6375.33
446.65	6528.92
446.86	6334.37
447.07	6473.63
447.28	6623.13
447.49	6680.47
447.70	6510.49
447.91	6533.02
448.12	6416.29
448.33	6739.87
448.54	6686.62
448.74	6565.79
448.95	6768.54
449.16	6590.36
449.37	6952.85
449.58	6696.86
449.79	6965.14
450.00	6653.85
450.21	6786.97
450.42	7040.92
450.63	7081.88
450.84	6825.88
451.05	7008.15
451.25	6850.46
451.46	6862.74
451.67	7212.95
451.88	7235.47
452.09	7151.51
452.30	7024.53
452.51	7208.85
452.72	7190.42
452.93	7423.89
453.13	6965.14
453.34	7063.44
453.55	7149.46
453.76	7214.99
453.97	7448.46
454.18	7233.43
454.39	7432.08
454.60	7479.18
454.81	7409.55
455.01	7604.11
455.22	7239.57
455.43	7567.24
455.64	7618.44
455.85	7655.31
456.06	7870.34
456.27	7557.00
456.48	7669.64
456.68	7737.23
456.89	7870.34
457.10	7931.78
457.31	8134.53
457.52	7976.84
457.73	7937.93
457.94	8159.11
458.14	7939.97
458.35	8374.14
458.56	8218.50
458.77	8023.94
458.98	8290.18
459.19	8286.08
459.39	8312.71
459.60	8380.29
459.81	8234.88
460.02	8531.84
460.23	8370.05
460.44	8671.10
460.65	8730.49
460.85	8611.71
461.06	8769.40
461.27	8624.00
461.48	8789.88
461.69	8890.23
461.89	8664.96
462.10	8900.47
462.31	8439.68
462.52	8597.37
462.73	8957.82
462.94	9140.08
463.14	9084.79
463.35	9041.78
463.56	9465.71
463.77	9287.54
463.98	9195.38
464.18	9412.46
464.39	9541.49
464.60	9576.30
464.81	9449.33
465.02	9535.34
465.23	9895.78
465.43	9365.36
465.64	9750.38
465.85	9596.78
466.06	9774.95
466.27	9830.25
466.47	9887.59
466.68	9932.65
466.89	9928.55
467.10	10012.52
467.30	9852.78
467.51	10254.18
467.72	10381.15
467.93	10174.31
468.14	10248.04
468.34	10579.81
468.55	10362.72
468.76	10508.13
468.97	10440.54
469.17	10807.13
469.38	10729.31
469.59	10899.29
469.80	10620.77
470.01	10987.35
470.21	10833.75
470.42	11116.37
470.63	11050.84
470.84	10999.64
471.04	11210.58
471.25	11112.28
471.46	11306.84
471.67	11396.95
471.87	11485.01
472.08	11493.20
472.29	11718.48
472.50	11255.64
472.70	11458.39
472.91	11722.57
473.12	11884.36
473.33	11880.27
473.53	12265.28
473.74	11896.65
473.95	12142.41
474.16	12394.31
474.36	12414.79
474.57	12437.31
474.78	12443.46
474.99	12486.47
475.19	12377.92
475.40	12726.08
475.61	12812.09
475.81	12851.00
476.02	12937.02
476.23	13088.57
476.44	13248.31
476.64	13238.07
476.85	13629.23
477.06	13532.98
477.27	13662.00
477.47	13752.11
477.68	13502.26
477.89	13846.32
478.09	13819.69
478.30	13838.12
478.51	13932.33
478.71	14186.28
478.92	14001.96
479.13	14360.36
479.34	14343.97
479.54	14595.87
479.75	14511.91
479.96	14667.55
480.16	14741.28
480.37	14716.70
480.58	14870.30
480.78	15019.80
480.99	14999.32
481.20	14882.59
481.41	15290.13
481.61	15286.04
481.82	15484.69
482.03	15392.53
482.23	15449.88
482.44	15599.38
482.65	15798.03
482.85	16025.36
483.06	15658.77
483.27	15752.98
483.47	16029.45
483.68	16041.74
483.89	16432.90
484.09	16217.86
484.30	16475.91
484.51	16590.59
484.71	16506.63
484.92	16676.61
485.13	16989.95
485.33	16869.12
485.54	16791.30
485.75	17172.22
485.95	17305.34
486.16	17061.63
486.37	17207.03
486.57	17213.18
486.78	17286.90
486.98	17549.04
487.19	17829.62
487.40	17575.67
487.60	17696.50
487.81	18108.14
488.02	17819.38
488.22	17952.49
488.43	18083.56
488.64	18157.29
488.84	18243.31
489.05	18505.45
489.25	18296.55
489.46	18716.39
489.67	18599.65
489.87	18984.67
490.08	18960.09
490.29	18958.05
490.49	19384.02
490.70	19072.73
490.90	19381.98
491.11	19308.25
491.32	19605.20
491.52	19357.40
491.73	19433.18
491.94	19412.70
492.14	19508.95
492.35	19805.91
492.55	19777.23
492.76	19979.98
492.97	20137.68
493.17	20018.89
493.38	20446.92
493.58	20219.60
493.79	20547.27
494.00	20336.33
494.20	20416.20
494.41	20784.83
494.61	20797.12
494.82	20836.03
495.02	20772.55
495.23	20936.38
495.44	20774.60
495.64	21313.21
495.85	21233.34
496.05	21376.70
496.26	21348.03
496.47	21573.30
496.67	21425.85
496.88	21737.14
497.08	21399.23
497.29	21614.26
497.49	21837.49
497.70	21909.17
497.91	22005.42
498.11	22222.51
498.32	22257.32
498.52	22226.60
498.73	22539.94
498.93	22654.63
499.14	22732.45
499.34	22550.18
499.55	22716.07
499.76	22871.72
499.96	22791.84
500.17	23008.93
500.37	23049.89
500.58	23000.74
500.78	23152.29
500.99	23119.52
501.19	23561.88
501.40	23453.34
501.60	23158.43
501.81	23393.95
502.02	23733.91
502.22	23328.41
502.43	23781.01
502.63	24065.68
502.84	24067.73
503.04	23791.25
503.25	24237.71
503.45	23936.66
503.66	24194.70
503.86	24280.72
504.07	24594.06
504.27	24161.94
504.48	24544.91
504.68	24270.48
504.89	24518.28
505.09	24622.73
505.30	24542.86
505.50	24485.51
505.71	24927.88
505.91	24829.57
506.12	24944.26
506.32	25134.72
506.53	25128.58
506.73	25284.22
506.94	25155.20
507.14	25503.35
507.35	25065.09
507.55	25403.00
507.76	25785.97
507.96	25368.19
508.17	25675.38
508.37	25910.90
508.58	25671.29
508.78	26191.47
508.99	25894.52
509.19	25740.92
509.40	26332.78
509.60	25960.05
509.81	26222.19
510.01	26123.89
510.22	26250.86
510.42	26517.10
510.63	26480.24
510.83	26254.96
511.04	26351.21
511.24	26756.71
511.44	26392.17
511.65	26748.52
511.85	26609.26
512.06	26832.49
512.26	26857.06
512.47	26871.40
512.67	26809.96
512.88	26613.35
513.08	26936.93
513.29	27154.02
513.49	26867.30
513.69	26963.56
513.90	27561.56
514.10	27039.33
514.31	27121.25
514.51	27551.32
514.72	27336.29
514.92	27504.22
515.13	27539.04
515.33	27580.00
515.53	27876.95
515.74	27788.89
515.94	27473.50
516.15	27770.46
516.35	27414.11
516.56	28167.76
516.76	27756.12
516.96	27962.97
517.17	27833.94
517.37	28087.89
517.58	28343.89
517.78	28286.54
517.99	28251.73
518.19	28735.05
518.39	28745.29
518.60	28509.77
518.80	28390.99
519.01	28794.44
519.21	28964.42
519.41	28583.50
519.62	28870.22
519.82	29009.48
520.03	29058.63
520.23	29195.84
520.43	28862.02
520.64	29158.98
520.84	29443.65
521.05	29007.43
521.25	29496.89
521.45	29591.10
521.66	29449.79
521.86	29496.89
522.07	29443.65
522.27	29627.96
522.47	29431.36
522.68	29756.99
522.88	29736.51
523.08	30285.36
523.29	29814.33
523.49	29883.96
523.70	30045.75
523.90	30076.47
524.10	30477.87
524.31	30387.76
524.51	30029.37
524.71	30537.26
524.92	30424.62
525.12	30692.91
525.33	30768.68
525.53	30961.19
525.73	30772.78
525.94	30942.76
526.14	30963.24
526.34	30983.72
526.55	31258.15
526.75	31223.33
526.95	31440.42
527.16	31075.88
527.36	31696.41
527.56	31600.16
527.77	32026.14
527.97	31616.54
528.17	31929.88
528.38	31649.31
528.58	31911.45
528.78	32030.23
528.99	31991.32
529.19	32005.66
529.39	31698.46
529.60	32820.75
529.80	32564.75
530.00	32267.80
530.21	32429.59
530.41	32689.68
530.61	32744.97
530.82	32689.68
531.02	32615.95
531.22	33009.16
531.43	33013.26
531.63	33295.88
531.83	33101.32
532.04	33433.09
532.24	32970.25
532.44	33797.63
532.64	33443.33
532.85	34203.13
533.05	33445.38
533.25	33447.43
533.46	33695.23
533.66	34182.65
533.86	33920.51
534.07	34565.62
534.27	34125.30
534.47	34694.64
534.67	34475.51
534.88	34409.97
535.08	34387.44
535.28	34725.36
535.49	34825.71
535.69	34883.05
535.89	34932.20
536.09	34878.96
536.30	35317.22
536.50	35436.00
536.70	35319.27
536.91	35108.33
537.11	35292.65
537.31	35569.12
537.51	35612.13
537.72	35898.84
537.92	35995.10
538.12	36048.35
538.32	35511.78
538.53	36214.23
538.73	35964.38
538.93	36046.30
539.13	36160.98
539.34	35943.90
539.54	36357.59
539.74	36537.81
539.94	36693.46
540.15	36488.66
540.35	36756.94
540.55	36894.16
540.75	36820.43
540.96	36683.22
541.16	36726.22
541.36	36988.36
541.56	37060.04
541.77	37207.50
541.97	37234.12
542.17	37152.20
542.37	37053.90
542.58	37449.16
542.78	37246.41
542.98	37313.99
543.18	37612.99
543.38	37717.44
543.59	37647.81
543.79	37944.76
543.99	37959.10
544.19	38032.83
544.40	37795.26
544.60	38184.38
544.80	38024.64
545.00	38370.74
545.20	38397.37
545.41	37914.05
545.61	38120.89
545.81	38573.49
546.01	38901.17
546.21	38413.75
546.42	38679.99
546.62	38636.98
546.82	38485.43
547.02	39122.35
547.22	38946.22
547.43	38940.08
547.63	38712.75
547.83	39146.92
548.03	39024.04
548.23	39298.47
548.44	39091.63
548.64	39382.44
548.84	39400.87
549.04	39499.17
549.24	39511.46
549.45	39626.15
549.65	39779.74
549.85	39730.59
550.05	39884.19
550.25	39916.96
550.45	40119.71
550.66	40132.00
550.86	39800.22
551.06	39869.86
551.26	40031.65
551.46	40422.81
551.66	40109.47
551.87	39832.99
552.07	40773.01
552.27	40517.01
552.47	40813.97
552.67	40426.90
552.87	40342.94
553.07	41014.67
553.28	41006.48
553.48	40893.84
553.68	40775.06
553.88	40795.54
554.08	41237.90
554.28	40762.77
554.48	40883.60
554.69	41303.43
554.89	41293.19
555.09	41395.59
555.29	41325.96
555.49	41602.44
555.69	41340.30
555.89	41635.20
556.10	41817.47
556.30	41731.46
556.50	41887.10
556.70	41342.35
556.90	41727.36
557.10	41985.41
557.30	41676.16
557.50	41971.07
557.70	41940.35
557.91	42493.30
558.11	41999.74
558.31	42239.36
558.51	41981.31
558.71	42552.69
558.91	42452.34
559.11	42196.35
559.31	42149.24
559.51	42628.47
559.72	42597.75
559.92	42841.46
560.12	42798.45
560.32	42419.58
560.52	42595.70
560.72	42950.00
560.92	42704.24
561.12	42734.96
561.32	43330.92
561.52	42526.07
561.72	43490.66
561.93	42884.47
562.13	42888.56
562.33	42816.88
562.53	43605.35
562.73	43009.39
562.93	43070.83
563.13	43341.16
563.33	43287.92
563.53	43404.65
563.73	43126.13
563.93	43283.82
564.13	43670.89
564.33	43478.38
564.53	43431.27
564.74	43736.42
564.94	43087.21
565.14	43453.80
565.34	43482.47
565.54	43894.11
565.74	44272.99
565.94	44094.82
566.14	44129.63
566.34	43967.84
566.54	44080.48
566.74	44250.46
566.94	43967.84
567.14	44023.14
567.34	43894.11
567.54	44227.93
567.74	44131.68
567.94	44221.79
568.14	44377.43
568.34	44508.50
568.54	44275.04
568.74	44692.82
568.94	44449.11
569.14	44850.52
569.34	44944.72
569.54	44651.86
569.75	44148.06
569.95	44428.63
570.15	45376.84
570.35	44799.32
570.55	45247.82
570.75	45065.55
570.95	44969.30
571.15	45059.41
571.35	45053.26
571.55	45296.97
571.75	45301.07
571.95	45407.56
572.15	44741.97
572.35	45313.36
572.55	45143.38
572.75	44963.15
572.95	45344.08
573.15	45313.36
573.35	45469.00
573.55	45593.93
573.75	45677.90
573.95	45622.60
574.15	45239.63
574.35	45614.41
574.55	45751.62
574.75	45425.99
574.95	45235.53
575.15	45458.76
575.34	45929.80
575.54	45561.16
575.74	45804.87
575.94	45837.64
576.14	45751.62
576.34	45948.23
576.54	46554.43
576.74	46290.24
576.94	45944.13
577.14	46011.71
577.34	46538.04
577.54	46050.63
577.74	46210.37
577.94	46609.72
578.14	46167.36
578.34	46890.29
578.54	45831.49
578.74	46439.74
578.94	46921.01
579.14	46708.02
579.34	46331.20
579.54	46863.67
579.74	47084.85
579.94	46591.29
580.13	46728.50
580.33	46863.67
580.53	46654.78
580.73	46939.44
580.93	47002.93
581.13	47131.95
581.33	47127.86
581.53	47420.72
581.73	47195.44
581.93	47424.81
582.13	47125.81
582.33	47535.40
582.53	47273.26
582.73	47615.27
582.92	47449.39
583.12	47629.61
583.32	47273.26
583.52	47390.00
583.72	47625.51
583.92	47691.05
584.12	47551.79
584.32	48104.74
584.52	47727.91
584.72	47772.97
584.92	47842.60
585.11	48526.62
585.31	47959.33
585.51	48000.29
585.71	47600.94
585.91	48223.52
586.11	48280.86
586.31	47901.99
586.51	48133.41
586.71	47912.23
586.91	48608.54
587.10	48313.63
587.30	48383.26
587.50	48809.24
587.70	48233.76
587.90	48157.99
588.10	48555.29
588.30	48624.92
588.50	48753.94
