SpectraSuite Data File
++++++++++++++++++++++++++++++++++++
Date: Fri Jun 02 14:49:30 CEST 2017
User: INFO_000
Dark Spectrum Present: No
Reference Spectrum Present: No
Number of Sampled Component Spectra: 1
Spectrometers: USB4H00879
Integration Time (usec): 80000 (USB4H00879)
Spectra Averaged: 1 (USB4H00879)
Boxcar Smoothing: 0 (USB4H00879)
Correct for Electrical Dark: No (USB4H00879)
Strobe/Lamp Enabled: No (USB4H00879)
Correct for Detector Non-linearity: No (USB4H00879)
Correct for Stray Light: No (USB4H00879)
Number of Pixels in Processed Spectrum: 3648
>>>>>Begin Processed Spectral Data<<<<<
345.13	1325.04
345.34	1325.04
345.56	1325.04
345.78	1308.65
345.99	1300.46
346.21	1714.15
346.42	1765.35
346.64	1705.96
346.86	1734.63
347.07	1681.38
347.29	1705.96
347.50	1681.38
347.72	1695.72
347.94	1761.25
348.15	1560.55
348.37	1642.47
348.59	1656.81
348.80	1589.22
349.02	1740.77
349.23	1863.65
349.45	1820.64
349.67	1923.04
349.88	1789.92
350.10	1918.95
350.31	1818.60
350.53	1806.31
350.75	1972.19
350.96	1814.50
351.18	1894.37
351.39	1841.12
351.61	1832.93
351.82	1908.71
352.04	1863.65
352.26	1761.25
352.47	1910.75
352.69	1933.28
352.90	1765.35
353.12	1888.23
353.34	1875.94
353.55	2002.91
353.77	1914.85
353.98	1900.52
354.20	1851.36
354.41	1961.95
354.63	2043.87
354.85	2029.54
355.06	1972.19
355.28	1740.77
355.49	1898.47
355.71	1923.04
355.92	1849.32
356.14	1873.89
356.35	1920.99
356.57	1949.67
356.79	1910.75
357.00	1896.42
357.22	1908.71
357.43	1796.07
357.65	1947.62
357.86	1910.75
358.08	1918.95
358.29	1925.09
358.51	1953.76
358.72	1990.63
358.94	1910.75
359.16	1914.85
359.37	1929.19
359.59	1923.04
359.80	2017.25
360.02	1937.38
360.23	1964.00
360.45	1966.05
360.66	2019.30
360.88	1920.99
361.09	1945.57
361.31	1980.39
361.52	1961.95
361.74	2033.63
361.95	2074.59
362.17	1957.86
362.38	1988.58
362.60	2047.97
362.81	1902.56
363.03	1923.04
363.24	1961.95
363.46	2076.64
363.67	1972.19
363.89	1998.82
364.10	2062.30
364.32	1920.99
364.53	2039.78
364.75	1886.18
364.96	2019.30
365.18	1982.43
365.39	1992.67
365.61	1994.72
365.82	2088.93
366.04	2041.82
366.25	1976.29
366.47	2101.22
366.68	1996.77
366.90	1996.77
367.11	2062.30
367.33	2043.87
367.54	2004.96
367.76	2060.26
367.97	2064.35
368.19	2097.12
368.40	2080.74
368.62	2078.69
368.83	2000.87
369.05	2052.06
369.26	1980.39
369.48	2047.97
369.69	1984.48
369.91	2084.83
370.12	1986.53
370.33	2060.26
370.55	1935.33
370.76	2082.78
370.98	2164.70
371.19	2093.02
371.41	2019.30
371.62	2095.07
371.84	2035.68
372.05	2217.95
372.27	2017.25
372.48	1992.67
372.69	2131.94
372.91	2156.51
373.12	2158.56
373.34	2072.54
373.55	2133.98
373.77	2142.18
373.98	2068.45
374.20	2203.61
374.41	2293.72
374.62	2129.89
374.84	2109.41
375.05	2127.84
375.27	2111.46
375.48	2119.65
375.70	2084.83
375.91	2211.81
376.12	2260.96
376.34	2187.23
376.55	2199.52
376.77	2150.37
376.98	2109.41
377.19	2201.57
377.41	2156.51
377.62	2131.94
377.84	2181.09
378.05	2303.96
378.27	2162.66
378.48	2308.06
378.69	2281.44
378.91	2349.02
379.12	2203.61
379.34	2191.33
379.55	2238.43
379.76	2328.54
379.98	2244.57
380.19	2236.38
380.41	2230.24
380.62	2283.49
380.83	2277.34
381.05	2217.95
381.26	2375.64
381.47	2303.96
381.69	2293.72
381.90	2412.51
382.12	2330.59
382.33	2232.29
382.54	2248.67
382.76	2379.74
382.97	2328.54
383.19	2312.16
383.40	2359.26
383.61	2240.48
383.83	2303.96
384.04	2291.68
384.25	2379.74
384.47	2445.27
384.68	2412.51
384.89	2215.90
385.11	2301.92
385.32	2351.07
385.54	2381.79
385.75	2363.36
385.96	2394.08
386.18	2344.92
386.39	2410.46
386.60	2295.77
386.82	2500.57
387.03	2420.70
387.24	2484.19
387.46	2410.46
387.67	2568.15
387.88	2482.14
388.10	2437.08
388.31	2482.14
388.52	2576.34
388.74	2559.96
388.95	2463.71
389.16	2514.91
389.38	2512.86
389.59	2574.30
389.80	2521.05
390.02	2545.63
390.23	2506.71
390.44	2396.12
390.66	2486.23
390.87	2500.57
391.08	2553.82
391.30	2637.78
391.51	2709.46
391.72	2731.99
391.94	2609.11
392.15	2627.54
392.36	2656.22
392.58	2639.83
392.79	2635.74
393.00	2645.98
393.22	2766.81
393.43	2754.52
393.64	2783.19
393.85	2883.54
394.07	2652.12
394.28	2736.09
394.49	2707.41
394.71	2750.42
394.92	2875.35
395.13	2697.17
395.35	2678.74
395.56	2756.57
395.77	2729.94
395.98	2826.20
396.20	2875.35
396.41	2793.43
396.62	2873.30
396.84	2721.75
397.05	2826.20
397.26	2977.75
397.47	2998.23
397.69	2734.04
397.90	3057.62
398.11	2955.22
398.32	2885.59
398.54	2826.20
398.75	2803.67
398.96	2887.64
399.18	2992.08
399.39	2928.60
399.60	2977.75
399.81	2879.44
400.03	2928.60
400.24	3233.74
400.45	3020.75
400.66	3092.43
400.88	3039.19
401.09	3074.00
401.30	3106.77
401.51	3205.07
401.73	3043.28
401.94	3084.24
402.15	3149.78
402.36	3035.09
402.58	2955.22
402.79	3102.67
403.00	3176.40
403.21	3129.30
403.43	3223.50
403.64	3225.55
403.85	3088.34
404.06	3323.85
404.27	3194.83
404.49	3178.45
404.70	3102.67
404.91	3205.07
405.12	3194.83
405.34	3246.03
405.55	3352.52
405.76	3200.98
405.97	3252.17
406.19	3370.96
406.40	3147.73
406.61	3397.58
406.82	3313.61
407.03	3346.38
407.25	3272.65
407.46	3434.44
407.67	3332.05
407.88	3461.07
408.09	3364.81
408.31	3321.81
408.52	3448.78
408.73	3368.91
408.94	3428.30
409.15	3418.06
409.37	3448.78
409.58	3450.83
409.79	3430.35
410.00	3518.41
410.21	3407.82
410.43	3452.88
410.64	3344.33
410.85	3620.81
411.06	3510.22
411.27	3569.61
411.48	3514.31
411.70	3483.59
411.91	3428.30
412.12	3608.52
412.33	3463.12
412.54	3491.79
412.76	3698.63
412.97	3688.39
413.18	3575.75
413.39	3569.61
413.60	3770.31
413.81	3620.81
414.03	3569.61
414.24	3585.99
414.45	3813.32
414.66	3542.99
414.87	3731.40
415.08	3588.04
415.30	3721.16
415.51	3776.45
415.72	3678.15
415.93	3669.96
416.14	3776.45
416.35	3729.35
416.56	3790.79
416.78	3809.22
416.99	3848.13
417.20	3887.04
417.41	3866.56
417.62	3880.90
417.83	3827.65
418.04	3932.10
418.26	3917.76
418.47	3837.89
418.68	4081.60
418.89	3968.96
419.10	4067.27
419.31	4196.29
419.52	4071.36
419.73	3944.39
419.95	4091.84
420.16	3993.54
420.37	4022.21
420.58	4124.61
420.79	4071.36
421.00	4040.64
421.21	4110.27
421.42	4083.65
421.63	3999.68
421.85	4052.93
422.06	4227.01
422.27	4181.95
422.48	4235.20
422.69	4220.86
422.90	4261.82
423.11	4106.18
423.32	4300.73
423.53	4433.85
423.75	4356.03
423.96	4431.80
424.17	4321.21
424.38	4577.21
424.59	4378.56
424.80	4440.00
425.01	4464.57
425.22	4464.57
425.43	4403.13
425.64	4573.11
425.85	4712.38
426.06	4642.75
426.28	4573.11
426.49	4435.90
426.70	4560.83
426.91	4581.31
427.12	4681.66
427.33	4644.79
427.54	4786.10
427.75	4620.22
427.96	4663.22
428.17	4712.38
428.38	4835.25
428.59	4859.83
428.80	4728.76
429.01	4765.62
429.23	4788.15
429.44	4892.60
429.65	4927.41
429.86	4982.71
430.07	4882.36
430.28	4845.49
430.49	4939.70
430.70	5107.63
430.91	5054.39
431.12	4929.46
431.33	5115.83
431.54	5212.08
431.75	5031.86
431.96	5072.82
432.17	5050.29
432.38	5050.29
432.59	5486.51
432.80	5093.30
433.01	5349.29
433.22	5212.08
433.43	5271.47
433.64	5304.24
433.85	5312.43
434.06	5341.10
434.27	5109.68
434.49	5316.53
434.70	5558.19
434.91	5443.50
435.12	5322.67
435.33	5484.46
435.54	5543.85
435.75	5351.34
435.96	5353.39
436.17	5484.46
436.38	5578.67
436.59	5683.11
436.80	5484.46
437.01	5810.09
437.22	5681.07
437.43	5717.93
437.64	5463.98
437.85	5732.26
438.06	5672.87
438.27	5547.95
438.48	5506.99
438.69	5775.27
438.90	5883.81
439.11	5687.21
439.32	5803.94
439.53	5672.87
439.74	5865.38
439.95	5873.57
440.16	5752.74
440.37	5937.06
440.57	5691.31
440.78	6051.75
440.99	6033.32
441.20	6018.98
441.41	5760.94
441.62	5859.24
441.83	5859.24
442.04	6068.13
442.25	6066.08
442.46	5994.40
442.67	6238.11
442.88	6373.28
443.09	6000.55
443.30	6000.55
443.51	6107.04
443.72	6254.50
443.93	5980.07
444.14	6516.64
444.35	6000.55
444.56	6150.05
444.77	6279.07
444.98	6145.95
445.19	6180.77
445.40	6340.51
445.61	6315.94
445.81	6471.58
446.02	6457.25
446.23	6287.26
446.44	6295.46
446.65	6487.96
446.86	6492.06
447.07	6383.52
447.28	6776.73
447.49	6713.24
447.70	6567.84
447.91	6514.59
448.12	6535.07
448.33	6684.57
448.54	6594.46
448.74	6653.85
448.95	6776.73
449.16	6668.19
449.37	6832.02
449.58	6694.81
449.79	7073.68
450.00	6680.47
450.21	6809.50
450.42	6866.84
450.63	7018.39
450.84	6883.22
451.05	6944.66
451.25	6866.84
451.46	6924.18
451.67	7128.98
451.88	7292.82
452.09	7098.26
452.30	6956.95
452.51	7241.62
452.72	7159.70
452.93	7446.41
453.13	7069.59
453.34	7081.88
453.55	7251.86
453.76	7282.58
453.97	7606.16
454.18	7487.37
454.39	7557.00
454.60	7356.30
454.81	7393.17
455.01	7620.49
455.22	7391.12
455.43	7511.95
455.64	7616.40
455.85	7907.21
456.06	7964.55
456.27	7661.45
456.48	7673.74
456.68	7899.02
456.89	7782.28
457.10	7958.41
457.31	7956.36
457.52	7802.76
457.73	8085.38
457.94	8159.11
458.14	7901.06
458.35	8277.89
458.56	8279.94
458.77	8118.15
458.98	8220.55
459.19	8288.13
459.39	8544.13
459.60	8492.93
459.81	8185.73
460.02	8398.72
460.23	8357.76
460.44	8587.13
460.65	8650.62
460.85	8720.25
461.06	8695.68
461.27	8525.69
461.48	8912.76
461.69	8853.37
461.89	8632.19
462.10	8611.71
462.31	8802.17
462.52	8816.51
462.73	8759.16
462.94	9156.47
463.14	9164.66
463.35	8912.76
463.56	9441.14
463.77	9273.20
463.98	9109.36
464.18	9228.15
464.39	9475.95
464.60	9478.00
464.81	9475.95
465.02	9367.41
465.23	9662.32
465.43	9625.45
465.64	9856.87
465.85	9801.58
466.06	9553.77
466.27	10047.33
466.47	9949.03
466.68	10078.05
466.89	10084.20
467.10	10186.60
467.30	9830.25
467.51	10241.89
467.72	10387.30
467.93	10004.33
468.14	10317.67
468.34	10520.42
468.55	10420.06
468.76	10538.85
468.97	10395.49
469.17	10772.32
469.38	10651.49
469.59	10907.48
469.80	10774.36
470.01	10678.11
470.21	10880.86
470.42	11138.90
470.63	11245.40
470.84	11020.12
471.04	11200.34
471.25	11298.64
471.46	11407.19
471.67	11509.58
471.87	11409.23
472.08	11511.63
472.29	12005.19
472.50	11460.43
472.70	11431.76
472.91	11671.37
473.12	11884.36
473.33	12093.26
473.53	12048.20
473.74	11915.08
473.95	12273.48
474.16	12128.07
474.36	12255.04
474.57	12508.99
474.78	12721.98
474.99	12502.85
475.19	12652.35
475.40	12767.04
475.61	12855.10
475.81	12879.68
476.02	13289.27
476.23	12928.83
476.44	13072.18
476.64	13549.36
476.85	13682.48
477.06	13289.27
477.27	13649.71
477.47	13774.64
477.68	13563.70
477.89	13788.97
478.09	13918.00
478.30	13811.50
478.51	13930.28
478.71	14118.70
478.92	14108.46
479.13	14124.84
479.34	14237.48
479.54	14282.53
479.75	14247.72
479.96	14395.17
480.16	14800.67
480.37	14780.19
480.58	14911.26
480.78	15107.87
480.99	14868.25
481.20	15361.81
481.41	15107.87
481.61	15537.94
481.82	15535.89
482.03	15558.42
482.23	15468.31
482.44	15525.65
482.65	15763.22
482.85	15916.81
483.06	16002.83
483.27	15933.20
483.47	16066.31
483.68	16176.91
483.89	16273.16
484.09	16154.38
484.30	16318.22
484.51	16699.14
484.71	16875.26
484.92	16748.29
485.13	16684.80
485.33	17049.34
485.54	16918.27
485.75	17229.56
485.95	17227.51
486.16	17198.84
486.37	17512.18
486.57	17360.63
486.78	17420.02
486.98	17592.05
487.19	17792.75
487.40	17768.18
487.60	17747.70
487.81	18259.69
488.02	18093.80
488.22	18030.32
488.43	18302.70
488.64	18292.46
488.84	18515.69
489.05	18376.42
489.25	18558.69
489.46	18652.90
489.67	18650.85
489.87	19042.01
490.08	18831.07
490.29	18935.52
490.49	19224.28
490.70	19341.02
490.90	19244.76
491.11	19123.93
491.32	19408.60
491.52	19605.20
491.73	19746.51
491.94	19898.06
492.14	19842.77
492.35	19734.23
492.55	19955.41
492.76	19932.88
492.97	20225.74
493.17	20240.08
493.38	20590.28
493.58	20598.47
493.79	20684.48
494.00	20582.09
494.20	20700.87
494.41	20913.86
494.61	21001.92
494.82	20993.73
495.02	21020.35
495.23	21151.42
495.44	21182.14
495.64	21300.92
495.85	21343.93
496.05	21425.85
496.26	21491.38
496.47	21591.73
496.67	21421.75
496.88	21913.27
497.08	21601.97
497.29	21956.27
497.49	21870.26
497.70	21978.80
497.91	22181.55
498.11	22306.48
498.32	22249.13
498.52	22386.35
498.73	22734.50
498.93	22816.42
499.14	22765.22
499.34	22970.02
499.55	22730.41
499.76	22595.24
499.96	23017.12
500.17	22857.38
500.37	23244.45
500.58	23205.53
500.78	23340.70
500.99	23381.66
501.19	23426.71
501.40	23387.80
501.60	23488.15
501.81	23244.45
502.02	23578.26
502.22	23496.35
502.43	23883.41
502.63	23830.16
502.84	23991.95
503.04	23994.00
503.25	24030.87
503.45	24057.49
503.66	24344.20
503.86	24178.32
504.07	24606.34
504.27	24299.15
504.48	24567.43
504.68	24546.95
504.89	24841.86
505.09	24594.06
505.30	24546.95
505.50	25007.75
505.71	24917.64
505.91	25065.09
506.12	25007.75
506.32	25118.34
506.53	25161.34
506.73	25325.18
506.94	25624.18
507.14	25298.56
507.35	25390.72
507.55	25509.50
507.76	25427.58
507.96	25556.60
508.17	25855.61
508.37	25472.64
508.58	25898.61
508.78	25794.17
508.99	26148.46
509.19	26179.18
509.40	25908.85
509.60	25986.68
509.81	26336.88
510.01	25947.76
510.22	26201.71
510.42	26162.80
510.63	26295.92
510.83	26144.37
511.04	26453.61
511.24	26302.06
511.44	26439.28
511.65	26701.42
511.85	26515.05
512.06	26705.51
512.26	26553.96
512.47	26693.22
512.67	26682.98
512.88	27170.40
513.08	26971.75
513.29	27092.58
513.49	26986.08
513.69	26924.65
513.90	27041.38
514.10	27498.08
514.31	27119.20
514.51	27434.59
514.72	27123.30
514.92	27371.10
515.13	27199.07
515.33	27489.88
515.53	27668.06
515.74	27604.57
515.94	27979.35
516.15	27792.98
516.35	27655.77
516.56	27899.48
516.76	27932.25
516.96	27782.74
517.17	28030.55
517.37	28032.60
517.58	28026.45
517.78	28221.01
517.99	28073.56
518.19	28436.05
518.39	28544.59
518.60	28462.67
518.80	28395.09
519.01	28829.26
519.21	28759.63
519.41	28765.77
519.62	28384.85
519.82	29032.00
520.03	28870.22
520.23	28667.47
520.43	28591.69
520.64	29040.20
520.84	29220.42
521.05	29040.20
521.25	29613.63
521.45	29161.03
521.66	29779.51
521.86	29627.96
522.07	29498.94
522.27	29560.38
522.47	29419.07
522.68	29826.62
522.88	29527.61
523.08	30273.07
523.29	29963.83
523.49	29931.06
523.70	30127.67
523.90	30230.07
524.10	30291.51
524.31	30307.89
524.51	30088.76
524.71	30895.66
524.92	30451.25
525.12	31043.11
525.33	30531.12
525.53	31090.21
525.73	31192.61
525.94	31090.21
526.14	30856.75
526.34	31096.36
526.55	31241.76
526.75	31043.11
526.95	31352.35
527.16	31491.62
527.36	31634.97
527.56	31409.70
527.77	31686.17
527.97	31610.40
528.17	31690.27
528.38	32106.01
528.58	32151.06
528.78	32095.77
528.99	32056.85
529.19	32218.64
529.39	32239.12
529.60	32624.14
529.80	32503.31
530.00	32208.40
530.21	32626.19
530.41	32941.58
530.61	32618.00
530.82	32820.75
531.02	32673.29
531.22	33271.30
531.43	33156.61
531.63	32878.09
531.83	33129.99
532.04	33564.16
532.24	33019.40
532.44	33680.89
532.64	33924.60
532.85	34094.58
533.05	34014.71
533.25	34119.16
533.46	34067.96
533.66	34229.75
533.86	34201.08
534.07	34565.62
534.27	34395.64
534.47	34332.15
534.67	35061.22
534.88	34424.31
535.08	34598.38
535.28	34702.83
535.49	34782.70
535.69	35626.46
535.89	35259.88
536.09	35444.20
536.30	35401.19
536.50	35241.45
536.70	35241.45
536.91	36068.83
537.11	35456.48
537.31	35364.32
537.51	35769.82
537.72	35935.71
537.92	36117.98
538.12	36136.41
538.32	36273.62
538.53	36115.93
538.73	36287.96
538.93	36218.33
539.13	36208.09
539.34	36541.91
539.54	36449.75
539.74	36910.54
539.94	36933.07
540.15	36539.86
540.35	37242.31
540.55	36980.17
540.75	37123.53
540.96	36894.16
541.16	37213.64
541.36	37342.66
541.56	37340.61
541.77	37631.43
541.97	37455.30
542.17	37619.14
542.37	38098.36
542.58	37932.48
542.78	37930.43
542.98	38000.06
543.18	38251.96
543.38	38448.57
543.59	38131.13
543.79	37688.77
543.99	38401.46
544.19	38487.48
544.40	37901.76
544.60	38553.01
544.80	38819.25
545.00	38600.12
545.20	38946.22
545.41	38366.65
545.61	38337.98
545.81	39165.35
546.01	39097.77
546.21	38503.86
546.42	38993.32
546.62	39183.79
546.82	38981.04
547.02	39564.71
547.22	39247.27
547.43	39105.96
547.63	39509.41
547.83	39650.72
548.03	39282.09
548.23	40097.18
548.44	39925.15
548.64	39673.25
548.84	39814.56
549.04	39523.75
549.24	39916.96
549.45	40691.09
549.65	39585.19
549.85	39986.59
550.05	40514.97
550.25	40007.07
550.45	41026.96
550.66	40336.79
550.86	40222.11
551.06	40687.00
551.26	40725.91
551.46	40789.39
551.66	40588.69
551.87	40277.40
552.07	40674.71
552.27	40619.41
552.47	41276.81
552.67	40732.05
552.87	40723.86
553.07	40928.66
553.28	41186.70
553.48	41219.47
553.68	41315.72
553.88	41555.33
554.08	41454.98
554.28	41399.69
554.48	41330.06
554.69	41588.10
554.89	41317.77
555.09	41424.26
555.29	41131.40
555.49	41856.39
555.69	41340.30
555.89	41948.54
556.10	41713.03
556.30	41801.09
556.50	42016.13
556.70	41586.05
556.90	42034.56
557.10	42096.00
557.30	41637.25
557.50	42423.67
557.70	42073.47
557.91	42087.81
558.11	42073.47
558.31	42354.04
558.51	42282.36
558.71	42386.81
558.91	42302.84
559.11	42399.10
559.31	42747.25
559.51	42186.11
559.72	42517.88
559.92	42968.43
560.12	42524.02
560.32	42599.80
560.52	42397.05
560.72	42257.79
560.92	42712.44
561.12	42663.28
561.32	43156.85
561.52	42644.85
561.72	43201.90
561.93	43076.97
562.13	43060.59
562.33	42802.55
562.53	43431.27
562.73	42616.18
562.93	43122.03
563.13	43171.18
563.33	43222.38
563.53	43482.47
563.73	43130.22
563.93	43478.38
564.13	43832.68
564.33	43386.22
564.53	43644.26
564.74	43556.20
564.94	43224.43
565.14	43662.69
565.34	43234.67
565.54	43748.71
565.74	43869.54
565.94	43949.41
566.14	43386.22
566.34	43748.71
566.54	44289.37
566.74	43531.62
566.94	43789.67
567.14	43910.50
567.34	44062.05
567.54	44119.39
567.74	44143.97
567.94	43836.77
568.14	43885.92
568.34	44516.70
568.54	44318.04
568.74	44432.73
568.94	44324.19
569.14	44340.57
569.34	44318.04
569.54	44471.64
569.75	44408.15
569.95	44318.04
570.15	45022.54
570.35	44701.01
570.55	44883.28
570.75	44393.82
570.95	44533.08
571.15	45102.42
571.35	44584.28
571.55	44719.45
571.75	44584.28
571.95	44877.14
572.15	44475.74
572.35	45172.05
572.55	44827.99
572.75	45126.99
572.95	44930.39
573.15	45167.95
573.35	45110.61
573.55	45155.66
573.75	45311.31
573.95	45493.58
574.15	45389.13
574.35	45167.95
574.55	45503.82
574.75	45159.76
574.95	45622.60
575.15	45350.22
575.34	45659.46
575.54	45905.22
575.74	45927.75
575.94	45837.64
576.14	45524.30
576.34	45899.08
576.54	46431.55
576.74	45993.28
576.94	45950.27
577.14	45905.22
577.34	46503.23
577.54	45641.03
577.74	46200.13
577.94	46138.69
578.14	46153.02
578.34	46341.44
578.54	45681.99
578.74	46189.89
578.94	46462.27
579.14	46200.13
579.34	46464.32
579.54	46503.23
579.74	46812.47
579.94	47058.23
580.13	46675.26
580.33	46716.22
580.53	46535.99
580.73	47179.06
580.93	46779.70
581.13	47078.71
581.33	47158.58
581.53	47523.11
581.73	46828.85
581.93	46908.72
582.13	47410.48
582.33	47490.35
582.53	47232.30
582.73	47248.69
582.92	46904.63
583.12	47496.49
583.32	47584.55
583.52	47426.86
583.72	47684.90
583.92	47506.73
584.12	47486.25
584.32	47725.86
584.52	47813.93
584.72	47908.13
584.92	47637.80
585.11	48434.46
585.31	48397.60
585.51	47725.86
585.71	47760.68
585.91	47994.15
586.11	47910.18
586.31	47822.12
586.51	47981.86
586.71	48315.68
586.91	48313.63
587.10	48575.77
587.30	48254.24
587.50	48321.82
587.70	48700.70
587.90	48899.35
588.10	48616.73
588.30	48223.52
588.50	48602.39
