SpectraSuite Data File
++++++++++++++++++++++++++++++++++++
Date: Fri Jun 02 14:49:26 CEST 2017
User: INFO_000
Dark Spectrum Present: No
Reference Spectrum Present: No
Number of Sampled Component Spectra: 1
Spectrometers: USB4H00879
Integration Time (usec): 80000 (USB4H00879)
Spectra Averaged: 1 (USB4H00879)
Boxcar Smoothing: 0 (USB4H00879)
Correct for Electrical Dark: No (USB4H00879)
Strobe/Lamp Enabled: No (USB4H00879)
Correct for Detector Non-linearity: No (USB4H00879)
Correct for Stray Light: No (USB4H00879)
Number of Pixels in Processed Spectrum: 3648
>>>>>Begin Processed Spectral Data<<<<<
345.13	1349.61
345.34	1349.61
345.56	1349.61
345.78	1245.16
345.99	1277.93
346.21	1732.58
346.42	1665.00
346.64	1658.85
346.86	1753.06
347.07	1654.76
347.29	1712.10
347.50	1576.94
347.72	1650.66
347.94	1748.97
348.15	1531.88
348.37	1609.70
348.59	1656.81
348.80	1644.52
349.02	1765.35
349.23	1847.27
349.45	1832.93
349.67	1873.89
349.88	1789.92
350.10	1968.10
350.31	1888.23
350.53	1767.40
350.75	1943.52
350.96	1787.88
351.18	1877.99
351.39	1918.95
351.61	1755.11
351.82	1791.97
352.04	1877.99
352.26	1847.27
352.47	1853.41
352.69	1933.28
352.90	1759.21
353.12	1816.55
353.34	1841.12
353.55	1916.90
353.77	1961.95
353.98	1814.50
354.20	1822.69
354.41	1900.52
354.63	1908.71
354.85	1961.95
355.06	1964.00
355.28	1769.44
355.49	1839.08
355.71	1851.36
355.92	1822.69
356.14	1937.38
356.35	1863.65
356.57	1798.12
356.79	1931.23
357.00	1843.17
357.22	2025.44
357.43	1867.75
357.65	2007.01
357.86	1882.08
358.08	1902.56
358.29	1884.13
358.51	1943.52
358.72	1923.04
358.94	1918.95
359.16	1935.33
359.37	1902.56
359.59	1964.00
359.80	1923.04
360.02	1955.81
360.23	1945.57
360.45	2047.97
360.66	1931.23
360.88	1847.27
361.09	1875.94
361.31	2019.30
361.52	1976.29
361.74	2060.26
361.95	2029.54
362.17	2013.15
362.38	2121.70
362.60	2017.25
362.81	1986.53
363.03	1951.71
363.24	1941.47
363.46	2084.83
363.67	1927.14
363.89	1972.19
364.10	2007.01
364.32	1929.19
364.53	2035.68
364.75	1951.71
364.96	1994.72
365.18	1970.15
365.39	1931.23
365.61	1935.33
365.82	2154.46
366.04	2019.30
366.25	1966.05
366.47	2047.97
366.68	2082.78
366.90	1935.33
367.11	2037.73
367.33	2090.98
367.54	2123.74
367.76	1986.53
367.97	2066.40
368.19	2019.30
368.40	2021.35
368.62	1988.58
368.83	1986.53
369.05	2011.11
369.26	1933.28
369.48	1959.91
369.69	1982.43
369.91	2035.68
370.12	2031.58
370.33	2056.16
370.55	2027.49
370.76	1984.48
370.98	2156.51
371.19	2115.55
371.41	1974.24
371.62	2082.78
371.84	1968.10
372.05	2060.26
372.27	2121.70
372.48	2119.65
372.69	2080.74
372.91	2103.26
373.12	2158.56
373.34	2072.54
373.55	2121.70
373.77	2131.94
373.98	2047.97
374.20	2119.65
374.41	2301.92
374.62	2009.06
374.84	2195.42
375.05	2222.05
375.27	2162.66
375.48	2187.23
375.70	2154.46
375.91	2191.33
376.12	2285.53
376.34	2074.59
376.55	2183.13
376.77	2240.48
376.98	2117.60
377.19	2133.98
377.41	2150.37
377.62	2220.00
377.84	2244.57
378.05	2297.82
378.27	2217.95
378.48	2375.64
378.69	2377.69
378.91	2308.06
379.12	2250.72
379.34	2209.76
379.55	2289.63
379.76	2303.96
379.98	2267.10
380.19	2248.67
380.41	2314.20
380.62	2312.16
380.83	2248.67
381.05	2248.67
381.26	2387.93
381.47	2287.58
381.69	2275.29
381.90	2359.26
382.12	2269.15
382.33	2224.09
382.54	2222.05
382.76	2275.29
382.97	2252.77
383.19	2334.68
383.40	2424.80
383.61	2291.68
383.83	2228.19
384.04	2324.44
384.25	2299.87
384.47	2396.12
384.68	2295.77
384.89	2250.72
385.11	2338.78
385.32	2496.47
385.54	2406.36
385.75	2301.92
385.96	2361.31
386.18	2422.75
386.39	2471.90
386.60	2357.21
386.82	2375.64
387.03	2408.41
387.24	2385.88
387.46	2430.94
387.67	2527.19
387.88	2484.19
388.10	2412.51
388.31	2451.42
388.52	2545.63
388.74	2543.58
388.95	2549.72
389.16	2527.19
389.38	2494.43
389.59	2475.99
389.80	2600.92
390.02	2494.43
390.23	2623.45
390.44	2531.29
390.66	2615.26
390.87	2424.80
391.08	2641.88
391.30	2588.63
391.51	2605.02
391.72	2688.98
391.94	2584.54
392.15	2676.70
392.36	2527.19
392.58	2539.48
392.79	2670.55
393.00	2686.94
393.22	2645.98
393.43	2731.99
393.64	2795.48
393.85	2752.47
394.07	2688.98
394.28	2736.09
394.49	2742.23
394.71	2748.37
394.92	2764.76
395.13	2764.76
395.35	2801.62
395.56	2809.81
395.77	2717.65
395.98	2785.24
396.20	2830.29
396.41	2891.73
396.62	2863.06
396.84	2871.25
397.05	2752.47
397.26	2832.34
397.47	2953.17
397.69	2889.68
397.90	3000.27
398.11	2867.16
398.32	2858.96
398.54	2789.33
398.75	2920.40
398.96	2901.97
399.18	3069.91
399.39	3020.75
399.60	2977.75
399.81	3035.09
400.03	2897.88
400.24	3235.79
400.45	2922.45
400.66	3121.10
400.88	2889.68
401.09	3123.15
401.30	2955.22
401.51	3174.35
401.73	3125.20
401.94	3049.43
402.15	3026.90
402.36	3061.71
402.58	3078.10
402.79	3149.78
403.00	3112.91
403.21	3139.54
403.43	3174.35
403.64	3162.06
403.85	3080.14
404.06	3301.33
404.27	3121.10
404.49	3098.58
404.70	3043.28
404.91	3227.60
405.12	3172.30
405.34	3289.04
405.55	3260.37
405.76	3123.15
405.97	3231.69
406.19	3262.41
406.40	3313.61
406.61	3289.04
406.82	3272.65
407.03	3276.75
407.25	3196.88
407.46	3373.00
407.67	3317.71
407.88	3424.20
408.09	3346.38
408.31	3278.80
408.52	3332.05
408.73	3266.51
408.94	3336.14
409.15	3413.96
409.37	3483.59
409.58	3561.42
409.79	3506.12
410.00	3463.12
410.21	3368.91
410.43	3469.26
410.64	3422.16
410.85	3491.79
411.06	3444.68
411.27	3506.12
411.48	3622.86
411.70	3485.64
411.91	3563.47
412.12	3577.80
412.33	3604.42
412.54	3534.79
412.76	3651.53
412.97	3643.34
413.18	3516.36
413.39	3610.57
413.60	3661.77
413.81	3690.44
414.03	3624.90
414.24	3508.17
414.45	3852.23
414.66	3534.79
414.87	3733.45
415.08	3704.78
415.30	3667.91
415.51	3811.27
415.72	3743.69
415.93	3729.35
416.14	3749.83
416.35	3727.30
416.56	3790.79
416.78	3762.12
416.99	3862.47
417.20	3755.97
417.41	3973.06
417.62	3696.58
417.83	3919.81
418.04	3796.93
418.26	3905.48
418.47	3917.76
418.68	3887.04
418.89	4026.31
419.10	4069.31
419.31	4005.83
419.52	4138.94
419.73	4063.17
419.95	4071.36
420.16	3915.72
420.37	4007.87
420.58	3958.72
420.79	3973.06
421.00	4069.31
421.21	4159.42
421.42	3985.35
421.63	4097.99
421.85	4044.74
422.06	4079.55
422.27	4153.28
422.48	4116.42
422.69	4167.62
422.90	4208.58
423.11	4157.38
423.32	4407.23
423.53	4341.69
423.75	4380.61
423.96	4339.65
424.17	4403.13
424.38	4564.92
424.59	4345.79
424.80	4476.86
425.01	4528.06
425.22	4468.67
425.43	4323.26
425.64	4644.79
425.85	4655.03
426.06	4509.63
426.28	4386.75
426.49	4476.86
426.70	4466.62
426.91	4528.06
427.12	4601.79
427.33	4562.87
427.54	4609.98
427.75	4720.57
427.96	4788.15
428.17	4739.00
428.38	4691.90
428.59	4851.64
428.80	4704.18
429.01	4900.79
429.23	4788.15
429.44	5023.67
429.65	5074.87
429.86	4951.99
430.07	4822.97
430.28	4814.77
430.49	4868.02
430.70	4986.80
430.91	4954.04
431.12	4976.56
431.33	5001.14
431.54	5119.92
431.75	5035.96
431.96	4927.41
432.17	5013.43
432.38	5240.75
432.59	5382.06
432.80	5087.15
433.01	5224.37
433.22	5201.84
433.43	5179.31
433.64	5265.33
433.85	5191.60
434.06	5259.18
434.27	5337.01
434.49	5291.95
434.70	5425.07
434.91	5294.00
435.12	5429.17
435.33	5396.40
435.54	5509.04
435.75	5117.87
435.96	5425.07
436.17	5257.14
436.38	5482.41
436.59	5425.07
436.80	5371.82
437.01	5711.78
437.22	5607.34
437.43	5539.76
437.64	5451.69
437.85	5701.54
438.06	5746.60
438.27	5533.61
438.48	5748.65
438.69	5631.91
438.90	5693.35
439.11	5654.44
439.32	5715.88
439.53	5703.59
439.74	5865.38
439.95	5791.66
440.16	5830.57
440.37	5822.38
440.57	5746.60
440.78	5935.01
440.99	5887.91
441.20	6014.88
441.41	5797.80
441.62	5773.22
441.83	5849.00
442.04	6088.61
442.25	6066.08
442.46	5935.01
442.67	6092.71
442.88	6375.33
443.09	5992.36
443.30	6057.89
443.51	5992.36
443.72	6436.77
443.93	6182.82
444.14	6238.11
444.35	6121.38
444.56	6307.74
444.77	6213.54
444.98	6281.12
445.19	6391.71
445.40	6393.76
445.61	6240.16
445.81	6399.90
446.02	6393.76
446.23	6188.96
446.44	6236.06
446.65	6500.25
446.86	6561.69
447.07	6496.16
447.28	6680.47
447.49	6627.23
447.70	6524.83
447.91	6549.40
448.12	6590.36
448.33	6741.91
448.54	6674.33
448.74	6619.04
448.95	6662.04
449.16	6596.51
449.37	6975.38
449.58	6717.34
449.79	6977.43
450.00	6596.51
450.21	6987.67
450.42	7006.10
450.63	7018.39
450.84	6860.70
451.05	6936.47
451.25	6836.12
451.46	6922.13
451.67	6950.81
451.88	7165.84
452.09	7098.26
452.30	7085.97
452.51	7194.51
452.72	7276.43
452.93	7511.95
453.13	7073.68
453.34	7204.75
453.55	7229.33
453.76	7075.73
453.97	7507.85
454.18	7227.28
454.39	7460.75
454.60	7409.55
454.81	7456.65
455.01	7604.11
455.22	7409.55
455.43	7374.74
455.64	7745.42
455.85	7817.10
456.06	7645.07
456.27	7767.95
456.48	7747.47
456.68	7792.52
456.89	7886.73
457.10	8003.46
457.31	7831.43
457.52	8017.80
457.73	7847.82
457.94	8171.40
458.14	7819.14
458.35	8318.85
458.56	8095.62
458.77	7903.11
458.98	8169.35
459.19	8349.57
459.39	8173.44
459.60	8497.02
459.81	8376.19
460.02	8443.78
460.23	8288.13
460.44	8720.25
460.65	8583.04
460.85	8804.22
461.06	8779.64
461.27	8449.92
461.48	8927.10
461.69	8963.96
461.89	8632.19
462.10	8683.39
462.31	8703.87
462.52	8781.69
462.73	9011.06
462.94	9273.20
463.14	9109.36
463.35	8865.66
463.56	9410.42
463.77	9365.36
463.98	9039.73
464.18	9080.69
464.39	9359.22
464.60	9529.20
464.81	9463.66
465.02	9312.11
465.23	9617.26
465.43	9529.20
465.64	9699.18
465.85	9875.31
466.06	9432.94
466.27	9971.56
466.47	9772.91
466.68	9838.44
466.89	9924.46
467.10	10002.28
467.30	9846.63
467.51	10024.81
467.72	10299.23
467.93	9719.66
468.14	10108.77
468.34	10325.86
468.55	10487.65
468.76	10399.59
468.97	10205.03
469.17	10479.46
469.38	10692.44
469.59	10772.32
469.80	10514.27
470.01	10547.04
470.21	10743.64
470.42	11005.78
470.63	11034.46
470.84	11028.31
471.04	11061.08
471.25	11153.24
471.46	11167.57
471.67	11358.03
471.87	11306.84
472.08	11501.39
472.29	11638.61
472.50	11235.16
472.70	11300.69
472.91	11538.26
473.12	11890.51
473.33	11874.12
473.53	11943.75
473.74	11677.52
473.95	12185.41
474.16	12164.93
474.36	12074.82
474.57	12316.48
474.78	12437.31
474.99	12359.49
475.19	12267.33
475.40	12506.95
475.61	12650.30
475.81	13023.03
476.02	12910.40
476.23	12672.83
476.44	13143.86
476.64	13201.21
476.85	13586.22
477.06	13289.27
477.27	13492.02
477.47	13508.40
477.68	13600.56
477.89	13772.59
478.09	13778.73
478.30	13858.60
478.51	13950.76
478.71	14006.06
478.92	13764.40
479.13	14235.43
479.34	14407.46
479.54	14112.55
479.75	14479.14
479.96	14376.74
480.16	14782.24
480.37	14757.66
480.58	14944.03
480.78	14921.50
480.99	14796.57
481.20	14907.16
481.41	15494.93
481.61	15183.64
481.82	15329.05
482.03	15404.82
482.23	15388.44
482.44	15617.81
482.65	15810.32
482.85	15582.99
483.06	15716.11
483.27	15941.39
483.47	15851.28
483.68	16160.52
483.89	16310.02
484.09	16125.71
484.30	16346.89
484.51	16463.62
484.71	16600.83
484.92	16348.93
485.13	16738.05
485.33	16873.21
485.54	16877.31
485.75	17088.25
485.95	17415.93
486.16	17196.79
486.37	17379.06
486.57	17047.29
486.78	17194.75
486.98	17331.96
487.19	17520.37
487.40	17751.79
487.60	17733.36
487.81	17979.12
488.02	17786.61
488.22	17850.10
488.43	18337.51
488.64	17981.17
488.84	18085.61
489.05	18308.84
489.25	18517.73
489.46	18710.24
489.67	18515.69
489.87	18898.66
490.08	18794.21
490.29	18949.85
490.49	19242.71
490.70	19250.91
490.90	19146.46
491.11	19080.92
491.32	19498.71
491.52	19562.20
491.73	19304.15
491.94	19523.29
492.14	19637.97
492.35	20002.51
492.55	20002.51
492.76	20168.40
492.97	20129.48
493.17	20262.60
493.38	20291.27
493.58	20606.66
493.79	20283.08
494.00	20516.55
494.20	20534.98
494.41	20860.61
494.61	21059.26
494.82	20831.94
495.02	20987.58
495.23	20889.28
495.44	21253.82
495.64	21513.91
495.85	21182.14
496.05	21501.62
496.26	21425.85
496.47	21628.60
496.67	21444.28
496.88	21776.05
497.08	21716.66
497.29	22081.20
497.49	21905.07
497.70	22048.43
497.91	21978.80
498.11	22283.95
498.32	22386.35
498.52	22163.12
498.73	22820.52
498.93	22406.83
499.14	22640.29
499.34	22402.73
499.55	22832.80
499.76	22638.25
499.96	22591.14
500.17	22873.76
500.37	23010.98
500.58	23025.31
500.78	22914.72
500.99	23066.27
501.19	23379.61
501.40	23135.90
501.60	23348.89
501.81	23002.78
502.02	23473.82
502.22	23279.26
502.43	23815.83
502.63	23705.24
502.84	23676.57
503.04	23901.84
503.25	23920.28
503.45	23959.19
503.66	24049.30
503.86	24041.11
504.07	24487.56
504.27	24059.54
504.48	24305.29
504.68	24149.65
504.89	24702.60
505.09	24516.23
505.30	24776.33
505.50	24327.82
505.71	24688.26
505.91	24731.27
506.12	24573.58
506.32	25069.19
506.53	24694.41
506.73	24966.79
506.94	25310.85
507.14	25210.50
507.35	25013.89
507.55	25206.40
507.76	25417.34
507.96	25204.35
508.17	25149.06
508.37	25587.32
508.58	25468.54
508.78	25386.62
508.99	25908.85
509.19	25648.76
509.40	25720.44
509.60	25960.05
509.81	26191.47
510.01	25839.22
510.22	26084.98
510.42	26146.42
510.63	26418.80
510.83	26084.98
511.04	26201.71
511.24	26404.46
511.44	26189.42
511.65	26205.81
511.85	26541.68
512.06	26142.32
512.26	26547.82
512.47	26803.82
512.67	26607.21
512.88	26955.36
513.08	26343.02
513.29	27049.57
513.49	26642.03
513.69	26820.20
513.90	26586.73
514.10	26928.74
514.31	27223.65
514.51	27532.89
514.72	27330.14
514.92	27283.04
515.13	27432.54
515.33	27299.42
515.53	27438.69
515.74	27491.93
515.94	27633.24
516.15	27436.64
516.35	27377.25
516.56	27852.38
516.76	27620.95
516.96	27995.73
517.17	27958.87
517.37	27889.24
517.58	27932.25
517.78	27985.49
517.99	28155.47
518.19	28505.68
518.39	28257.87
518.60	28333.65
518.80	28442.19
519.01	28450.38
519.21	28436.05
519.41	28636.75
519.62	28249.68
519.82	28569.16
520.03	28626.51
520.23	28902.98
520.43	28520.01
520.64	29267.52
520.84	28954.18
521.05	28974.66
521.25	29247.04
521.45	29267.52
521.66	29660.73
521.86	29189.70
522.07	29472.32
522.27	29425.22
522.47	29599.29
522.68	29830.71
522.88	29828.66
523.08	30160.44
523.29	29636.16
523.49	29947.45
523.70	30029.37
523.90	30496.30
524.10	29795.90
524.31	30144.05
524.51	30463.54
524.71	30475.82
524.92	30277.17
525.12	30682.67
525.33	30357.04
525.53	30639.66
525.73	30830.12
525.94	30627.37
526.14	30660.14
526.34	30936.62
526.55	31182.37
526.75	31180.32
526.95	31258.15
527.16	31053.35
527.36	31454.75
527.56	31381.03
527.77	31587.87
527.97	31542.81
528.17	31809.05
528.38	31600.16
528.58	31931.93
528.78	31995.42
528.99	31913.50
529.19	32075.29
529.39	31850.01
529.60	32355.86
529.80	32132.63
530.00	32032.28
530.21	32427.54
530.41	32484.88
530.61	32441.87
530.82	32574.99
531.02	32599.57
531.22	32800.27
531.43	33000.97
531.63	32781.84
531.83	33347.08
532.04	33549.82
532.24	33095.18
532.44	33560.06
532.64	33992.19
532.85	33748.48
533.05	33590.78
533.25	33711.61
533.46	33594.88
533.66	34311.67
533.86	34307.57
534.07	34049.53
534.27	34356.72
534.47	34452.98
534.67	34184.69
534.88	34278.90
535.08	34530.80
535.28	34444.79
535.49	34743.79
535.69	35112.42
535.89	34932.20
536.09	35149.29
536.30	35335.65
536.50	35202.53
536.70	35311.08
536.91	35139.05
537.11	35583.46
537.31	35020.27
537.51	35137.00
537.72	35966.43
537.92	36031.96
538.12	35964.38
538.32	36081.11
538.53	36187.61
538.73	35808.73
538.93	35710.43
539.13	36201.94
539.34	36081.11
539.54	36183.51
539.74	36713.94
539.94	36558.29
540.15	36623.83
540.35	37088.71
540.55	36449.75
540.75	36742.61
540.96	37146.06
541.16	37139.91
541.36	36812.24
541.56	36660.69
541.77	37289.42
541.97	37135.82
542.17	37617.09
542.37	37371.33
542.58	37416.39
542.78	37565.89
542.98	37457.35
543.18	37586.37
543.38	38200.76
543.59	37963.20
543.79	37498.31
543.99	37940.67
544.19	37977.53
544.40	38032.83
544.60	38239.67
544.80	38131.13
545.00	38446.52
545.20	38786.48
545.41	38323.64
545.61	38399.41
545.81	38841.78
546.01	38886.83
546.21	38499.76
546.42	38653.36
546.62	38839.73
546.82	38675.89
547.02	38788.53
547.22	39067.05
547.43	39036.33
547.63	39349.67
547.83	39046.57
548.03	38782.38
548.23	39476.65
548.44	39517.60
548.64	39622.05
548.84	39036.33
549.04	39497.13
549.24	39890.34
549.45	39771.55
549.65	39519.65
549.85	39589.28
550.05	39851.42
550.25	39785.89
550.45	39974.30
550.66	40045.98
550.86	40002.97
551.06	40226.20
551.26	40195.48
551.46	40314.26
551.66	40240.54
551.87	40617.36
552.07	40494.49
552.27	40277.40
552.47	40813.97
552.67	40758.67
552.87	40297.88
553.07	40904.08
553.28	40500.63
553.48	40869.26
553.68	40775.06
553.88	41348.49
554.08	40932.75
554.28	40865.17
554.48	40963.47
554.69	41125.26
554.89	41037.20
555.09	41162.12
555.29	40650.13
555.49	41235.85
555.69	41559.43
555.89	41176.46
556.10	41602.44
556.30	40785.30
556.50	41581.96
556.70	41497.99
556.90	41571.72
557.10	41575.81
557.30	41555.33
557.50	41104.78
557.70	41686.40
557.91	41770.37
558.11	41903.49
558.31	41878.91
558.51	41786.75
558.71	41975.17
558.91	41891.20
559.11	42112.38
559.31	42151.29
559.51	41960.83
559.72	42122.62
559.92	42579.32
560.12	42048.89
560.32	42114.43
560.52	42202.49
560.72	42159.48
560.92	42110.33
561.12	42349.95
561.32	42458.49
561.52	42478.97
561.72	42823.03
561.93	42405.24
562.13	42933.62
562.33	42169.72
562.53	43146.61
562.73	42784.12
562.93	42587.51
563.13	42438.01
563.33	42603.89
563.53	43175.28
563.73	42878.32
563.93	43074.93
564.13	43455.85
564.33	43093.36
564.53	42888.56
564.74	43244.91
564.94	42808.69
565.14	43066.73
565.34	43181.42
565.54	42968.43
565.74	43416.94
565.94	43373.93
566.14	43402.60
566.34	43328.87
566.54	43771.24
566.74	43392.36
566.94	43687.27
567.14	43580.78
567.34	43427.18
567.54	43957.60
567.74	43382.12
567.94	43429.23
568.14	44066.14
568.34	44277.08
568.54	43873.63
568.74	43689.32
568.94	43740.52
569.14	44303.71
569.34	43990.37
569.54	43779.43
569.75	43914.59
569.95	43969.89
570.15	44365.15
570.35	44422.49
570.55	44100.96
570.75	44281.18
570.95	44420.44
571.15	44514.65
571.35	44287.32
571.55	44463.45
571.75	44637.53
571.95	44531.03
572.15	44803.41
572.35	44522.84
572.55	44877.14
572.75	44234.08
572.95	44526.94
573.15	44989.78
573.35	44623.19
573.55	44746.07
573.75	44864.85
573.95	45460.81
574.15	45243.73
574.35	45094.22
574.55	45088.08
574.75	44877.14
574.95	45155.66
575.15	44881.24
575.34	45323.60
575.54	45198.67
575.74	45499.72
575.94	45444.43
576.14	45315.40
576.34	46146.88
576.54	45524.30
576.74	45868.36
576.94	45880.64
577.14	46028.10
577.34	46019.91
577.54	45696.33
577.74	45739.33
577.94	46019.91
578.14	46255.42
578.34	46529.85
578.54	45555.02
578.74	46325.05
578.94	46501.18
579.14	45882.69
579.34	46138.69
579.54	46234.94
579.74	46644.54
579.94	46402.88
580.13	46552.38
580.33	46777.65
580.53	46753.08
580.73	46945.59
580.93	46787.89
581.13	46650.68
581.33	46806.33
581.53	46925.11
581.73	46941.49
581.93	47283.50
582.13	47297.84
582.33	46984.50
582.53	47326.51
582.73	47156.53
582.92	47138.10
583.12	47762.73
583.32	47410.48
583.52	47559.98
583.72	48049.44
583.92	47670.57
584.12	47607.08
584.32	47705.38
584.52	47551.79
584.72	48160.03
584.92	47797.54
585.11	48514.33
585.31	47942.95
585.51	47750.44
585.71	47908.13
585.91	48129.31
586.11	48110.88
586.31	48065.83
586.51	47828.26
586.71	48149.79
586.91	48518.43
587.10	48321.82
587.30	48307.49
587.50	48074.02
587.70	48504.09
587.90	48475.42
588.10	48631.07
588.30	48510.24
588.50	48381.21
