SpectraSuite Data File
++++++++++++++++++++++++++++++++++++
Date: Fri Jun 02 14:49:28 CEST 2017
User: INFO_000
Dark Spectrum Present: No
Reference Spectrum Present: No
Number of Sampled Component Spectra: 1
Spectrometers: USB4H00879
Integration Time (usec): 80000 (USB4H00879)
Spectra Averaged: 1 (USB4H00879)
Boxcar Smoothing: 0 (USB4H00879)
Correct for Electrical Dark: No (USB4H00879)
Strobe/Lamp Enabled: No (USB4H00879)
Correct for Detector Non-linearity: No (USB4H00879)
Correct for Stray Light: No (USB4H00879)
Number of Pixels in Processed Spectrum: 3648
>>>>>Begin Processed Spectral Data<<<<<
345.13	1253.36
345.34	1253.36
345.56	1253.36
345.78	1302.51
345.99	1284.08
346.21	1675.24
346.42	1730.53
346.64	1677.29
346.86	1785.83
347.07	1626.09
347.29	1677.29
347.50	1636.33
347.72	1740.77
347.94	1732.58
348.15	1581.03
348.37	1617.90
348.59	1738.73
348.80	1695.72
349.02	1787.88
349.23	1863.65
349.45	1837.03
349.67	1826.79
349.88	1800.16
350.10	1894.37
350.31	1859.56
350.53	1820.64
350.75	1998.82
350.96	1716.20
351.18	1888.23
351.39	1804.26
351.61	1732.58
351.82	1861.60
352.04	1990.63
352.26	1794.02
352.47	1884.13
352.69	1937.38
352.90	1759.21
353.12	1869.80
353.34	1859.56
353.55	1931.23
353.77	1820.64
353.98	1869.80
354.20	1873.89
354.41	1943.52
354.63	1898.47
354.85	2043.87
355.06	1925.09
355.28	1763.30
355.49	1902.56
355.71	1945.57
355.92	1925.09
356.14	1957.86
356.35	1877.99
356.57	1929.19
356.79	1953.76
357.00	1759.21
357.22	1986.53
357.43	1812.45
357.65	1982.43
357.86	1947.62
358.08	1982.43
358.29	1920.99
358.51	1982.43
358.72	1994.72
358.94	1916.90
359.16	1949.67
359.37	1980.39
359.59	1951.71
359.80	1980.39
360.02	2021.35
360.23	1990.63
360.45	1959.91
360.66	1920.99
360.88	1912.80
361.09	1914.85
361.31	2000.87
361.52	2004.96
361.74	2035.68
361.95	2070.50
362.17	1904.61
362.38	2045.92
362.60	2035.68
362.81	1896.42
363.03	1943.52
363.24	1986.53
363.46	2002.91
363.67	2025.44
363.89	2007.01
364.10	2047.97
364.32	1959.91
364.53	1990.63
364.75	1931.23
364.96	2015.20
365.18	1982.43
365.39	2023.39
365.61	1982.43
365.82	2068.45
366.04	1968.10
366.25	1992.67
366.47	2009.06
366.68	2013.15
366.90	1953.76
367.11	2066.40
367.33	2074.59
367.54	2033.63
367.76	2011.11
367.97	2084.83
368.19	2019.30
368.40	2056.16
368.62	2000.87
368.83	1976.29
369.05	2041.82
369.26	1966.05
369.48	2007.01
369.69	1996.77
369.91	2056.16
370.12	2054.11
370.33	2084.83
370.55	2002.91
370.76	2035.68
370.98	2045.92
371.19	2058.21
371.41	2002.91
371.62	2099.17
371.84	2111.46
372.05	2131.94
372.27	1996.77
372.48	2058.21
372.69	2068.45
372.91	2082.78
373.12	2148.32
373.34	2082.78
373.55	2150.37
373.77	2166.75
373.98	2133.98
374.20	2148.32
374.41	2199.52
374.62	2107.36
374.84	2105.31
375.05	2156.51
375.27	2101.22
375.48	2174.94
375.70	2152.42
375.91	2084.83
376.12	2217.95
376.34	2183.13
376.55	2117.60
376.77	2230.24
376.98	2138.08
377.19	2066.40
377.41	2052.06
377.62	2211.81
377.84	2193.37
378.05	2342.88
378.27	2283.49
378.48	2383.84
378.69	2322.40
378.91	2234.33
379.12	2232.29
379.34	2228.19
379.55	2234.33
379.76	2271.20
379.98	2107.36
380.19	2256.86
380.41	2213.85
380.62	2275.29
380.83	2199.52
381.05	2195.42
381.26	2408.41
381.47	2254.81
381.69	2306.01
381.90	2402.27
382.12	2291.68
382.33	2269.15
382.54	2260.96
382.76	2224.09
382.97	2320.35
383.19	2240.48
383.40	2365.40
383.61	2248.67
383.83	2195.42
384.04	2293.72
384.25	2289.63
384.47	2404.32
384.68	2416.60
384.89	2260.96
385.11	2285.53
385.32	2336.73
385.54	2420.70
385.75	2359.26
385.96	2402.27
386.18	2367.45
386.39	2406.36
386.60	2385.88
386.82	2447.32
387.03	2451.42
387.24	2441.18
387.46	2516.95
387.67	2471.90
387.88	2437.08
388.10	2475.99
388.31	2471.90
388.52	2605.02
388.74	2592.73
388.95	2441.18
389.16	2494.43
389.38	2537.43
389.59	2641.88
389.80	2654.17
390.02	2443.23
390.23	2537.43
390.44	2514.91
390.66	2551.77
390.87	2504.67
391.08	2559.96
391.30	2723.80
391.51	2498.52
391.72	2664.41
391.94	2652.12
392.15	2652.12
392.36	2574.30
392.58	2580.44
392.79	2641.88
393.00	2693.08
393.22	2682.84
393.43	2713.56
393.64	2777.05
393.85	2828.24
394.07	2635.74
394.28	2691.03
394.49	2748.37
394.71	2740.18
394.92	2926.55
395.13	2650.07
395.35	2656.22
395.56	2727.89
395.77	2797.53
395.98	2748.37
396.20	2844.63
396.41	2744.28
396.62	2844.63
396.84	2844.63
397.05	2838.48
397.26	2858.96
397.47	3088.34
397.69	2871.25
397.90	3043.28
398.11	2863.06
398.32	2858.96
398.54	2854.87
398.75	2908.12
398.96	2877.40
399.18	3051.47
399.39	2928.60
399.60	3059.67
399.81	3014.61
400.03	2934.74
400.24	3145.68
400.45	2953.17
400.66	3020.75
400.88	2928.60
401.09	3336.14
401.30	3008.47
401.51	3160.02
401.73	3008.47
401.94	3215.31
402.15	2985.94
402.36	3145.68
402.58	3149.78
402.79	3127.25
403.00	3139.54
403.21	3127.25
403.43	3164.11
403.64	3196.88
403.85	3074.00
404.06	3211.22
404.27	2983.89
404.49	3270.61
404.70	3182.54
404.91	3239.89
405.12	3248.08
405.34	3248.08
405.55	3352.52
405.76	3102.67
405.97	3157.97
406.19	3305.42
406.40	3325.90
406.61	3225.55
406.82	3270.61
407.03	3266.51
407.25	3162.06
407.46	3456.97
407.67	3336.14
407.88	3379.15
408.09	3303.37
408.31	3370.96
408.52	3338.19
408.73	3416.01
408.94	3340.24
409.15	3391.44
409.37	3534.79
409.58	3493.83
409.79	3469.26
410.00	3510.22
410.21	3354.57
410.43	3434.44
410.64	3407.82
410.85	3475.40
411.06	3594.19
411.27	3678.15
411.48	3483.59
411.70	3475.40
411.91	3524.55
412.12	3614.66
412.33	3551.18
412.54	3608.52
412.76	3629.00
412.97	3680.20
413.18	3524.55
413.39	3731.40
413.60	3592.14
413.81	3698.63
414.03	3590.09
414.24	3649.48
414.45	3831.75
414.66	3563.47
414.87	3583.95
415.08	3729.35
415.30	3612.62
415.51	3721.16
415.72	3809.22
415.93	3704.78
416.14	3741.64
416.35	3665.86
416.56	3737.54
416.78	3844.04
416.99	3815.37
417.20	3798.98
417.41	3999.68
417.62	3823.56
417.83	3956.68
418.04	3870.66
418.26	3919.81
418.47	3827.65
418.68	4009.92
418.89	3930.05
419.10	4050.88
419.31	4063.17
419.52	4083.65
419.73	3971.01
419.95	4138.94
420.16	3827.65
420.37	4097.99
420.58	4097.99
420.79	3971.01
421.00	4034.50
421.21	4206.53
421.42	4130.75
421.63	4251.58
421.85	4093.89
422.06	4192.19
422.27	4106.18
422.48	4218.82
422.69	4177.86
422.90	4298.69
423.11	4233.15
423.32	4200.38
423.53	4501.44
423.75	4358.08
423.96	4419.52
424.17	4313.02
424.38	4577.21
424.59	4392.89
424.80	4534.20
425.01	4431.80
425.22	4329.41
425.43	4448.19
425.64	4589.50
425.85	4569.02
426.06	4626.36
426.28	4501.44
426.49	4509.63
426.70	4417.47
426.91	4511.68
427.12	4634.55
427.33	4630.46
427.54	4599.74
427.75	4605.88
427.96	4876.21
428.17	4648.89
428.38	4880.31
428.59	4765.62
428.80	4708.28
429.01	4724.66
429.23	4857.78
429.44	5074.87
429.65	4863.93
429.86	4960.18
430.07	4675.51
430.28	4771.77
430.49	4804.53
430.70	4964.28
430.91	5025.72
431.12	4855.73
431.33	5119.92
431.54	5121.97
431.75	5019.57
431.96	5044.15
432.17	5185.46
432.38	5050.29
432.59	5259.18
432.80	5218.22
433.01	5148.59
433.22	5246.90
433.43	5294.00
433.64	5216.18
433.85	5224.37
434.06	5263.28
434.27	5365.68
434.49	5357.49
434.70	5343.15
434.91	5353.39
435.12	5443.50
435.33	5404.59
435.54	5396.40
435.75	5269.42
435.96	5418.93
436.17	5369.77
436.38	5646.25
436.59	5420.97
436.80	5482.41
437.01	5787.56
437.22	5793.70
437.43	5580.71
437.64	5445.55
437.85	5654.44
438.06	5715.88
438.27	5762.98
438.48	5640.11
438.69	5777.32
438.90	5738.41
439.11	5570.48
439.32	5814.18
439.53	5709.74
439.74	5928.87
439.95	5648.30
440.16	5754.79
440.37	5859.24
440.57	5752.74
440.78	5805.99
440.99	5867.43
441.20	5922.73
441.41	5892.01
441.62	5853.09
441.83	5887.91
442.04	6039.46
442.25	6000.55
442.46	5949.35
442.67	6111.14
442.88	6428.57
443.09	5992.36
443.30	6074.28
443.51	6096.80
443.72	6240.16
443.93	6008.74
444.14	6412.19
444.35	6160.29
444.56	6184.87
444.77	6229.92
444.98	6285.22
445.19	6311.84
445.40	6324.13
445.61	6356.90
445.81	6424.48
446.02	6494.11
446.23	6422.43
446.44	6193.06
446.65	6479.77
446.86	6555.55
447.07	6453.15
447.28	6565.79
447.49	6533.02
447.70	6555.55
447.91	6696.86
448.12	6672.28
448.33	6735.77
448.54	6598.56
448.74	6602.65
448.95	6758.30
449.16	6686.62
449.37	6911.89
449.58	6877.08
449.79	6868.89
450.00	6786.97
450.21	6823.83
450.42	6872.98
450.63	7036.82
450.84	6909.85
451.05	6946.71
451.25	6959.00
451.46	7032.72
451.67	7155.60
451.88	7317.39
452.09	6997.91
452.30	7034.77
452.51	7032.72
452.72	7090.07
452.93	7577.48
453.13	7034.77
453.34	7153.55
453.55	7337.87
453.76	7108.50
453.97	7729.03
454.18	7384.98
454.39	7491.47
454.60	7288.72
454.81	7499.66
455.01	7552.91
455.22	7419.79
455.43	7565.20
455.64	7692.17
455.85	7655.31
456.06	7942.02
456.27	7696.27
456.48	7557.00
456.68	7935.88
456.89	7808.90
457.10	7841.67
457.31	7868.30
457.52	7901.06
457.73	8001.41
457.94	8185.73
458.14	8003.46
458.35	8269.70
458.56	8093.57
458.77	8044.42
458.98	8253.31
459.19	8343.42
459.39	8322.94
459.60	8322.94
459.81	8353.66
460.02	8406.91
460.23	8337.28
460.44	8570.75
460.65	8515.45
460.85	8589.18
461.06	8808.31
461.27	8540.03
461.48	8902.52
461.69	8855.42
461.89	8675.20
462.10	8746.87
462.31	8869.75
462.52	8769.40
462.73	8945.53
462.94	9109.36
463.14	8839.03
463.35	9076.60
463.56	9514.86
463.77	9299.83
463.98	9183.09
464.18	9297.78
464.39	9371.50
464.60	9578.35
464.81	9367.41
465.02	9494.38
465.23	9658.22
465.43	9531.25
465.64	9887.59
465.85	9719.66
466.06	9682.80
466.27	9772.91
466.47	9690.99
466.68	10006.38
466.89	9805.67
467.10	10133.35
467.30	9903.98
467.51	10266.47
467.72	10524.51
467.93	9965.42
468.14	10172.26
468.34	10274.66
468.55	10372.96
468.76	10446.69
468.97	10180.45
469.17	10807.13
469.38	10712.92
469.59	10848.09
469.80	10651.49
470.01	10760.03
470.21	10631.01
470.42	10809.18
470.63	11194.20
470.84	11095.89
471.04	11192.15
471.25	11056.98
471.46	11081.56
471.67	11331.41
471.87	11360.08
472.08	11364.18
472.29	11558.74
472.50	11073.37
472.70	11442.00
472.91	11452.24
473.12	11671.37
473.33	11763.53
473.53	12113.74
473.74	11839.31
473.95	11997.00
474.16	12095.30
474.36	12128.07
474.57	12283.72
474.78	12480.32
474.99	12191.56
475.19	12398.40
475.40	12644.16
475.61	12650.30
475.81	12779.32
476.02	12943.16
476.23	12857.15
476.44	13016.89
476.64	13113.14
476.85	13510.45
477.06	13172.54
477.27	13381.43
477.47	13637.42
477.68	13666.10
477.89	13946.67
478.09	13610.80
478.30	13793.07
478.51	14085.93
478.71	14079.79
478.92	14163.75
479.13	14092.07
479.34	14262.05
479.54	14473.00
479.75	14282.53
479.96	14552.87
480.16	14417.70
480.37	14765.85
480.58	14812.96
480.78	14982.94
480.99	14874.40
481.20	15245.08
481.41	15197.98
481.61	15404.82
481.82	15193.88
482.03	15230.74
482.23	15433.49
482.44	15591.19
482.65	15957.77
482.85	15767.31
483.06	15787.79
483.27	15982.35
483.47	16033.55
483.68	16043.79
483.89	16092.94
484.09	16129.80
484.30	16412.42
484.51	16373.51
484.71	16445.19
484.92	16512.77
485.13	17008.38
485.33	16877.31
485.54	16729.86
485.75	17075.96
485.95	17143.55
486.16	17233.66
486.37	17434.36
486.57	17084.16
486.78	17385.21
486.98	17315.58
487.19	17516.28
487.40	17665.78
487.60	17682.16
487.81	17864.43
488.02	17712.88
488.22	18069.23
488.43	17901.29
488.64	18269.93
488.84	18394.86
489.05	18683.62
489.25	18310.89
489.46	18757.35
489.67	18630.37
489.87	18743.01
490.08	19150.56
490.29	18978.53
490.49	19218.14
490.70	19259.10
490.90	19308.25
491.11	19504.85
491.32	19414.74
491.52	19439.32
491.73	19605.20
491.94	19715.80
492.14	19410.65
492.35	20078.29
492.55	19992.27
492.76	19926.74
492.97	20049.61
493.17	20172.49
493.38	20451.02
493.58	20393.67
493.79	20614.85
494.00	20537.03
494.20	20512.46
494.41	20717.25
494.61	20815.55
494.82	20942.53
495.02	21116.61
495.23	21171.90
495.44	21153.47
495.64	21163.71
495.85	21341.88
496.05	21370.55
496.26	21552.82
496.47	21722.80
496.67	21442.23
496.88	22062.77
497.08	21534.39
497.29	21952.18
497.49	21894.83
497.70	21931.70
497.91	22333.10
498.11	22253.23
498.32	22525.61
498.52	22589.10
498.73	22445.74
498.93	22607.53
499.14	22865.57
499.34	22714.02
499.55	22820.52
499.76	22781.60
499.96	22763.17
500.17	22988.45
500.37	23180.96
500.58	22941.35
500.78	23045.79
500.99	23305.88
501.19	23518.87
501.40	23342.75
501.60	23398.04
501.81	23402.14
502.02	23875.22
502.22	23441.05
502.43	23877.27
502.63	23801.49
502.84	24010.39
503.04	23799.44
503.25	23895.70
503.45	24239.76
503.66	24215.18
503.86	24016.53
504.07	24540.81
504.27	24495.75
504.48	24843.91
504.68	24485.51
504.89	24653.45
505.09	24561.29
505.30	25095.81
505.50	24759.94
505.71	24788.61
505.91	25257.60
506.12	24923.78
506.32	25120.38
506.53	25042.56
506.73	25140.86
506.94	25187.97
507.14	24979.07
507.35	25276.03
507.55	25472.64
507.76	25398.91
507.96	25579.13
508.17	25460.35
508.37	25329.28
508.58	25659.00
508.78	25491.07
508.99	26005.11
509.19	25677.43
509.40	25884.28
509.60	25710.20
509.81	25994.87
510.01	26173.04
510.22	25814.65
510.42	26044.02
510.63	26109.55
510.83	26441.32
511.04	26529.39
511.24	26443.37
511.44	26373.74
511.65	26611.31
511.85	26609.26
512.06	26461.80
512.26	26777.19
512.47	26758.76
512.67	26717.80
512.88	27158.11
513.08	26461.80
513.29	27045.48
513.49	26750.57
513.69	26660.46
513.90	27065.96
514.10	27319.90
514.31	27375.20
514.51	27264.61
514.72	27108.96
514.92	27209.31
515.13	27475.55
515.33	27522.65
515.53	27364.96
515.74	27631.19
515.94	27676.25
516.15	27772.50
516.35	27250.27
516.56	27616.86
516.76	27881.05
516.96	28022.36
517.17	27930.20
517.37	28065.36
517.58	27883.09
517.78	28046.93
517.99	28036.69
518.19	28075.60
518.39	28489.29
518.60	28591.69
518.80	28499.53
519.01	28765.77
519.21	28221.01
519.41	28390.99
519.62	28354.13
519.82	28853.83
520.03	28616.27
520.23	28829.26
520.43	28524.11
520.64	29019.72
520.84	29271.62
521.05	29025.86
521.25	29236.80
521.45	29206.08
521.66	29255.23
521.86	29457.98
522.07	29165.12
522.27	29472.32
522.47	29349.44
522.68	29808.19
522.88	29498.94
523.08	29535.81
523.29	30039.61
523.49	29865.53
523.70	30107.19
523.90	30176.82
524.10	30154.29
524.31	30361.14
524.51	30047.80
524.71	30572.08
524.92	30223.92
525.12	30512.69
525.33	30662.19
525.53	30889.51
525.73	31168.04
525.94	30770.73
526.14	31039.01
526.34	30905.90
526.55	31073.83
526.75	31184.42
526.95	31419.94
527.16	31323.68
527.36	31215.14
527.56	31501.86
527.77	31643.17
527.97	31551.01
528.17	31395.36
528.38	32065.05
528.58	31503.90
528.78	31757.85
528.99	31620.64
529.19	32206.36
529.39	31966.74
529.60	32288.28
529.80	32196.12
530.00	32437.78
530.21	32478.74
530.41	32777.74
530.61	32378.39
530.82	32675.34
531.02	32794.12
531.22	32917.00
531.43	32759.31
531.63	32970.25
531.83	33431.04
532.04	33275.40
532.24	33332.74
532.44	33490.43
532.64	33488.38
532.85	33496.58
533.05	33811.96
533.25	33592.83
533.46	34031.10
533.66	34012.66
533.86	33969.66
534.07	34127.35
534.27	34549.23
534.47	34313.72
534.67	34612.72
534.88	34299.38
535.08	34553.33
535.28	34956.78
535.49	34794.99
535.69	35266.02
535.89	34786.80
536.09	35134.95
536.30	34803.18
536.50	35376.61
536.70	35386.85
536.91	35509.73
537.11	35773.92
537.31	35522.02
537.51	35431.91
537.72	36195.80
537.92	36122.07
538.12	36269.53
538.32	36234.71
538.53	36183.51
538.73	35792.35
538.93	36197.85
539.13	36034.01
539.34	35821.02
539.54	36152.79
539.74	36824.53
539.94	36654.54
540.15	36543.95
540.35	36679.12
540.55	36787.66
540.75	36842.96
540.96	36650.45
541.16	37045.71
541.36	37008.84
541.56	36945.36
541.77	37494.21
541.97	36855.25
542.17	37406.15
542.37	37660.10
542.58	37623.23
542.78	37615.04
542.98	37615.04
543.18	37656.00
543.38	38133.18
543.59	38167.99
543.79	37975.48
543.99	37950.91
544.19	38243.77
544.40	38323.64
544.60	38196.67
544.80	38127.03
545.00	38669.75
545.20	38608.31
545.41	38462.90
545.61	38901.17
545.81	38911.41
546.01	38845.87
546.21	38759.86
546.42	38710.71
546.62	38786.48
546.82	38669.75
547.02	39263.66
547.22	39386.54
547.43	39232.94
547.63	39411.11
547.83	39466.41
548.03	39523.75
548.23	39568.80
548.44	39460.26
548.64	39400.87
548.84	39665.06
549.04	39474.60
549.24	39865.76
549.45	39994.78
549.65	39863.71
549.85	39785.89
550.05	40664.47
550.25	39951.77
550.45	40484.25
550.66	40132.00
550.86	40017.31
551.06	40400.28
551.26	39904.67
551.46	40818.07
551.66	40523.16
551.87	40283.55
552.07	40492.44
552.27	40742.29
552.47	40826.26
552.67	40621.46
552.87	40922.51
553.07	40705.43
553.28	41031.05
553.48	41528.71
553.68	40844.69
553.88	41473.42
554.08	41377.16
554.28	41383.30
554.48	41155.98
554.69	41366.92
554.89	41516.42
555.09	41297.29
555.29	41147.79
555.49	41534.85
555.69	41495.94
555.89	41616.77
556.10	42268.03
556.30	41614.72
556.50	41710.98
556.70	41635.20
556.90	41782.66
557.10	42112.38
557.30	41541.00
557.50	42274.17
557.70	42161.53
557.91	42200.44
558.11	42239.36
558.31	42104.19
558.51	42272.12
558.71	42175.87
558.91	42270.08
559.11	42120.57
559.31	42450.30
559.51	42091.90
559.72	42483.06
559.92	42610.04
560.12	42292.60
560.32	42761.59
560.52	42694.00
560.72	42681.72
560.92	42960.24
561.12	42935.66
561.32	43117.93
561.52	42614.13
561.72	43128.17
561.93	43003.25
562.13	42882.42
562.33	42677.62
562.53	43629.93
562.73	43294.06
562.93	43175.28
563.13	43500.90
563.33	43122.03
563.53	43693.41
563.73	42890.61
563.93	43242.86
564.13	43668.84
564.33	43277.68
564.53	43236.72
564.74	43550.06
564.94	43500.90
565.14	43851.11
565.34	43363.69
565.54	43654.50
565.74	43599.21
565.94	43918.69
566.14	43605.35
566.34	43916.64
566.54	44143.97
566.74	43455.85
566.94	44082.53
567.14	44160.35
567.34	43853.15
567.54	43738.47
567.74	43963.75
567.94	43656.55
568.14	44244.32
568.34	44012.90
568.54	43877.73
568.74	44240.22
568.94	44170.59
569.14	44500.31
569.34	44129.63
569.54	44449.11
569.75	44207.45
569.95	44608.86
570.15	44979.54
570.35	44612.95
570.55	44666.20
570.75	44799.32
570.95	44911.95
571.15	44666.20
571.35	44582.23
571.55	45153.62
571.75	44645.72
571.95	44752.21
572.15	44647.77
572.35	45088.08
572.55	45145.42
572.75	45122.90
572.95	45145.42
573.15	45331.79
573.35	45120.85
573.55	44868.95
573.75	45385.04
573.95	45055.31
574.15	44893.52
574.35	45307.21
574.55	44735.83
574.75	45393.23
574.95	45399.37
575.15	45034.83
575.34	45638.98
575.54	45714.76
575.74	45571.40
575.94	45786.44
576.14	45716.81
576.34	45806.92
576.54	46284.09
576.74	45802.82
576.94	45544.78
577.14	46161.22
577.34	46435.64
577.54	45804.87
577.74	46122.30
577.94	45686.09
578.14	45643.08
578.34	46470.46
578.54	46255.42
578.74	46198.08
578.94	46462.27
579.14	46073.15
579.34	45940.04
579.54	46390.59
579.74	46572.86
579.94	46452.03
580.13	46482.75
580.33	46599.48
580.53	46705.98
580.73	46775.61
580.93	46990.64
581.13	46945.59
581.33	47252.78
581.53	47174.96
581.73	47093.04
581.93	47299.89
582.13	47095.09
582.33	47086.90
582.53	46769.46
582.73	47375.66
582.92	47469.87
583.12	47453.48
583.32	47179.06
583.52	47275.31
583.72	47533.35
583.92	47375.66
584.12	47613.23
584.32	47949.09
584.52	47768.87
584.72	47861.03
584.92	47242.54
585.11	48325.92
585.31	47584.55
585.51	48051.49
585.71	47672.62
585.91	48393.50
586.11	47822.12
586.31	47629.61
586.51	47885.61
586.71	47985.96
586.91	48223.52
587.10	48364.83
587.30	48516.38
587.50	48383.26
587.70	48839.96
587.90	48618.78
588.10	48678.17
588.30	48706.84
588.50	48592.15
