SpectraSuite Data File
++++++++++++++++++++++++++++++++++++
Date: Fri Jun 02 14:49:25 CEST 2017
User: INFO_000
Dark Spectrum Present: No
Reference Spectrum Present: No
Number of Sampled Component Spectra: 1
Spectrometers: USB4H00879
Integration Time (usec): 80000 (USB4H00879)
Spectra Averaged: 1 (USB4H00879)
Boxcar Smoothing: 0 (USB4H00879)
Correct for Electrical Dark: No (USB4H00879)
Strobe/Lamp Enabled: No (USB4H00879)
Correct for Detector Non-linearity: No (USB4H00879)
Correct for Stray Light: No (USB4H00879)
Number of Pixels in Processed Spectrum: 3648
>>>>>Begin Processed Spectral Data<<<<<
345.13	1308.65
345.34	1308.65
345.56	1308.65
345.78	1255.40
345.99	1275.88
346.21	1708.01
346.42	1755.11
346.64	1585.13
346.86	1810.40
347.07	1660.90
347.29	1732.58
347.50	1640.42
347.72	1603.56
347.94	1708.01
348.15	1550.31
348.37	1595.37
348.59	1730.53
348.80	1720.29
349.02	1710.05
349.23	1812.45
349.45	1853.41
349.67	1822.69
349.88	1843.17
350.10	2004.96
350.31	1822.69
350.53	1847.27
350.75	1933.28
350.96	1804.26
351.18	1828.84
351.39	1863.65
351.61	1794.02
351.82	1822.69
352.04	1945.57
352.26	1806.31
352.47	1908.71
352.69	1918.95
352.90	1771.49
353.12	1794.02
353.34	1867.75
353.55	1886.18
353.77	1820.64
353.98	1822.69
354.20	1861.60
354.41	1978.34
354.63	1974.24
354.85	2009.06
355.06	1994.72
355.28	1826.79
355.49	1966.05
355.71	1976.29
355.92	1966.05
356.14	1851.36
356.35	1855.46
356.57	1808.36
356.79	1935.33
357.00	1861.60
357.22	2019.30
357.43	1871.84
357.65	1996.77
357.86	1882.08
358.08	1929.19
358.29	1937.38
358.51	2019.30
358.72	2002.91
358.94	1884.13
359.16	1949.67
359.37	1966.05
359.59	1914.85
359.80	1986.53
360.02	1912.80
360.23	1906.66
360.45	2007.01
360.66	1918.95
360.88	1875.94
361.09	1884.13
361.31	1947.62
361.52	1927.14
361.74	2047.97
361.95	2013.15
362.17	1966.05
362.38	2074.59
362.60	2041.82
362.81	1943.52
363.03	1984.48
363.24	1974.24
363.46	2050.02
363.67	2054.11
363.89	1947.62
364.10	2017.25
364.32	2043.87
364.53	1988.58
364.75	1990.63
364.96	2025.44
365.18	2017.25
365.39	1951.71
365.61	1964.00
365.82	2148.32
366.04	2025.44
366.25	1982.43
366.47	2099.17
366.68	2002.91
366.90	2023.39
367.11	2088.93
367.33	2084.83
367.54	2125.79
367.76	1990.63
367.97	2156.51
368.19	2029.54
368.40	2062.30
368.62	1964.00
368.83	1918.95
369.05	2068.45
369.26	1988.58
369.48	1990.63
369.69	1935.33
369.91	2123.74
370.12	2035.68
370.33	2129.89
370.55	1957.86
370.76	2027.49
370.98	2105.31
371.19	2074.59
371.41	2039.78
371.62	2066.40
371.84	1953.76
372.05	2131.94
372.27	2078.69
372.48	2045.92
372.69	2103.26
372.91	2113.50
373.12	2142.18
373.34	2064.35
373.55	2084.83
373.77	2164.70
373.98	2007.01
374.20	2215.90
374.41	2326.49
374.62	2078.69
374.84	2131.94
375.05	2119.65
375.27	2156.51
375.48	2166.75
375.70	2127.84
375.91	2138.08
376.12	2222.05
376.34	2168.80
376.55	2158.56
376.77	2179.04
376.98	2138.08
377.19	2166.75
377.41	2166.75
377.62	2273.25
377.84	2248.67
378.05	2320.35
378.27	2158.56
378.48	2336.73
378.69	2289.63
378.91	2375.64
379.12	2281.44
379.34	2242.53
379.55	2346.97
379.76	2349.02
379.98	2195.42
380.19	2279.39
380.41	2258.91
380.62	2277.34
380.83	2217.95
381.05	2232.29
381.26	2410.46
381.47	2252.77
381.69	2258.91
381.90	2340.83
382.12	2250.72
382.33	2250.72
382.54	2256.86
382.76	2273.25
382.97	2308.06
383.19	2211.81
383.40	2320.35
383.61	2293.72
383.83	2248.67
384.04	2334.68
384.25	2322.40
384.47	2392.03
384.68	2359.26
384.89	2283.49
385.11	2318.30
385.32	2346.97
385.54	2375.64
385.75	2383.84
385.96	2351.07
386.18	2322.40
386.39	2316.25
386.60	2312.16
386.82	2416.60
387.03	2451.42
387.24	2371.55
387.46	2469.85
387.67	2500.57
387.88	2525.15
388.10	2467.80
388.31	2443.23
388.52	2570.20
388.74	2420.70
388.95	2566.10
389.16	2496.47
389.38	2480.09
389.59	2625.50
389.80	2576.34
390.02	2514.91
390.23	2519.00
390.44	2486.23
390.66	2668.50
390.87	2465.75
391.08	2629.59
391.30	2557.91
391.51	2693.08
391.72	2582.49
391.94	2607.06
392.15	2494.43
392.36	2559.96
392.58	2562.01
392.79	2596.82
393.00	2674.65
393.22	2787.29
393.43	2822.10
393.64	2770.90
393.85	2654.17
394.07	2662.36
394.28	2680.79
394.49	2731.99
394.71	2770.90
394.92	2824.15
395.13	2697.17
395.35	2760.66
395.56	2742.23
395.77	2787.29
395.98	2731.99
396.20	2867.16
396.41	2897.88
396.62	2965.46
396.84	2799.57
397.05	2822.10
397.26	2967.51
397.47	2867.16
397.69	2742.23
397.90	3006.42
398.11	2949.08
398.32	2869.20
398.54	2877.40
398.75	2971.60
398.96	2959.31
399.18	3004.37
399.39	3004.37
399.60	2977.75
399.81	2940.88
400.03	2957.27
400.24	3327.95
400.45	2858.96
400.66	3135.44
400.88	3018.71
401.09	3172.30
401.30	3002.32
401.51	3065.81
401.73	3160.02
401.94	3088.34
402.15	3162.06
402.36	3041.23
402.58	3117.01
402.79	3182.54
403.00	3102.67
403.21	3172.30
403.43	3213.26
403.64	3125.20
403.85	3141.58
404.06	3131.34
404.27	3153.87
404.49	3162.06
404.70	3121.10
404.91	3268.56
405.12	3235.79
405.34	3198.93
405.55	3362.76
405.76	3086.29
405.97	3125.20
406.19	3362.76
406.40	3188.69
406.61	3235.79
406.82	3391.44
407.03	3278.80
407.25	3344.33
407.46	3319.76
407.67	3370.96
407.88	3416.01
408.09	3297.23
408.31	3280.85
408.52	3381.20
408.73	3256.27
408.94	3266.51
409.15	3459.02
409.37	3416.01
409.58	3467.21
409.79	3491.79
410.00	3438.54
410.21	3452.88
410.43	3416.01
410.64	3379.15
410.85	3456.97
411.06	3475.40
411.27	3473.36
411.48	3592.14
411.70	3428.30
411.91	3669.96
412.12	3719.11
412.33	3639.24
412.54	3504.07
412.76	3588.04
412.97	3731.40
413.18	3530.70
413.39	3561.42
413.60	3665.86
413.81	3629.00
414.03	3540.94
414.24	3551.18
414.45	3770.31
414.66	3532.75
414.87	3633.10
415.08	3594.19
415.30	3721.16
415.51	3637.19
415.72	3712.97
415.93	3760.07
416.14	3764.17
416.35	3729.35
416.56	3731.40
416.78	3710.92
416.99	3741.64
417.20	3874.76
417.41	3780.55
417.62	3882.95
417.83	3919.81
418.04	3823.56
418.26	3872.71
418.47	3841.99
418.68	3981.25
418.89	3950.53
419.10	4052.93
419.31	4077.51
419.52	4005.83
419.73	3919.81
419.95	4091.84
420.16	3932.10
420.37	3989.44
420.58	4120.51
420.79	3917.76
421.00	4061.12
421.21	4165.57
421.42	4124.61
421.63	4206.53
421.85	3999.68
422.06	4288.45
422.27	4138.94
422.48	4091.84
422.69	4167.62
422.90	4296.64
423.11	4229.06
423.32	4231.10
423.53	4325.31
423.75	4280.25
423.96	4399.04
424.17	4288.45
424.38	4476.86
424.59	4429.76
424.80	4618.17
425.01	4480.96
425.22	4372.41
425.43	4448.19
425.64	4642.75
425.85	4630.46
426.06	4495.29
426.28	4550.59
426.49	4468.67
426.70	4538.30
426.91	4493.24
427.12	4753.34
427.33	4595.64
427.54	4663.22
427.75	4745.14
427.96	4800.44
428.17	4648.89
428.38	4902.84
428.59	4822.97
428.80	4825.01
429.01	4851.64
429.23	4825.01
429.44	4876.21
429.65	4884.41
429.86	4894.65
430.07	4847.54
430.28	4755.38
430.49	5001.14
430.70	5109.68
430.91	5105.59
431.12	5033.91
431.33	5164.98
431.54	5009.33
431.75	5021.62
431.96	5062.58
432.17	5113.78
432.38	5189.55
432.59	5283.76
432.80	5185.46
433.01	5250.99
433.22	5357.49
433.43	5285.81
433.64	5171.12
433.85	5216.18
434.06	5296.05
434.27	5103.54
434.49	5357.49
434.70	5423.02
434.91	5377.97
435.12	5425.07
435.33	5339.05
435.54	5443.50
435.75	5377.97
435.96	5298.10
436.17	5298.10
436.38	5449.64
436.59	5500.84
436.80	5470.12
437.01	5812.14
437.22	5707.69
437.43	5482.41
437.64	5476.27
437.85	5752.74
438.06	5711.78
438.27	5496.75
438.48	5617.58
438.69	5724.07
438.90	5717.93
439.11	5679.02
439.32	5756.84
439.53	5859.24
439.74	5816.23
439.95	5719.98
440.16	5670.83
440.37	5679.02
440.57	5615.53
440.78	5853.09
440.99	5789.61
441.20	5836.71
441.41	5726.12
441.62	5894.05
441.83	5855.14
442.04	5973.92
442.25	5838.76
442.46	5971.88
442.67	6102.95
442.88	6373.28
443.09	5912.49
443.30	6061.99
443.51	5922.73
443.72	6367.13
443.93	6049.70
444.14	6229.92
444.35	6010.79
444.56	6154.15
444.77	6119.33
444.98	6287.26
445.19	6131.62
445.40	6109.09
445.61	6268.83
445.81	6365.09
446.02	6471.58
446.23	6317.98
446.44	6086.56
446.65	6395.81
446.86	6367.13
447.07	6373.28
447.28	6555.55
447.49	6414.24
447.70	6510.49
447.91	6483.87
448.12	6434.72
448.33	6518.68
448.54	6629.27
448.74	6557.60
448.95	6727.58
449.16	6666.14
449.37	6862.74
449.58	6758.30
449.79	6758.30
450.00	6619.04
450.21	6850.46
450.42	6938.52
450.63	6778.78
450.84	6834.07
451.05	6883.22
451.25	6811.54
451.46	6981.53
451.67	7151.51
451.88	7049.11
452.09	6971.29
452.30	6924.18
452.51	7100.31
452.72	7151.51
452.93	7395.22
453.13	7067.54
453.34	7085.97
453.55	7325.58
453.76	7174.03
453.97	7602.06
454.18	7368.59
454.39	7405.46
454.60	7327.63
454.81	7632.78
455.01	7593.87
455.22	7286.67
455.43	7464.85
455.64	7720.84
455.85	7796.62
456.06	7888.78
456.27	7868.30
456.48	7792.52
456.68	7776.14
456.89	7788.43
457.10	7853.96
457.31	8105.86
457.52	7792.52
457.73	8167.30
457.94	8167.30
458.14	7856.01
458.35	8540.03
458.56	8271.75
458.77	8159.11
458.98	8159.11
459.19	8245.12
459.39	8222.59
459.60	8415.10
459.81	8284.03
460.02	8531.84
460.23	8361.86
460.44	8918.90
460.65	8726.39
460.85	8597.37
461.06	8689.53
461.27	8441.73
461.48	8712.06
461.69	9074.55
461.89	8910.71
462.10	8968.06
462.31	8714.11
462.52	8781.69
462.73	8941.43
462.94	9056.12
463.14	9129.84
463.35	8941.43
463.56	9363.31
463.77	9377.65
463.98	9195.38
464.18	9265.01
464.39	9543.53
464.60	9709.42
464.81	9441.14
465.02	9580.40
465.23	9891.69
465.43	9551.73
465.64	9983.85
465.85	9824.11
466.06	9764.72
466.27	10145.64
466.47	9903.98
466.68	9906.02
466.89	9897.83
467.10	10100.58
467.30	9875.31
467.51	10301.28
467.72	10436.45
467.93	10090.34
468.14	10385.25
468.34	10538.85
468.55	10512.22
468.76	10520.42
468.97	10389.35
469.17	10596.19
469.38	10510.18
469.59	10841.95
469.80	10700.64
470.01	10612.57
470.21	10696.54
470.42	11091.80
470.63	10946.39
470.84	11120.47
471.04	11188.05
471.25	11300.69
471.46	11151.19
471.67	11300.69
471.87	11351.89
472.08	11337.56
472.29	11587.41
472.50	11444.05
472.70	11419.47
472.91	11700.05
473.12	11693.90
473.33	11859.79
473.53	11886.41
473.74	11884.36
473.95	11923.27
474.16	12199.75
474.36	12146.50
474.57	12271.43
474.78	12185.41
474.99	12384.07
475.19	12568.38
475.40	12623.68
475.61	12681.02
475.81	12691.26
476.02	12924.73
476.23	12691.26
476.44	12984.12
476.64	12959.55
476.85	13326.13
477.06	12941.11
477.27	13266.74
477.47	13590.32
477.68	13401.91
477.89	13524.79
478.09	13438.77
478.30	13520.69
478.51	13676.34
478.71	13735.73
478.92	13958.96
479.13	14217.00
479.34	14348.07
479.54	14178.09
479.75	14262.05
479.96	14425.89
480.16	14407.46
480.37	14556.96
480.58	14741.28
480.78	15034.14
480.99	14937.88
481.20	15091.48
481.41	15036.19
481.61	15263.51
481.82	15128.35
482.03	15017.75
482.23	15169.30
482.44	15386.39
482.65	15654.67
482.85	15785.74
483.06	15808.27
483.27	15707.92
483.47	15847.18
483.68	16068.36
483.89	15998.73
484.09	15998.73
484.30	16320.26
484.51	16148.23
484.71	16344.84
484.92	16158.47
485.13	16488.20
485.33	16418.57
485.54	16686.85
485.75	17020.67
485.95	16910.08
486.16	17147.64
486.37	17143.55
486.57	17086.20
486.78	17569.52
486.98	17319.67
487.19	17497.84
487.40	17532.66
487.60	17471.22
487.81	17512.18
488.02	17547.00
488.22	17581.81
488.43	17891.06
488.64	18067.18
488.84	18233.07
489.05	18149.10
489.25	18425.57
489.46	18573.03
489.67	18560.74
489.87	18728.67
490.08	18681.57
490.29	18835.17
490.49	19230.43
490.70	19298.01
490.90	19146.46
491.11	19066.59
491.32	19666.64
491.52	19476.18
491.73	19349.21
491.94	19506.90
492.14	19306.20
492.35	19676.88
492.55	19746.51
492.76	20106.96
492.97	20055.76
493.17	20166.35
493.38	20070.09
493.58	20496.07
493.79	20334.28
494.00	20373.19
494.20	20680.39
494.41	20403.91
494.61	20737.73
494.82	20664.00
495.02	20790.98
495.23	21167.80
495.44	21159.61
495.64	21049.02
495.85	21061.31
496.05	21442.23
496.26	21206.72
496.47	21692.08
496.67	21415.61
496.88	21872.31
497.08	21604.02
497.29	21774.00
497.49	21823.16
497.70	22120.11
497.91	22050.48
498.11	22058.67
498.32	22404.78
498.52	22349.48
498.73	22746.79
498.93	22531.75
499.14	22564.52
499.34	22539.94
499.55	22838.95
499.76	22492.84
499.96	22816.42
500.17	22974.11
500.37	23203.49
500.58	23142.05
500.78	23471.77
500.99	23514.78
501.19	23633.56
501.40	23381.66
501.60	23178.91
501.81	23518.87
502.02	23709.33
502.22	23869.08
502.43	23803.54
502.63	24004.24
502.84	23961.23
503.04	23815.83
503.25	24202.89
503.45	24118.93
503.66	24430.22
503.86	24106.64
504.07	24362.64
504.27	24381.07
504.48	25065.09
504.68	24716.93
504.89	24985.22
505.09	24952.45
505.30	24747.65
505.50	24571.53
505.71	25151.10
505.91	24923.78
506.12	25040.51
506.32	25173.63
506.53	25091.71
506.73	25542.27
506.94	25364.09
507.14	25290.37
507.35	25620.09
507.55	25302.65
507.76	25648.76
507.96	25441.92
508.17	25921.14
508.37	25869.94
508.58	25640.57
508.78	26078.83
508.99	26164.85
509.19	25726.58
509.40	26046.07
509.60	26060.40
509.81	26240.62
510.01	26111.60
510.22	26291.82
510.42	26332.78
510.63	26373.74
510.83	26537.58
511.04	26543.72
511.24	26758.76
511.44	26789.48
511.65	26760.81
511.85	26553.96
512.06	26637.93
512.26	26715.75
512.47	26723.94
512.67	26805.86
512.88	27063.91
513.08	26586.73
513.29	27334.24
513.49	27346.53
513.69	27020.90
513.90	27307.62
514.10	27289.18
514.31	27086.43
514.51	27463.26
514.72	27035.24
514.92	27311.71
515.13	27430.49
515.33	27448.93
515.53	27643.48
515.74	27661.91
515.94	27549.28
516.15	27639.39
516.35	27616.86
516.56	27823.70
516.76	27553.37
516.96	28044.88
517.17	27940.44
517.37	27952.73
517.58	28040.79
517.78	27948.63
517.99	28073.56
518.19	28216.91
518.39	28532.30
518.60	28462.67
518.80	28106.32
519.01	28229.20
519.21	28677.71
519.41	28749.39
519.62	28515.92
519.82	28601.93
520.03	28495.44
520.23	28618.32
520.43	28571.21
520.64	29029.96
520.84	29036.10
521.05	28786.25
521.25	29267.52
521.45	29212.23
521.66	29052.48
521.86	28923.46
522.07	29083.20
522.27	29406.78
522.47	29271.62
522.68	29535.81
522.88	29425.22
523.08	29568.57
523.29	29462.08
523.49	29619.77
523.70	29593.15
523.90	29863.48
524.10	29877.82
524.31	30160.44
524.51	29740.60
524.71	30238.26
524.92	29746.75
525.12	30373.42
525.33	30578.22
525.53	30400.05
525.73	30512.69
525.94	30289.46
526.14	30547.50
526.34	30752.30
526.55	30660.14
526.75	30541.36
526.95	31344.16
527.16	31061.54
527.36	31190.56
527.56	31057.45
527.77	31252.00
527.97	31204.90
528.17	31229.48
528.38	31581.73
528.58	31063.59
528.78	31491.62
528.99	31645.21
529.19	31811.10
529.39	31127.08
529.60	31917.59
529.80	31893.02
530.00	31673.88
530.21	32118.29
530.41	32071.19
530.61	31897.11
530.82	32228.88
531.02	32484.88
531.22	32359.95
531.43	32325.14
531.63	32931.34
531.83	32980.49
532.04	32976.39
532.24	32542.22
532.44	33236.48
532.64	32972.30
532.85	33312.26
533.05	33256.96
533.25	33211.91
533.46	33449.47
533.66	33570.30
533.86	33390.08
534.07	33748.48
534.27	33547.78
534.47	34092.54
534.67	34133.50
534.88	33586.69
535.08	34086.39
535.28	34246.13
535.49	34514.42
535.69	34387.44
535.89	34469.36
536.09	34641.39
536.30	34813.42
536.50	34682.35
536.70	35155.43
536.91	34901.48
537.11	35341.80
537.31	35196.39
537.51	35108.33
537.72	35442.15
537.92	35442.15
538.12	36226.52
538.32	35509.73
538.53	35616.22
538.73	35517.92
538.93	35651.04
539.13	35712.48
539.34	36134.36
539.54	35976.67
539.74	36558.29
539.94	36294.10
540.15	36185.56
540.35	36015.58
540.55	36787.66
540.75	36589.01
540.96	36685.26
541.16	36847.05
541.36	37184.97
541.56	37025.23
541.77	37479.88
541.97	37090.76
542.17	37223.88
542.37	37242.31
542.58	37449.16
542.78	37328.33
542.98	37438.92
543.18	37524.93
543.38	37912.00
543.59	37881.28
543.79	37477.83
543.99	37922.24
544.19	37850.56
544.40	38073.79
544.60	38196.67
544.80	38372.79
545.00	38241.72
545.20	38897.07
545.41	38346.17
545.61	38755.76
545.81	38661.55
546.01	38903.21
546.21	38786.48
546.42	38514.10
546.62	39167.40
546.82	39015.85
547.02	39237.03
547.22	38974.89
547.43	39009.71
547.63	39216.55
547.83	39454.12
548.03	39073.20
548.23	39374.25
548.44	39558.56
548.64	39667.11
548.84	39919.01
549.04	39370.15
549.24	40023.45
549.45	40107.42
549.65	40015.26
549.85	39914.91
550.05	40449.43
550.25	40164.76
550.45	40492.44
550.66	40428.95
550.86	40185.24
551.06	40586.64
551.26	40795.54
551.46	40727.95
551.66	40557.97
551.87	40521.11
552.07	40572.31
552.27	40924.56
552.47	40934.80
552.67	41221.52
552.87	41350.54
553.07	40979.85
553.28	41717.12
553.48	41317.77
553.68	41153.93
553.88	41287.05
554.08	41465.22
554.28	41426.31
554.48	41356.68
554.69	41555.33
554.89	41313.67
555.09	41622.92
555.29	41612.68
555.49	41659.78
555.69	41682.31
555.89	41321.87
556.10	42155.39
556.30	41913.73
556.50	41739.65
556.70	41862.53
556.90	42337.66
557.10	42605.94
557.30	41958.78
557.50	42607.99
557.70	42519.93
557.91	42681.72
558.11	42407.29
558.31	42829.17
558.51	42655.09
558.71	42249.60
558.91	42847.60
559.11	42456.44
559.31	42704.24
559.51	42548.60
559.72	43021.68
559.92	42603.89
560.12	42755.44
560.32	42972.53
560.52	42767.73
560.72	43064.69
560.92	43140.46
561.12	42986.86
561.32	43162.99
561.52	42775.92
561.72	43705.70
561.93	43410.79
562.13	42947.95
562.33	42898.80
562.53	43894.11
562.73	43234.67
562.93	43265.39
563.13	43423.08
563.33	43160.94
563.53	43496.81
563.73	43308.40
563.93	43855.20
564.13	44025.18
564.33	43373.93
564.53	43623.78
564.74	43464.04
564.94	43459.94
565.14	43517.29
565.34	43705.70
565.54	43666.79
565.74	43906.40
565.94	44217.69
566.14	43943.27
566.34	43709.80
566.54	44266.84
566.74	43816.29
566.94	43998.56
567.14	44293.47
567.34	43808.10
567.54	44367.20
567.74	43922.79
567.94	43951.46
568.14	44432.73
568.34	44512.60
568.54	43996.51
568.74	44428.63
568.94	44152.16
569.14	44512.60
569.34	44514.65
569.54	44524.89
569.75	44080.48
569.95	44365.15
570.15	44557.66
570.35	44834.13
570.55	44727.64
570.75	44524.89
570.95	44477.79
571.15	44789.08
571.35	44664.15
571.55	45108.56
571.75	44653.91
571.95	45028.69
572.15	45067.60
572.35	45016.40
572.55	44948.82
572.75	44819.80
572.95	44832.08
573.15	45135.18
573.35	44957.01
573.55	44725.59
573.75	45264.21
573.95	45342.03
574.15	44914.00
574.35	45020.50
574.55	45352.27
574.75	44885.33
574.95	45286.73
575.15	44776.79
575.34	45387.08
575.54	45352.27
575.74	45159.76
575.94	45159.76
576.14	45438.28
576.34	45686.09
576.54	45356.36
576.74	45401.42
576.94	45550.92
577.14	45430.09
577.34	46167.36
577.54	45358.41
577.74	45991.23
577.94	45649.22
578.14	46118.21
578.34	46052.67
578.54	45571.40
578.74	46146.88
578.94	46210.37
579.14	46062.91
579.34	45811.01
579.54	46245.18
579.74	46081.34
579.94	46245.18
580.13	46392.64
580.33	46112.06
580.53	46531.90
580.73	46208.32
580.93	46130.50
581.13	46024.00
581.33	46511.42
581.53	46839.09
581.73	46275.90
581.93	46558.52
582.13	46396.73
582.33	46929.20
582.53	46519.61
582.73	46949.68
582.92	46900.53
583.12	46552.38
583.32	46689.59
583.52	46349.63
583.72	47201.58
583.92	46585.15
584.12	46986.55
584.32	47121.71
584.52	47017.27
584.72	46941.49
584.92	47445.29
585.11	47494.44
585.31	47293.74
585.51	47562.03
585.71	47330.61
585.91	47433.00
586.11	47074.61
586.31	47355.18
586.51	47377.71
586.71	47232.30
586.91	47666.47
587.10	47805.73
587.30	47643.94
587.50	47985.96
587.70	47928.61
587.90	47664.42
588.10	47467.82
588.30	47676.71
588.50	47856.93
