SpectraSuite Data File
++++++++++++++++++++++++++++++++++++
Date: Fri Jun 02 14:49:24 CEST 2017
User: INFO_000
Dark Spectrum Present: No
Reference Spectrum Present: No
Number of Sampled Component Spectra: 1
Spectrometers: USB4H00879
Integration Time (usec): 80000 (USB4H00879)
Spectra Averaged: 1 (USB4H00879)
Boxcar Smoothing: 0 (USB4H00879)
Correct for Electrical Dark: No (USB4H00879)
Strobe/Lamp Enabled: No (USB4H00879)
Correct for Detector Non-linearity: No (USB4H00879)
Correct for Stray Light: No (USB4H00879)
Number of Pixels in Processed Spectrum: 3648
>>>>>Begin Processed Spectral Data<<<<<
345.13	1302.51
345.34	1302.51
345.56	1302.51
345.78	1292.27
345.99	1312.75
346.21	1744.87
346.42	1687.53
346.64	1673.19
346.86	1798.12
347.07	1665.00
347.29	1716.20
347.50	1662.95
347.72	1683.43
347.94	1751.01
348.15	1626.09
348.37	1630.18
348.59	1687.53
348.80	1648.61
349.02	1726.44
349.23	1757.16
349.45	1806.31
349.67	1894.37
349.88	1802.21
350.10	1961.95
350.31	1849.32
350.53	1855.46
350.75	1990.63
350.96	1759.21
351.18	1822.69
351.39	1810.40
351.61	1798.12
351.82	1841.12
352.04	1943.52
352.26	1804.26
352.47	1937.38
352.69	1898.47
352.90	1763.30
353.12	1861.60
353.34	1769.44
353.55	1877.99
353.77	1900.52
353.98	1773.54
354.20	1828.84
354.41	1935.33
354.63	1818.60
354.85	2056.16
355.06	1888.23
355.28	1771.49
355.49	1869.80
355.71	1925.09
355.92	1884.13
356.14	1880.04
356.35	1837.03
356.57	1941.47
356.79	2000.87
357.00	1839.08
357.22	1970.15
357.43	1875.94
357.65	1961.95
357.86	1841.12
358.08	1982.43
358.29	1957.86
358.51	1927.14
358.72	1961.95
358.94	1863.65
359.16	1902.56
359.37	1945.57
359.59	1929.19
359.80	1966.05
360.02	2025.44
360.23	2011.11
360.45	2000.87
360.66	2060.26
360.88	1890.28
361.09	1865.70
361.31	1970.15
361.52	1982.43
361.74	2013.15
361.95	2066.40
362.17	1927.14
362.38	2052.06
362.60	2084.83
362.81	2039.78
363.03	1900.52
363.24	1945.57
363.46	2082.78
363.67	1945.57
363.89	1970.15
364.10	1927.14
364.32	2000.87
364.53	2035.68
364.75	1851.36
364.96	2068.45
365.18	1984.48
365.39	2007.01
365.61	1994.72
365.82	2133.98
366.04	2011.11
366.25	1939.43
366.47	2058.21
366.68	2029.54
366.90	1890.28
367.11	2125.79
367.33	2029.54
367.54	1998.82
367.76	2007.01
367.97	2052.06
368.19	1998.82
368.40	2168.80
368.62	2025.44
368.83	1927.14
369.05	2031.58
369.26	2027.49
369.48	1986.53
369.69	1941.47
369.91	2072.54
370.12	2043.87
370.33	2205.66
370.55	1959.91
370.76	2113.50
370.98	2019.30
371.19	2121.70
371.41	2027.49
371.62	1970.15
371.84	1966.05
372.05	2189.28
372.27	1980.39
372.48	1998.82
372.69	2052.06
372.91	2093.02
373.12	2060.26
373.34	2007.01
373.55	2242.53
373.77	2174.94
373.98	2117.60
374.20	2166.75
374.41	2281.44
374.62	2170.85
374.84	2207.71
375.05	2164.70
375.27	2107.36
375.48	2234.33
375.70	2148.32
375.91	2271.20
376.12	2230.24
376.34	2123.74
376.55	2101.22
376.77	2191.33
376.98	2136.03
377.19	2160.61
377.41	2250.72
377.62	2222.05
377.84	2277.34
378.05	2371.55
378.27	2256.86
378.48	2224.09
378.69	2283.49
378.91	2308.06
379.12	2297.82
379.34	2201.57
379.55	2408.41
379.76	2293.72
379.98	2256.86
380.19	2254.81
380.41	2291.68
380.62	2269.15
380.83	2246.62
381.05	2117.60
381.26	2340.83
381.47	2201.57
381.69	2279.39
381.90	2408.41
382.12	2217.95
382.33	2316.25
382.54	2328.54
382.76	2387.93
382.97	2314.20
383.19	2273.25
383.40	2412.51
383.61	2260.96
383.83	2295.77
384.04	2303.96
384.25	2398.17
384.47	2301.92
384.68	2408.41
384.89	2277.34
385.11	2340.83
385.32	2273.25
385.54	2316.25
385.75	2426.84
385.96	2344.92
386.18	2392.03
386.39	2478.04
386.60	2396.12
386.82	2424.80
387.03	2443.23
387.24	2496.47
387.46	2383.84
387.67	2439.13
387.88	2475.99
388.10	2514.91
388.31	2510.81
388.52	2580.44
388.74	2496.47
388.95	2512.86
389.16	2594.78
389.38	2559.96
389.59	2600.92
389.80	2557.91
390.02	2543.58
390.23	2594.78
390.44	2588.63
390.66	2564.06
390.87	2449.37
391.08	2617.30
391.30	2664.41
391.51	2670.55
391.72	2541.53
391.94	2615.26
392.15	2598.87
392.36	2641.88
392.58	2566.10
392.79	2607.06
393.00	2582.49
393.22	2744.28
393.43	2701.27
393.64	2793.43
393.85	2705.37
394.07	2648.02
394.28	2725.85
394.49	2719.70
394.71	2725.85
394.92	2793.43
395.13	2660.31
395.35	2738.13
395.56	2723.80
395.77	2789.33
395.98	2789.33
396.20	2844.63
396.41	2791.38
396.62	2875.35
396.84	2820.05
397.05	2834.39
397.26	2895.83
397.47	2910.16
397.69	2820.05
397.90	3016.66
398.11	2916.31
398.32	2877.40
398.54	2797.53
398.75	2879.44
398.96	2938.84
399.18	2985.94
399.39	2877.40
399.60	2992.08
399.81	3002.32
400.03	3016.66
400.24	3174.35
400.45	2979.79
400.66	3055.57
400.88	3051.47
401.09	3153.87
401.30	3053.52
401.51	3094.48
401.73	3192.78
401.94	3078.10
402.15	3149.78
402.36	3186.64
402.58	3131.34
402.79	3164.11
403.00	3209.17
403.21	3256.27
403.43	3139.54
403.64	3100.62
403.85	3186.64
404.06	3219.41
404.27	3145.68
404.49	3188.69
404.70	3147.73
404.91	3243.98
405.12	3248.08
405.34	3231.69
405.55	3370.96
405.76	3133.39
405.97	3112.91
406.19	3264.46
406.40	3243.98
406.61	3383.24
406.82	3413.96
407.03	3266.51
407.25	3284.94
407.46	3243.98
407.67	3409.87
407.88	3375.05
408.09	3330.00
408.31	3309.52
408.52	3471.31
408.73	3346.38
408.94	3295.18
409.15	3348.43
409.37	3440.59
409.58	3461.07
409.79	3452.88
410.00	3516.36
410.21	3411.92
410.43	3348.43
410.64	3379.15
410.85	3614.66
411.06	3504.07
411.27	3551.18
411.48	3571.66
411.70	3497.93
411.91	3573.71
412.12	3536.84
412.33	3612.62
412.54	3436.49
412.76	3620.81
412.97	3633.10
413.18	3467.21
413.39	3483.59
413.60	3659.72
413.81	3755.97
414.03	3618.76
414.24	3626.95
414.45	3794.89
414.66	3622.86
414.87	3719.11
415.08	3760.07
415.30	3686.34
415.51	3710.92
415.72	3725.26
415.93	3813.32
416.14	3825.61
416.35	3760.07
416.56	3796.93
416.78	3846.09
416.99	3854.28
417.20	3762.12
417.41	3874.76
417.62	3870.66
417.83	3966.92
418.04	3841.99
418.26	3868.61
418.47	3821.51
418.68	3968.96
418.89	3985.35
419.10	4065.22
419.31	3968.96
419.52	3964.87
419.73	4079.55
419.95	3958.72
420.16	3897.28
420.37	3977.16
420.58	3983.30
420.79	3858.37
421.00	4134.85
421.21	4048.83
421.42	3942.34
421.63	4202.43
421.85	4114.37
422.06	4102.08
422.27	4173.76
422.48	4161.47
422.69	4296.64
422.90	4259.78
423.11	4282.30
423.32	4220.86
423.53	4337.60
423.75	4382.65
423.96	4526.01
424.17	4372.41
424.38	4470.72
424.59	4317.12
424.80	4583.35
425.01	4407.23
425.22	4427.71
425.43	4427.71
425.64	4569.02
425.85	4659.13
426.06	4560.83
426.28	4485.05
426.49	4548.54
426.70	4560.83
426.91	4812.73
427.12	4644.79
427.33	4661.18
427.54	4603.83
427.75	4693.94
427.96	4839.35
428.17	4620.22
428.38	4865.97
428.59	4831.16
428.80	4757.43
429.01	4843.45
429.23	4878.26
429.44	4937.65
429.65	4894.65
429.86	4913.08
430.07	4794.29
430.28	4886.45
430.49	5011.38
430.70	5033.91
430.91	5085.11
431.12	4915.12
431.33	5152.69
431.54	5234.61
431.75	5138.35
431.96	5087.15
432.17	5109.68
432.38	5005.24
432.59	5283.76
432.80	5304.24
433.01	5287.86
433.22	5296.05
433.43	5238.70
433.64	5447.60
433.85	5189.55
434.06	5285.81
434.27	5267.38
434.49	5531.56
434.70	5361.58
434.91	5441.45
435.12	5392.30
435.33	5369.77
435.54	5519.28
435.75	5189.55
435.96	5482.41
436.17	5351.34
436.38	5568.43
436.59	5674.92
436.80	5296.05
437.01	5779.37
437.22	5722.02
437.43	5494.70
437.64	5377.97
437.85	5715.88
438.06	5834.66
438.27	5736.36
438.48	5636.01
438.69	5801.90
438.90	5681.07
439.11	5506.99
439.32	5758.89
439.53	5760.94
439.74	5795.75
439.95	5783.46
440.16	5705.64
440.37	5676.97
440.57	5767.08
440.78	5975.97
440.99	5971.88
441.20	5918.63
441.41	5693.35
441.62	5924.77
441.83	5750.70
442.04	5980.07
442.25	6053.80
442.46	5842.85
442.67	6109.09
442.88	6467.49
443.09	5908.39
443.30	5988.26
443.51	6061.99
443.72	6242.21
443.93	5930.92
444.14	6279.07
444.35	5961.64
444.56	6303.65
444.77	6268.83
444.98	6277.02
445.19	6213.54
445.40	6164.39
445.61	6381.47
445.81	6385.57
446.02	6397.85
446.23	6410.14
446.44	6135.71
446.65	6399.90
446.86	6346.66
447.07	6500.25
447.28	6657.95
447.49	6602.65
447.70	6457.25
447.91	6580.12
448.12	6610.84
448.33	6635.42
448.54	6827.93
448.74	6619.04
448.95	6604.70
449.16	6623.13
449.37	6940.57
449.58	6709.15
449.79	6946.71
450.00	6748.06
450.21	6721.43
450.42	6924.18
450.63	7067.54
450.84	6889.37
451.05	6985.62
451.25	6961.05
451.46	6748.06
451.67	7090.07
451.88	7155.60
452.09	7102.36
452.30	7030.68
452.51	7137.17
452.72	7399.31
452.93	7634.83
453.13	6997.91
453.34	7196.56
453.55	7196.56
453.76	7360.40
453.97	7657.36
454.18	7337.87
454.39	7622.54
454.60	7382.93
454.81	7585.68
455.01	7620.49
455.22	7452.56
455.43	7491.47
455.64	7743.37
455.85	7829.38
456.06	7802.76
456.27	7935.88
456.48	7894.92
456.68	7862.15
456.89	7919.50
457.10	7851.91
457.31	8155.01
457.52	7935.88
457.73	8128.39
457.94	8259.46
458.14	8081.28
458.35	8662.91
458.56	8245.12
458.77	8224.64
458.98	8345.47
459.19	8230.79
459.39	8482.69
459.60	8572.80
459.81	8345.47
460.02	8464.25
460.23	8333.18
460.44	8658.81
460.65	8738.68
460.85	8789.88
461.06	8738.68
461.27	8597.37
461.48	9031.54
461.69	8982.39
461.89	8646.52
462.10	9078.65
462.31	8820.60
462.52	8918.90
462.73	9119.60
462.94	9162.61
463.14	9135.99
463.35	9080.69
463.56	9633.64
463.77	9543.53
463.98	9135.99
464.18	9183.09
464.39	9418.61
464.60	9744.24
464.81	9496.43
465.02	9430.90
465.23	9678.70
465.43	9590.64
465.64	9797.48
465.85	9844.59
466.06	9680.75
466.27	10057.57
466.47	10006.38
466.68	10024.81
466.89	9828.20
467.10	10135.40
467.30	10028.90
467.51	9989.99
467.72	10444.64
467.93	10039.14
468.14	10266.47
468.34	10364.77
468.55	10342.24
468.76	10594.14
468.97	10338.15
469.17	10651.49
469.38	10590.05
469.59	10827.61
469.80	10680.16
470.01	10628.96
470.21	10813.28
470.42	11005.78
470.63	10964.82
470.84	10868.57
471.04	11016.02
471.25	11165.53
471.46	11134.81
471.67	11564.88
471.87	11220.82
472.08	11429.71
472.29	11577.17
472.50	11382.61
472.70	11292.50
472.91	11605.84
473.12	11759.44
473.33	11816.78
473.53	11810.64
473.74	11900.75
473.95	12207.94
474.16	12214.09
474.36	12132.17
474.57	12345.16
474.78	12504.90
474.99	12533.57
475.19	12312.39
475.40	12539.71
475.61	12668.73
475.81	12797.76
476.02	12881.72
476.23	12916.54
476.44	12801.85
476.64	13299.51
476.85	13305.65
477.06	13248.31
477.27	13461.30
477.47	13481.78
477.68	13518.64
477.89	13545.27
478.09	13729.58
478.30	13653.81
478.51	14077.74
478.71	13934.38
478.92	14231.33
479.13	14061.35
479.34	14176.04
479.54	14247.72
479.75	14118.70
479.96	14286.63
480.16	14364.45
480.37	14778.14
480.58	14788.38
480.78	15003.42
480.99	14915.36
481.20	14958.36
481.41	15159.06
481.61	15118.11
481.82	15273.75
482.03	15292.18
482.23	15288.09
482.44	15589.14
482.65	15644.43
482.85	15548.18
483.06	15582.99
483.27	15818.51
483.47	15779.60
483.68	16187.14
483.89	16260.87
484.09	16271.11
484.30	16172.81
484.51	16561.92
484.71	16770.82
484.92	16641.79
485.13	16703.23
485.33	16740.10
485.54	16764.67
485.75	16969.47
485.95	17288.95
486.16	17084.16
486.37	17422.07
486.57	17018.62
486.78	17489.65
486.98	17471.22
487.19	17684.21
487.40	17944.30
487.60	17817.33
487.81	18161.39
488.02	17952.49
488.22	18159.34
488.43	18108.14
488.64	18192.11
488.84	18321.13
489.05	18470.63
489.25	18458.34
489.46	18751.20
489.67	18630.37
489.87	19009.25
490.08	18927.33
490.29	18788.07
490.49	19265.24
490.70	19115.74
490.90	19261.15
491.11	19470.04
491.32	19640.02
491.52	19603.16
491.73	19689.17
491.94	19889.87
492.14	19754.71
492.35	20131.53
492.55	20405.96
492.76	19992.27
492.97	20586.18
493.17	20528.84
493.38	20332.23
493.58	20491.98
493.79	20778.69
494.00	20897.47
494.20	20745.92
494.41	20991.68
494.61	20950.72
494.82	21071.55
495.02	21089.98
495.23	21290.68
495.44	21493.43
495.64	21685.94
495.85	21726.90
496.05	21391.03
496.26	21694.13
496.47	22048.43
496.67	21796.53
496.88	22046.38
497.08	21874.35
497.29	22220.46
497.49	21999.28
497.70	22140.59
497.91	22410.92
498.11	22404.78
498.32	22509.22
498.52	22640.29
498.73	23117.47
498.93	22943.39
499.14	22986.40
499.34	22986.40
499.55	23037.60
499.76	22558.38
499.96	22879.91
500.17	23223.97
500.37	23529.11
500.58	23561.88
500.78	23451.29
500.99	23768.73
501.19	23680.66
501.40	23482.01
501.60	23856.79
501.81	23563.93
502.02	23703.19
502.22	23635.61
502.43	24155.79
502.63	24256.14
502.84	24211.09
503.04	24016.53
503.25	24391.31
503.45	24221.33
503.66	24438.41
503.86	24632.97
504.07	24913.54
504.27	24448.65
504.48	24772.23
504.68	24819.33
504.89	24886.92
505.09	25134.72
505.30	24821.38
505.50	24925.83
505.71	24817.29
505.91	25370.24
506.12	25077.38
506.32	24929.92
506.53	25001.60
506.73	25013.89
506.94	25495.16
507.14	25302.65
507.35	25581.18
507.55	25570.94
507.76	25366.14
507.96	25812.60
508.17	25599.61
508.37	25550.46
508.58	25863.80
508.78	25857.65
508.99	25953.91
509.19	26240.62
509.40	25890.42
509.60	25990.77
509.81	26377.84
510.01	25927.28
510.22	26263.15
510.42	26297.97
510.63	26277.49
510.83	26044.02
511.04	26383.98
511.24	26482.28
511.44	26707.56
511.65	26480.24
511.85	26302.06
512.06	26525.29
512.26	26736.23
512.47	26728.04
512.67	26664.55
512.88	26588.78
513.08	26496.62
513.29	26826.34
513.49	26842.73
513.69	27022.95
513.90	26793.58
514.10	26941.03
514.31	26793.58
514.51	26912.36
514.72	26994.28
514.92	26953.32
515.13	27270.75
515.33	27266.66
515.53	27450.97
515.74	27446.88
515.94	27334.24
516.15	27313.76
516.35	27340.38
516.56	27563.61
516.76	27510.36
516.96	27641.43
517.17	27813.46
517.37	27795.03
517.58	27571.80
517.78	28022.36
517.99	27623.00
518.19	27905.62
518.39	27942.49
518.60	28143.19
518.80	27909.72
519.01	28051.03
519.21	28212.82
519.41	28165.71
519.62	27881.05
519.82	28284.50
520.03	28399.18
520.23	28851.78
520.43	28370.51
520.64	29099.59
520.84	28968.52
521.05	28722.76
521.25	28853.83
521.45	28866.12
521.66	28769.86
521.86	28675.66
522.07	28941.89
522.27	28880.46
522.47	28950.09
522.68	29460.03
522.88	29371.97
523.08	29613.63
523.29	29574.72
523.49	29773.37
523.70	29603.39
523.90	29810.23
524.10	29677.12
524.31	30223.92
524.51	29961.78
524.71	30520.88
524.92	29855.29
525.12	30342.70
525.33	30398.00
525.53	30834.22
525.73	30737.96
525.94	30287.41
526.14	30303.79
526.34	30514.73
526.55	30735.92
526.75	30629.42
526.95	31120.93
527.16	30850.60
527.36	31221.28
527.56	31149.60
527.77	31462.94
527.97	31149.60
528.17	31546.91
528.38	31704.60
528.58	31606.30
528.78	31886.87
528.99	31745.56
529.19	31807.00
529.39	31778.33
529.60	32140.82
529.80	32144.92
530.00	32318.99
530.21	32452.11
530.41	32386.58
530.61	32486.93
530.82	32327.19
531.02	32753.16
531.22	32622.09
531.43	32818.70
531.63	33039.88
531.83	33183.24
532.04	33691.13
532.24	33515.01
532.44	33684.99
532.64	33678.85
532.85	33869.31
533.05	33789.44
533.25	33523.20
533.46	33900.03
533.66	34000.38
533.86	34307.57
534.07	34608.62
534.27	34006.52
534.47	34600.43
534.67	34469.36
534.88	34688.49
535.08	34276.85
535.28	34637.30
535.49	34678.25
535.69	35333.60
535.89	35335.65
536.09	35483.11
536.30	35325.41
536.50	35857.88
536.70	35724.77
536.91	35661.28
537.11	36197.85
537.31	35991.00
537.51	36054.49
537.72	36255.19
537.92	36027.87
538.12	36312.53
538.32	36259.29
538.53	36906.44
538.73	36490.71
538.93	36625.87
539.13	36711.89
539.34	36511.19
539.54	36804.05
539.74	37037.51
539.94	37182.92
540.15	36928.97
540.35	37113.29
540.55	37201.35
540.75	37498.31
540.96	37914.05
541.16	37676.48
541.36	37643.71
541.56	37658.05
541.77	37807.55
541.97	37727.68
542.17	37977.53
542.37	38223.29
542.58	38483.38
542.78	38051.26
542.98	38221.24
543.18	38327.74
543.38	38946.22
543.59	39095.72
543.79	38372.79
543.99	38766.00
544.19	39007.66
544.40	39005.61
544.60	38843.82
544.80	38993.32
545.00	38835.63
545.20	38985.13
545.41	39538.08
545.61	39490.98
545.81	39452.07
546.01	39589.28
546.21	39400.87
546.42	39548.32
546.62	39820.70
546.82	39558.56
547.02	39589.28
547.22	39787.94
547.43	39826.85
547.63	39986.59
547.83	40125.85
548.03	40052.12
548.23	40179.10
548.44	40097.18
548.64	40340.89
548.84	40056.22
549.04	40269.21
549.24	40562.07
549.45	40910.22
549.65	40469.91
549.85	40555.93
550.05	40746.39
550.25	40807.83
550.45	41006.48
550.66	40930.70
550.86	40682.90
551.06	41606.53
551.26	41121.16
551.46	41313.67
551.66	40908.18
551.87	40592.79
552.07	41166.22
552.27	41217.42
552.47	41184.65
552.67	41565.57
552.87	41495.94
553.07	41477.51
553.28	41450.89
553.48	41823.62
553.68	41471.37
553.88	41981.31
554.08	41774.47
554.28	41641.35
554.48	41837.95
554.69	41743.75
554.89	41926.02
555.09	41950.59
555.29	41645.44
555.49	42179.96
555.69	42055.04
555.89	41715.08
556.10	41899.39
556.30	41825.67
556.50	41969.02
556.70	41717.12
556.90	42225.02
557.10	42360.19
557.30	41948.54
557.50	42194.30
557.70	42610.04
557.91	42689.91
558.11	42147.20
558.31	42685.81
558.51	42456.44
558.71	42456.44
558.91	42720.63
559.11	42358.14
559.31	42366.33
559.51	42374.52
559.72	42460.54
559.92	42569.08
560.12	42114.43
560.32	42577.27
560.52	42419.58
560.72	42497.40
560.92	42585.46
561.12	42737.01
561.32	43095.41
561.52	42704.24
561.72	42841.46
561.93	42689.91
562.13	42874.23
562.33	42505.59
562.53	43173.23
562.73	42737.01
562.93	42841.46
563.13	42974.58
563.33	43013.49
563.53	43281.77
563.73	42651.00
563.93	42767.73
564.13	43201.90
564.33	43152.75
564.53	42823.03
564.74	42995.06
564.94	43023.73
565.14	43275.63
565.34	42939.76
565.54	43091.31
565.74	43054.45
565.94	43351.40
566.14	42919.28
566.34	42925.42
566.54	43599.21
566.74	42956.14
566.94	43292.01
567.14	43505.00
567.34	43169.13
567.54	43515.24
567.74	43304.30
567.94	42943.86
568.14	43433.32
568.34	43244.91
568.54	43769.19
568.74	43367.79
568.94	43642.21
569.14	43853.15
569.34	43554.15
569.54	43873.63
569.75	43451.75
569.95	43740.52
570.15	44148.06
570.35	43795.81
570.55	43670.89
570.75	43855.20
570.95	44084.58
571.15	44016.99
571.35	43910.50
571.55	44227.93
571.75	44025.18
571.95	44066.14
572.15	44240.22
572.35	44076.38
572.55	43842.92
572.75	44268.89
572.95	44258.65
573.15	44103.01
573.35	44117.34
573.55	44209.50
573.75	44522.84
573.95	44350.81
574.15	44184.93
574.35	44316.00
574.55	44522.84
574.75	44131.68
574.95	44602.71
575.15	44033.38
575.34	44762.45
575.54	44674.39
575.74	45100.37
575.94	44725.59
576.14	44676.44
576.34	45182.29
576.54	45323.60
576.74	45231.44
576.94	44641.62
577.14	45106.51
577.34	45282.64
577.54	45204.81
577.74	45393.23
577.94	45124.94
578.14	45378.89
578.34	45540.68
578.54	44612.95
578.74	44969.30
578.94	45794.63
579.14	45417.80
579.34	45436.23
579.54	45727.05
579.74	45839.68
579.94	45991.23
580.13	46257.47
580.33	45745.48
580.53	45970.75
580.73	46011.71
580.93	46308.67
581.13	46419.26
581.33	46658.87
581.53	46478.65
581.73	46150.98
581.93	46454.08
582.13	46679.35
582.33	46462.27
582.53	46413.12
582.73	46728.50
582.92	46505.27
583.12	46802.23
583.32	47086.90
583.52	46861.62
583.72	46908.72
583.92	46781.75
584.12	47166.77
584.32	47539.50
584.52	47611.18
584.72	47041.84
584.92	47043.89
585.11	47908.13
585.31	47684.90
585.51	47428.91
585.71	47404.33
585.91	47592.75
586.11	47537.45
586.31	47422.76
586.51	47562.03
586.71	48106.79
586.91	48209.18
587.10	48043.30
587.30	48250.14
587.50	48534.81
587.70	48131.36
587.90	48229.66
588.10	48559.39
588.30	48276.77
588.50	48651.55
