SpectraSuite Data File
++++++++++++++++++++++++++++++++++++
Date: Fri Jun 02 14:49:25 CEST 2017
User: INFO_000
Dark Spectrum Present: No
Reference Spectrum Present: No
Number of Sampled Component Spectra: 1
Spectrometers: USB4H00879
Integration Time (usec): 80000 (USB4H00879)
Spectra Averaged: 1 (USB4H00879)
Boxcar Smoothing: 0 (USB4H00879)
Correct for Electrical Dark: No (USB4H00879)
Strobe/Lamp Enabled: No (USB4H00879)
Correct for Detector Non-linearity: No (USB4H00879)
Correct for Stray Light: No (USB4H00879)
Number of Pixels in Processed Spectrum: 3648
>>>>>Begin Processed Spectral Data<<<<<
345.13	1341.42
345.34	1341.42
345.56	1341.42
345.78	1306.60
345.99	1282.03
346.21	1695.72
346.42	1644.52
346.64	1615.85
346.86	1783.78
347.07	1636.33
347.29	1816.55
347.50	1613.80
347.72	1548.26
347.94	1779.68
348.15	1554.41
348.37	1562.60
348.59	1716.20
348.80	1658.85
349.02	1783.78
349.23	1861.60
349.45	1730.53
349.67	1851.36
349.88	1798.12
350.10	1920.99
350.31	1812.45
350.53	1863.65
350.75	1943.52
350.96	1763.30
351.18	1794.02
351.39	1857.51
351.61	1820.64
351.82	1820.64
352.04	1914.85
352.26	1783.78
352.47	1875.94
352.69	1910.75
352.90	1734.63
353.12	1822.69
353.34	1861.60
353.55	1953.76
353.77	1902.56
353.98	1834.98
354.20	1777.64
354.41	1994.72
354.63	1888.23
354.85	1959.91
355.06	1943.52
355.28	1771.49
355.49	1937.38
355.71	1925.09
355.92	1818.60
356.14	1896.42
356.35	1865.70
356.57	1824.74
356.79	1873.89
357.00	1818.60
357.22	1972.19
357.43	1855.46
357.65	1945.57
357.86	1810.40
358.08	1902.56
358.29	1869.80
358.51	2007.01
358.72	1916.90
358.94	1916.90
359.16	1912.80
359.37	1935.33
359.59	1994.72
359.80	1976.29
360.02	1966.05
360.23	1957.86
360.45	1937.38
360.66	1961.95
360.88	1873.89
361.09	1990.63
361.31	1953.76
361.52	1959.91
361.74	2011.11
361.95	2068.45
362.17	1877.99
362.38	2019.30
362.60	1996.77
362.81	1978.34
363.03	1968.10
363.24	2017.25
363.46	2068.45
363.67	1947.62
363.89	1957.86
364.10	1972.19
364.32	1959.91
364.53	2062.30
364.75	1882.08
364.96	2009.06
365.18	2009.06
365.39	1994.72
365.61	1882.08
365.82	2088.93
366.04	2093.02
366.25	2004.96
366.47	2017.25
366.68	2082.78
366.90	1953.76
367.11	2064.35
367.33	2109.41
367.54	2133.98
367.76	1959.91
367.97	2105.31
368.19	2037.73
368.40	2027.49
368.62	2066.40
368.83	1968.10
369.05	2023.39
369.26	2025.44
369.48	2033.63
369.69	2146.27
369.91	1980.39
370.12	2058.21
370.33	2082.78
370.55	1918.95
370.76	2037.73
370.98	2148.32
371.19	2017.25
371.41	1994.72
371.62	2066.40
371.84	2011.11
372.05	2211.81
372.27	2070.50
372.48	2023.39
372.69	2052.06
372.91	2093.02
373.12	2136.03
373.34	2015.20
373.55	2158.56
373.77	2158.56
373.98	2131.94
374.20	2183.13
374.41	2189.28
374.62	2162.66
374.84	2181.09
375.05	2115.55
375.27	2172.89
375.48	2205.66
375.70	2150.37
375.91	2191.33
376.12	2308.06
376.34	2144.22
376.55	2195.42
376.77	2207.71
376.98	2068.45
377.19	2107.36
377.41	2115.55
377.62	2142.18
377.84	2203.61
378.05	2326.49
378.27	2133.98
378.48	2336.73
378.69	2351.07
378.91	2301.92
379.12	2273.25
379.34	2213.85
379.55	2301.92
379.76	2330.59
379.98	2222.05
380.19	2209.76
380.41	2271.20
380.62	2330.59
380.83	2244.57
381.05	2201.57
381.26	2322.40
381.47	2189.28
381.69	2224.09
381.90	2412.51
382.12	2131.94
382.33	2256.86
382.54	2260.96
382.76	2353.12
382.97	2275.29
383.19	2191.33
383.40	2457.56
383.61	2267.10
383.83	2375.64
384.04	2389.98
384.25	2328.54
384.47	2463.71
384.68	2445.27
384.89	2213.85
385.11	2326.49
385.32	2336.73
385.54	2373.60
385.75	2279.39
385.96	2406.36
386.18	2400.22
386.39	2389.98
386.60	2310.11
386.82	2404.32
387.03	2412.51
387.24	2400.22
387.46	2346.97
387.67	2400.22
387.88	2521.05
388.10	2412.51
388.31	2574.30
388.52	2527.19
388.74	2523.10
388.95	2516.95
389.16	2418.65
389.38	2551.77
389.59	2566.10
389.80	2576.34
390.02	2500.57
390.23	2584.54
390.44	2514.91
390.66	2648.02
390.87	2443.23
391.08	2580.44
391.30	2666.46
391.51	2697.17
391.72	2512.86
391.94	2574.30
392.15	2619.35
392.36	2631.64
392.58	2703.32
392.79	2695.13
393.00	2691.03
393.22	2682.84
393.43	2762.71
393.64	2863.06
393.85	2760.66
394.07	2662.36
394.28	2580.44
394.49	2711.51
394.71	2777.05
394.92	2807.77
395.13	2727.89
395.35	2713.56
395.56	2684.89
395.77	2699.22
395.98	2797.53
396.20	2834.39
396.41	2746.33
396.62	2947.03
396.84	2738.13
397.05	2766.81
397.26	2846.68
397.47	2983.89
397.69	2820.05
397.90	3069.91
398.11	2994.13
398.32	2932.69
398.54	2818.00
398.75	2887.64
398.96	2918.36
399.18	2951.12
399.39	3053.52
399.60	2947.03
399.81	2955.22
400.03	3084.24
400.24	3258.32
400.45	2922.45
400.66	2901.97
400.88	2930.64
401.09	3147.73
401.30	2953.17
401.51	3157.97
401.73	3059.67
401.94	3123.15
402.15	3096.53
402.36	3035.09
402.58	3084.24
402.79	3223.50
403.00	3067.86
403.21	3276.75
403.43	3192.78
403.64	3205.07
403.85	3018.71
404.06	3196.88
404.27	3037.14
404.49	3067.86
404.70	3145.68
404.91	3207.12
405.12	3231.69
405.34	3114.96
405.55	3360.72
405.76	3164.11
405.97	3246.03
406.19	3420.11
406.40	3205.07
406.61	3305.42
406.82	3364.81
407.03	3276.75
407.25	3198.93
407.46	3352.52
407.67	3395.53
407.88	3387.34
408.09	3313.61
408.31	3248.08
408.52	3416.01
408.73	3295.18
408.94	3403.72
409.15	3397.58
409.37	3563.47
409.58	3520.46
409.79	3542.99
410.00	3454.92
410.21	3469.26
410.43	3516.36
410.64	3291.09
410.85	3518.41
411.06	3469.26
411.27	3502.03
411.48	3715.02
411.70	3561.42
411.91	3542.99
412.12	3633.10
412.33	3678.15
412.54	3596.23
412.76	3704.78
412.97	3612.62
413.18	3522.51
413.39	3688.39
413.60	3577.80
413.81	3708.87
414.03	3608.52
414.24	3692.49
414.45	3794.89
414.66	3540.94
414.87	3710.92
415.08	3702.73
415.30	3733.45
415.51	3823.56
415.72	3733.45
415.93	3676.10
416.14	3737.54
416.35	3829.70
416.56	3733.45
416.78	3809.22
416.99	3776.45
417.20	3737.54
417.41	3911.62
417.62	3835.85
417.83	3841.99
418.04	3940.29
418.26	3917.76
418.47	3903.43
418.68	3993.54
418.89	3940.29
419.10	4157.38
419.31	3915.72
419.52	4132.80
419.73	4011.97
419.95	4159.42
420.16	3987.40
420.37	3934.15
420.58	4036.55
420.79	3985.35
421.00	4075.46
421.21	4257.73
421.42	3997.64
421.63	4204.48
421.85	4009.92
422.06	4059.07
422.27	4163.52
422.48	4233.15
422.69	4227.01
422.90	4128.70
423.11	4173.76
423.32	4276.16
423.53	4399.04
423.75	4143.04
423.96	4446.14
424.17	4304.83
424.38	4425.66
424.59	4364.22
424.80	4597.69
425.01	4437.95
425.22	4394.94
425.43	4390.84
425.64	4681.66
425.85	4540.35
426.06	4622.27
426.28	4597.69
426.49	4431.80
426.70	4532.15
426.91	4573.11
427.12	4601.79
427.33	4554.68
427.54	4427.71
427.75	4685.75
427.96	4669.37
428.17	4650.94
428.38	4816.82
428.59	4704.18
428.80	4829.11
429.01	4808.63
429.23	4609.98
429.44	4908.98
429.65	4945.84
429.86	4859.83
430.07	4798.39
430.28	4767.67
430.49	4835.25
430.70	4949.94
430.91	5005.24
431.12	4820.92
431.33	5109.68
431.54	5130.16
431.75	5042.10
431.96	5038.00
432.17	5031.86
432.38	5107.63
432.59	5345.20
432.80	5171.12
433.01	5130.16
433.22	5177.26
433.43	5191.60
433.64	5103.54
433.85	5173.17
434.06	5230.51
434.27	5152.69
434.49	5437.36
434.70	5257.14
434.91	5359.53
435.12	5451.69
435.33	5281.71
435.54	5341.10
435.75	5279.66
435.96	5423.02
436.17	5115.83
436.38	5463.98
436.59	5431.21
436.80	5427.12
437.01	5595.05
437.22	5386.16
437.43	5568.43
437.64	5394.35
437.85	5468.08
438.06	5603.24
438.27	5490.60
438.48	5552.04
438.69	5787.56
438.90	5642.15
439.11	5586.86
439.32	5926.82
439.53	5681.07
439.74	5664.68
439.95	5801.90
440.16	5914.53
440.37	5912.49
440.57	5660.59
440.78	5830.57
440.99	5910.44
441.20	5937.06
441.41	5828.52
441.62	6000.55
441.83	5767.08
442.04	6090.66
442.25	5965.73
442.46	6008.74
442.67	6064.04
442.88	6332.32
443.09	5965.73
443.30	6117.28
443.51	6141.86
443.72	6399.90
443.93	6127.52
444.14	6487.96
444.35	6152.10
444.56	6320.03
444.77	6037.41
444.98	6358.94
445.19	6260.64
445.40	6449.05
445.61	6209.44
445.81	6430.62
446.02	6373.28
446.23	6504.35
446.44	6322.08
446.65	6520.73
446.86	6530.97
447.07	6522.78
447.28	6719.39
447.49	6676.38
447.70	6582.17
447.91	6705.05
448.12	6619.04
448.33	6784.92
448.54	6836.12
448.74	6563.74
448.95	6713.24
449.16	6705.05
449.37	6961.05
449.58	6696.86
449.79	6942.61
450.00	6662.04
450.21	6862.74
450.42	7045.01
450.63	7090.07
450.84	6915.99
451.05	6983.57
451.25	6971.29
451.46	7049.11
451.67	7219.09
451.88	7178.13
452.09	7219.09
452.30	7188.37
452.51	7051.16
452.72	7311.25
452.93	7559.05
453.13	7194.51
453.34	7339.92
453.55	7198.61
453.76	7311.25
453.97	7546.76
454.18	7221.14
454.39	7661.45
454.60	7509.90
454.81	7636.88
455.01	7452.56
455.22	7460.75
455.43	7552.91
455.64	7819.14
455.85	7896.97
456.06	7905.16
456.27	7843.72
456.48	7643.02
456.68	7792.52
456.89	7960.45
457.10	7974.79
457.31	8001.41
457.52	7776.14
457.73	8150.92
457.94	8245.12
458.14	7982.98
458.35	8519.55
458.56	8200.07
458.77	8085.38
458.98	8279.94
459.19	8292.23
459.39	8249.22
459.60	8398.72
459.81	8257.41
460.02	8542.08
460.23	8519.55
460.44	8650.62
460.65	8609.66
460.85	8572.80
461.06	8523.65
461.27	8408.96
461.48	8654.72
461.69	8949.62
461.89	8408.96
462.10	8914.81
462.31	8716.16
462.52	8558.46
462.73	8875.90
462.94	9099.13
463.14	8896.38
463.35	8925.05
463.56	9420.66
463.77	9064.31
463.98	9154.42
464.18	9062.26
464.39	9203.57
464.60	9295.73
464.81	9580.40
465.02	9277.30
465.23	9602.93
465.43	9564.01
465.64	9578.35
465.85	9549.68
466.06	9568.11
466.27	9891.69
466.47	9893.74
466.68	9758.57
466.89	9785.19
467.10	9918.31
467.30	9777.00
467.51	9998.18
467.72	10145.64
467.93	10211.17
468.14	10151.78
468.34	10200.93
468.55	10430.30
468.76	10198.88
468.97	10102.63
469.17	10444.64
469.38	10598.24
469.59	10813.28
469.80	10551.14
470.01	10397.54
470.21	10350.43
470.42	10782.56
470.63	11020.12
470.84	10796.89
471.04	11061.08
471.25	11134.81
471.46	10968.92
471.67	11362.13
471.87	11153.24
472.08	11249.49
472.29	11482.96
472.50	11124.57
472.70	11245.40
472.91	11306.84
473.12	11552.59
473.33	11863.88
473.53	11900.75
473.74	11788.11
473.95	11908.94
474.16	12130.12
474.36	11872.07
474.57	12339.01
474.78	12398.40
474.99	12269.38
475.19	12267.33
475.40	12650.30
475.61	12525.38
475.81	12846.91
476.02	13098.81
476.23	12715.84
476.44	12826.43
476.64	13276.98
476.85	13324.08
477.06	13061.94
477.27	13348.66
477.47	13397.81
477.68	13420.34
477.89	13682.48
478.09	13778.73
478.30	13750.06
478.51	13610.80
478.71	13922.09
478.92	14059.31
479.13	14143.27
479.34	14225.19
479.54	14159.66
479.75	14352.16
479.96	14227.24
480.16	14384.93
480.37	14563.11
480.58	14835.49
480.78	14837.53
480.99	14769.95
481.20	15177.50
481.41	15058.71
481.61	15341.33
481.82	15159.06
482.03	15253.27
482.23	15294.23
482.44	15720.21
482.65	15744.78
482.85	16008.97
483.06	16107.27
483.27	16035.60
483.47	15851.28
483.68	16262.92
483.89	16244.49
484.09	16123.66
484.30	16346.89
484.51	16568.07
484.71	16559.88
484.92	16471.81
485.13	16955.13
485.33	16805.63
485.54	16926.46
485.75	17065.72
485.95	17284.86
486.16	17397.49
486.37	17520.37
486.57	17176.31
486.78	17610.48
486.98	17671.92
487.19	17651.44
487.40	17985.26
487.60	17676.02
487.81	18120.43
488.02	18120.43
488.22	18095.85
488.43	18394.86
488.64	18349.80
488.84	18429.67
489.05	18710.24
489.25	18530.02
489.46	18736.87
489.67	18732.77
489.87	19037.92
490.08	19191.52
490.29	18980.57
490.49	19435.22
490.70	19320.54
490.90	19601.11
491.11	19500.76
491.32	19369.69
491.52	19826.39
491.73	19824.34
491.94	19861.20
492.14	20055.76
492.35	20004.56
492.55	20264.65
492.76	20229.84
492.97	20381.38
493.17	20221.64
493.38	20621.00
493.58	20817.60
493.79	20625.09
494.00	20760.26
494.20	20817.60
494.41	20899.52
494.61	21120.70
494.82	21040.83
495.02	21114.56
495.23	21468.86
495.44	21173.95
495.64	21499.58
495.85	21321.40
496.05	21817.01
496.26	21731.00
496.47	21769.91
496.67	21745.33
496.88	22312.62
497.08	21788.34
497.29	22234.80
497.49	22130.35
497.70	22390.44
497.91	22509.22
498.11	22464.17
498.32	22550.18
498.52	22777.51
498.73	22564.52
498.93	22503.08
499.14	22775.46
499.34	22773.41
499.55	23164.57
499.76	22761.12
499.96	23004.83
500.17	23439.00
500.37	23064.22
500.58	23086.75
500.78	23158.43
500.99	23197.34
501.19	23525.02
501.40	23432.86
501.60	23350.94
501.81	23582.36
502.02	23389.85
502.22	23572.12
502.43	23903.89
502.63	24010.39
502.84	24278.67
503.04	24014.48
503.25	23938.71
503.45	24084.11
503.66	24155.79
503.86	23998.10
504.07	24422.03
504.27	24200.85
504.48	24635.02
504.68	24368.78
504.89	24868.48
505.09	24444.56
505.30	24630.92
505.50	24741.51
505.71	24735.37
505.91	24807.05
506.12	24872.58
506.32	24714.89
506.53	24761.99
506.73	25095.81
506.94	25073.28
507.14	24669.83
507.35	25099.90
507.55	25486.97
507.76	25140.86
507.96	25237.12
508.17	24997.51
508.37	25362.04
508.58	25204.35
508.78	25466.49
508.99	25388.67
509.19	25519.74
509.40	25761.40
509.60	25415.29
509.81	25648.76
510.01	25599.61
510.22	25970.29
510.42	25671.29
510.63	25900.66
510.83	25687.67
511.04	26091.12
511.24	26162.80
511.44	26166.90
511.65	26269.30
511.85	26170.99
512.06	26336.88
512.26	26203.76
512.47	26091.12
512.67	26447.47
512.88	26318.45
513.08	26175.09
513.29	26476.14
513.49	26541.68
513.69	26447.47
513.90	26537.58
514.10	26906.21
514.31	26596.97
514.51	26764.90
514.72	26650.22
514.92	26828.39
515.13	26992.23
515.33	26748.52
515.53	26914.41
515.74	26871.40
515.94	27270.75
516.15	27354.72
516.35	26648.17
516.56	27391.58
516.76	27362.91
516.96	27330.14
517.17	27680.35
517.37	27516.51
517.58	27580.00
517.78	27229.79
517.99	27575.90
518.19	27625.05
518.39	27598.43
518.60	28038.74
518.80	27614.81
519.01	28032.60
519.21	27924.05
519.41	28057.17
519.62	28053.08
519.82	27954.77
520.03	28382.80
520.23	27817.56
520.43	28124.75
520.64	28722.76
520.84	28442.19
521.05	28464.72
521.25	28606.03
521.45	28927.56
521.66	28653.13
521.86	28753.48
522.07	28980.81
522.27	28804.68
522.47	28964.42
522.68	29351.49
522.88	29298.24
523.08	29169.22
523.29	29337.15
523.49	29322.82
523.70	29492.80
523.90	29460.03
524.10	29587.00
524.31	29961.78
524.51	29572.67
524.71	30207.54
524.92	29806.14
525.12	30078.52
525.33	30148.15
525.53	30557.74
525.73	30664.24
525.94	30529.07
526.14	30713.39
526.34	30613.04
526.55	30688.81
526.75	30676.52
526.95	31231.52
527.16	30912.04
527.36	31157.80
527.56	31481.38
527.77	31161.89
527.97	31305.25
528.17	31241.76
528.38	31241.76
528.58	31303.20
528.78	31608.35
528.99	31567.39
529.19	31931.93
529.39	31731.23
529.60	32116.25
529.80	32179.73
530.00	32038.42
530.21	32333.33
530.41	32800.27
530.61	32441.87
530.82	32398.87
531.02	32673.29
531.22	32740.88
531.43	32968.20
531.63	33031.69
531.83	33084.94
532.04	33498.62
532.24	32769.55
532.44	33838.59
532.64	33684.99
532.85	33576.45
533.05	33953.27
533.25	33910.27
533.46	33830.40
533.66	34106.87
533.86	33992.19
534.07	34280.95
534.27	34131.45
534.47	34444.79
534.67	34686.45
534.88	34493.94
535.08	34665.97
535.28	34846.19
535.49	35048.94
535.69	35139.05
535.89	34934.25
536.09	35304.93
536.30	35986.91
536.50	35771.87
536.70	35669.47
536.91	35794.40
537.11	35849.69
537.31	35960.28
537.51	35907.04
537.72	36230.62
537.92	36582.87
538.12	36474.32
538.32	36216.28
538.53	36658.64
538.73	36617.68
538.93	36672.98
539.13	36509.14
539.34	36885.97
539.54	36767.18
539.74	37039.56
539.94	37283.27
540.15	36808.14
540.35	37129.67
540.55	37201.35
540.75	37680.58
540.96	37406.15
541.16	37582.27
541.36	37588.42
541.56	37608.90
541.77	38086.07
541.97	37975.48
542.17	38131.13
542.37	38086.07
542.58	38073.79
542.78	38018.49
542.98	37924.29
543.18	38444.47
543.38	38600.12
543.59	38499.76
543.79	38362.55
543.99	38405.56
544.19	38442.42
544.40	38892.97
544.60	39183.79
544.80	38890.93
545.00	38856.11
545.20	39466.41
545.41	39474.60
545.61	39212.46
545.81	39689.63
546.01	39335.34
546.21	39206.31
546.42	39345.58
546.62	39757.22
546.82	39855.52
547.02	39718.31
547.22	39693.73
547.43	39546.28
547.63	39824.80
547.83	39939.49
548.03	39712.16
548.23	40248.73
548.44	39863.71
548.64	40316.31
548.84	40316.31
549.04	39974.30
549.24	40478.10
549.45	40953.23
549.65	39734.69
549.85	40029.60
550.05	40854.93
550.25	40228.25
550.45	40723.86
550.66	40754.58
550.86	40633.75
551.06	40752.53
551.26	40783.25
551.46	40826.26
551.66	40990.09
551.87	41305.48
552.07	41172.36
552.27	41104.78
552.47	41250.19
552.67	40854.93
552.87	41373.06
553.07	41125.26
553.28	41295.24
553.48	41235.85
553.68	41084.30
553.88	42055.04
554.08	41731.46
554.28	41569.67
554.48	41008.53
554.69	41823.62
554.89	41811.33
555.09	42030.46
555.29	41364.87
555.49	41522.57
555.69	41680.26
555.89	41964.93
556.10	41907.58
556.30	41741.70
556.50	41819.52
556.70	42145.15
556.90	41907.58
557.10	42347.90
557.30	41512.33
557.50	42321.27
557.70	42046.85
557.91	42356.09
558.11	41803.14
558.31	42487.16
558.51	42067.33
558.71	42165.63
558.91	42159.48
559.11	42007.94
559.31	42270.08
559.51	41860.48
559.72	42507.64
559.92	42339.71
560.12	42098.05
560.32	42368.38
560.52	42079.61
560.72	42554.74
560.92	42962.29
561.12	42636.66
561.32	42800.50
561.52	42270.08
561.72	42954.10
561.93	42341.75
562.13	42585.46
562.33	42415.48
562.53	43099.50
562.73	42390.91
562.93	42601.85
563.13	42665.33
563.33	42505.59
563.53	43302.25
563.73	42235.26
563.93	42626.42
564.13	43449.70
564.33	42880.37
564.53	42997.10
564.74	43050.35
564.94	42601.85
565.14	42882.42
565.34	42694.00
565.54	42818.93
565.74	43162.99
565.94	43138.41
566.14	43261.29
566.34	42567.03
566.54	43685.22
566.74	42950.00
566.94	43386.22
567.14	43304.30
567.34	43162.99
567.54	43414.89
567.74	43259.24
567.94	43220.33
568.14	43617.64
568.34	43511.14
568.54	43439.47
568.74	43556.20
568.94	43097.45
569.14	43685.22
569.34	43527.53
569.54	43412.84
569.75	43183.47
569.95	43375.98
570.15	43830.63
570.35	43464.04
570.55	43588.97
570.75	43701.61
570.95	43750.76
571.15	43687.27
571.35	43492.71
571.55	43949.41
571.75	44012.90
571.95	43683.17
572.15	43717.99
572.35	44160.35
572.55	43941.22
572.75	43750.76
572.95	43275.63
573.15	43525.48
573.35	44227.93
573.55	44199.26
573.75	44254.56
573.95	44279.13
574.15	44469.59
574.35	44021.09
574.55	44150.11
574.75	44008.80
574.95	44266.84
575.15	44305.76
575.34	44397.91
575.54	44221.79
575.74	44838.23
575.94	44987.73
576.14	44537.18
576.34	44574.04
576.54	45061.46
576.74	44422.49
576.94	45102.42
577.14	44846.42
577.34	45213.01
577.54	44875.09
577.74	44957.01
577.94	44952.91
578.14	44840.28
578.34	44895.57
578.54	44750.17
578.74	44967.25
578.94	45256.01
579.14	45317.45
579.34	45071.70
579.54	45348.17
579.74	45489.48
579.94	45667.66
580.13	45708.61
580.33	45737.29
580.53	45620.55
580.73	46161.22
580.93	46007.62
581.13	45679.94
581.33	46265.66
581.53	46089.54
581.73	46343.48
581.93	45944.13
582.13	46302.53
582.33	46355.77
582.53	46161.22
582.73	46189.89
582.92	46333.24
583.12	46732.60
583.32	46417.21
583.52	46517.56
583.72	46437.69
583.92	46273.85
584.12	46574.91
584.32	47172.91
584.52	47054.13
584.72	46974.26
584.92	46841.14
585.11	47461.68
585.31	47269.17
585.51	46832.95
585.71	47074.61
585.91	47562.03
586.11	47158.58
586.31	46806.33
586.51	47297.84
586.71	47707.43
586.91	47877.41
587.10	47447.34
587.30	47971.62
587.50	48035.11
587.70	47953.19
587.90	48004.39
588.10	48217.38
588.30	48002.34
588.50	48287.01
588.69	48094.50
