SpectraSuite Data File
++++++++++++++++++++++++++++++++++++
Date: Fri Jun 02 14:49:26 CEST 2017
User: INFO_000
Dark Spectrum Present: No
Reference Spectrum Present: No
Number of Sampled Component Spectra: 1
Spectrometers: USB4H00879
Integration Time (usec): 80000 (USB4H00879)
Spectra Averaged: 1 (USB4H00879)
Boxcar Smoothing: 0 (USB4H00879)
Correct for Electrical Dark: No (USB4H00879)
Strobe/Lamp Enabled: No (USB4H00879)
Correct for Detector Non-linearity: No (USB4H00879)
Correct for Stray Light: No (USB4H00879)
Number of Pixels in Processed Spectrum: 3648
>>>>>Begin Processed Spectral Data<<<<<
345.13	1249.26
345.34	1249.26
345.56	1249.26
345.78	1302.51
345.99	1296.36
346.21	1669.09
346.42	1726.44
346.64	1683.43
346.86	1808.36
347.07	1593.32
347.29	1675.24
347.50	1552.36
347.72	1697.77
347.94	1740.77
348.15	1509.35
348.37	1617.90
348.59	1740.77
348.80	1703.91
349.02	1775.59
349.23	1929.19
349.45	1814.50
349.67	1949.67
349.88	1818.60
350.10	1916.90
350.31	1804.26
350.53	1806.31
350.75	1984.48
350.96	1771.49
351.18	1904.61
351.39	1845.22
351.61	1775.59
351.82	1880.04
352.04	1871.84
352.26	1849.32
352.47	1875.94
352.69	1884.13
352.90	1687.53
353.12	1826.79
353.34	1877.99
353.55	1918.95
353.77	1951.71
353.98	1740.77
354.20	1877.99
354.41	1855.46
354.63	1937.38
354.85	2015.20
355.06	1902.56
355.28	1822.69
355.49	1863.65
355.71	1927.14
355.92	1808.36
356.14	1902.56
356.35	1884.13
356.57	1853.41
356.79	1845.22
357.00	1861.60
357.22	1990.63
357.43	1845.22
357.65	1980.39
357.86	1828.84
358.08	1918.95
358.29	1970.15
358.51	1945.57
358.72	1953.76
358.94	1953.76
359.16	1941.47
359.37	1923.04
359.59	1894.37
359.80	2013.15
360.02	1943.52
360.23	2009.06
360.45	1978.34
360.66	1951.71
360.88	1933.28
361.09	1920.99
361.31	2009.06
361.52	1982.43
361.74	2113.50
361.95	2066.40
362.17	1984.48
362.38	2027.49
362.60	2009.06
362.81	2007.01
363.03	1867.75
363.24	1959.91
363.46	2000.87
363.67	2002.91
363.89	1945.57
364.10	2013.15
364.32	1959.91
364.53	2052.06
364.75	1925.09
364.96	1955.81
365.18	2080.74
365.39	2039.78
365.61	1933.28
365.82	2125.79
366.04	1904.61
366.25	1937.38
366.47	2013.15
366.68	2093.02
366.90	1988.58
367.11	2117.60
367.33	2152.42
367.54	2019.30
367.76	2033.63
367.97	2138.08
368.19	2090.98
368.40	2052.06
368.62	2041.82
368.83	1982.43
369.05	2097.12
369.26	2035.68
369.48	1951.71
369.69	1925.09
369.91	2119.65
370.12	1966.05
370.33	2142.18
370.55	2043.87
370.76	2031.58
370.98	2129.89
371.19	2105.31
371.41	2123.74
371.62	2041.82
371.84	1945.57
372.05	2142.18
372.27	2045.92
372.48	2064.35
372.69	2066.40
372.91	2121.70
373.12	2140.13
373.34	2052.06
373.55	2080.74
373.77	2080.74
373.98	2064.35
374.20	2265.05
374.41	2256.86
374.62	2086.88
374.84	2138.08
375.05	2197.47
375.27	2226.14
375.48	2205.66
375.70	2123.74
375.91	2160.61
376.12	2297.82
376.34	2199.52
376.55	2174.94
376.77	2191.33
376.98	2027.49
377.19	2109.41
377.41	2127.84
377.62	2197.47
377.84	2170.85
378.05	2400.22
378.27	2185.18
378.48	2279.39
378.69	2357.21
378.91	2242.53
379.12	2187.23
379.34	2144.22
379.55	2185.18
379.76	2254.81
379.98	2179.04
380.19	2236.38
380.41	2316.25
380.62	2260.96
380.83	2236.38
381.05	2127.84
381.26	2326.49
381.47	2279.39
381.69	2275.29
381.90	2486.23
382.12	2342.88
382.33	2176.99
382.54	2248.67
382.76	2273.25
382.97	2295.77
383.19	2185.18
383.40	2422.75
383.61	2295.77
383.83	2232.29
384.04	2299.87
384.25	2371.55
384.47	2330.59
384.68	2369.50
384.89	2291.68
385.11	2297.82
385.32	2287.58
385.54	2385.88
385.75	2365.40
385.96	2344.92
386.18	2344.92
386.39	2402.27
386.60	2369.50
386.82	2469.85
387.03	2478.04
387.24	2459.61
387.46	2363.36
387.67	2537.43
387.88	2451.42
388.10	2455.51
388.31	2475.99
388.52	2488.28
388.74	2510.81
388.95	2555.86
389.16	2449.37
389.38	2516.95
389.59	2605.02
389.80	2547.67
390.02	2545.63
390.23	2615.26
390.44	2506.71
390.66	2496.47
390.87	2498.52
391.08	2602.97
391.30	2709.46
391.51	2621.40
391.72	2656.22
391.94	2617.30
392.15	2541.53
392.36	2510.81
392.58	2549.72
392.79	2699.22
393.00	2818.00
393.22	2691.03
393.43	2789.33
393.64	2797.53
393.85	2787.29
394.07	2672.60
394.28	2768.85
394.49	2756.57
394.71	2721.75
394.92	2906.07
395.13	2699.22
395.35	2858.96
395.56	2854.87
395.77	2793.43
395.98	2785.24
396.20	2826.20
396.41	2861.01
396.62	2858.96
396.84	2721.75
397.05	2818.00
397.26	2815.96
397.47	2861.01
397.69	2869.20
397.90	2979.79
398.11	2959.31
398.32	2887.64
398.54	2760.66
398.75	2871.25
398.96	2895.83
399.18	3035.09
399.39	2957.27
399.60	2887.64
399.81	2920.40
400.03	2977.75
400.24	3254.22
400.45	2920.40
400.66	3004.37
400.88	2953.17
401.09	3057.62
401.30	3065.81
401.51	3069.91
401.73	2998.23
401.94	3088.34
402.15	3028.95
402.36	3131.34
402.58	3209.17
402.79	3110.86
403.00	3041.23
403.21	3117.01
403.43	3112.91
403.64	3200.98
403.85	3151.82
404.06	3166.16
404.27	3037.14
404.49	3280.85
404.70	3147.73
404.91	3332.05
405.12	3217.36
405.34	3135.44
405.55	3327.95
405.76	3149.78
405.97	3252.17
406.19	3301.33
406.40	3237.84
406.61	3286.99
406.82	3166.16
407.03	3262.41
407.25	3198.93
407.46	3338.19
407.67	3459.02
407.88	3330.00
408.09	3239.89
408.31	3270.61
408.52	3303.37
408.73	3311.57
408.94	3342.28
409.15	3409.87
409.37	3530.70
409.58	3563.47
409.79	3555.27
410.00	3479.50
410.21	3418.06
410.43	3463.12
410.64	3397.58
410.85	3489.74
411.06	3493.83
411.27	3436.49
411.48	3598.28
411.70	3551.18
411.91	3475.40
412.12	3678.15
412.33	3583.95
412.54	3573.71
412.76	3694.54
412.97	3641.29
413.18	3532.75
413.39	3620.81
413.60	3710.92
413.81	3604.42
414.03	3506.12
414.24	3698.63
414.45	3805.13
414.66	3510.22
414.87	3674.06
415.08	3698.63
415.30	3633.10
415.51	3729.35
415.72	3805.13
415.93	3721.16
416.14	3796.93
416.35	3776.45
416.56	3854.28
416.78	3907.52
416.99	3835.85
417.20	3733.45
417.41	3864.52
417.62	3827.65
417.83	3919.81
418.04	3870.66
418.26	3917.76
418.47	3907.52
418.68	3889.09
418.89	4030.40
419.10	4042.69
419.31	3911.62
419.52	3977.16
419.73	3858.37
419.95	3989.44
420.16	4020.16
420.37	3874.76
420.58	4059.07
420.79	3858.37
421.00	4024.26
421.21	4122.56
421.42	4048.83
421.63	4114.37
421.85	4214.72
422.06	4237.25
422.27	4280.25
422.48	3999.68
422.69	4175.81
422.90	4296.64
423.11	4087.75
423.32	4280.25
423.53	4343.74
423.75	4263.87
423.96	4458.43
424.17	4362.17
424.38	4478.91
424.59	4401.08
424.80	4548.54
425.01	4509.63
425.22	4460.48
425.43	4280.25
425.64	4589.50
425.85	4630.46
426.06	4437.95
426.28	4425.66
426.49	4497.34
426.70	4407.23
426.91	4571.07
427.12	4636.60
427.33	4726.71
427.54	4652.98
427.75	4700.09
427.96	4845.49
428.17	4765.62
428.38	4818.87
428.59	4820.92
428.80	4753.34
429.01	4827.06
429.23	4767.67
429.44	5066.67
429.65	5011.38
429.86	4853.69
430.07	4804.53
430.28	4896.69
430.49	4917.17
430.70	5081.01
430.91	5078.96
431.12	5029.81
431.33	5189.55
431.54	5081.01
431.75	5132.21
431.96	5019.57
432.17	5025.72
432.38	5046.20
432.59	5308.34
432.80	5234.61
433.01	5160.88
433.22	5244.85
433.43	5261.23
433.64	5058.48
433.85	5316.53
434.06	5316.53
434.27	5265.33
434.49	5390.25
434.70	5361.58
434.91	5377.97
435.12	5408.69
435.33	5357.49
435.54	5457.84
435.75	5267.38
435.96	5502.89
436.17	5291.95
436.38	5572.52
436.59	5472.17
436.80	5521.32
437.01	5697.45
437.22	5601.19
437.43	5613.48
437.64	5427.12
437.85	5781.42
438.06	5697.45
438.27	5463.98
438.48	5566.38
438.69	5783.46
438.90	5742.50
439.11	5648.30
439.32	5881.77
439.53	5711.78
439.74	5877.67
439.95	5851.05
440.16	5611.43
440.37	5820.33
440.57	5638.06
440.78	5914.53
440.99	5818.28
441.20	5908.39
441.41	5652.39
441.62	5963.68
441.83	5779.37
442.04	6010.79
442.25	5959.59
442.46	5857.19
442.67	6051.75
442.88	6393.76
443.09	5904.29
443.30	6131.62
443.51	6098.85
443.72	6145.95
443.93	6023.08
444.14	6426.53
444.35	6131.62
444.56	6148.00
444.77	6141.86
444.98	6244.26
445.19	6338.46
445.40	6334.37
445.61	6469.53
445.81	6375.33
446.02	6447.01
446.23	6293.41
446.44	6160.29
446.65	6358.94
446.86	6401.95
447.07	6602.65
447.28	6729.63
447.49	6676.38
447.70	6344.61
447.91	6594.46
448.12	6580.12
448.33	6737.82
448.54	6764.44
448.74	6573.98
448.95	6709.15
449.16	6643.61
449.37	7114.64
449.58	6625.18
449.79	6893.46
450.00	6741.91
450.21	6938.52
450.42	6975.38
450.63	7026.58
450.84	6959.00
451.05	6999.96
451.25	6875.03
451.46	6918.04
451.67	7153.55
451.88	7026.58
452.09	7020.44
452.30	7147.41
452.51	7102.36
452.72	7266.19
452.93	7346.06
453.13	6975.38
453.34	7155.60
453.55	7214.99
453.76	7296.91
453.97	7409.55
454.18	7335.82
454.39	7581.58
454.60	7438.22
454.81	7270.29
455.01	7626.64
455.22	7370.64
455.43	7565.20
455.64	7794.57
455.85	7755.66
456.06	7853.96
456.27	7999.37
456.48	7581.58
456.68	7788.43
456.89	7833.48
457.10	8038.28
457.31	7944.07
457.52	7933.83
457.73	8064.90
457.94	8007.56
458.14	7810.95
458.35	8273.79
458.56	8062.85
458.77	8095.62
458.98	8337.28
459.19	8146.82
459.39	8507.26
459.60	8474.49
459.81	8224.64
460.02	8540.03
460.23	8388.48
460.44	8632.19
460.65	8707.96
460.85	8589.18
461.06	8902.52
461.27	8390.53
461.48	8994.68
461.69	8966.01
461.89	8671.10
462.10	8896.38
462.31	8554.37
462.52	8777.59
462.73	8773.50
462.94	9164.66
463.14	8963.96
463.35	9043.83
463.56	9537.39
463.77	9281.39
463.98	9160.56
464.18	9203.57
464.39	9398.13
464.60	9447.28
464.81	9498.48
465.02	9478.00
465.23	9824.11
465.43	9492.34
465.64	9881.45
465.85	9729.90
466.06	9602.93
466.27	9963.37
466.47	10037.09
466.68	10057.57
466.89	9926.50
467.10	10022.76
467.30	9860.97
467.51	10250.08
467.72	10530.66
467.93	10022.76
468.14	10307.43
468.34	10321.76
468.55	10516.32
468.76	10297.19
468.97	10471.26
469.17	10671.97
469.38	10719.07
469.59	10772.32
469.80	10631.01
470.01	10594.14
470.21	10735.45
470.42	10977.11
470.63	11046.74
470.84	10966.87
471.04	11097.94
471.25	11130.71
471.46	11087.70
471.67	11376.47
471.87	11425.62
472.08	11474.77
472.29	11663.18
472.50	11364.18
472.70	11509.58
472.91	11544.40
473.12	11761.48
473.33	11741.00
473.53	12144.45
473.74	11859.79
473.95	12072.78
474.16	12089.16
474.36	12234.57
474.57	12353.35
474.78	12404.55
474.99	12455.75
475.19	12281.67
475.40	12717.89
475.61	12830.52
475.81	12812.09
476.02	13059.90
476.23	12709.69
476.44	12844.86
476.64	13322.04
476.85	13582.13
477.06	13270.84
477.27	13520.69
477.47	13539.12
477.68	13352.76
477.89	13561.65
478.09	13745.97
478.30	13911.85
478.51	13772.59
478.71	13774.64
478.92	14157.61
479.13	14141.22
479.34	14323.49
479.54	14370.60
479.75	14495.52
479.96	14495.52
480.16	14513.95
480.37	14714.66
480.58	14567.20
480.78	14929.69
480.99	14923.55
481.20	15058.71
481.41	15265.56
481.61	15312.66
481.82	15441.68
482.03	15310.61
482.23	15449.88
482.44	15533.84
482.65	15666.96
482.85	15687.44
483.06	15611.67
483.27	15890.19
483.47	15972.11
483.68	16217.86
483.89	15965.96
484.09	15994.64
484.30	16103.18
484.51	16195.34
484.71	16736.00
484.92	16510.72
485.13	16400.13
485.33	16756.48
485.54	16805.63
485.75	17014.52
485.95	17159.93
486.16	17198.84
486.37	17403.64
486.57	17102.59
486.78	17309.43
486.98	17596.15
487.19	17641.20
487.40	17673.97
487.60	17755.89
487.81	17788.66
488.02	18112.24
488.22	17897.20
488.43	18124.52
488.64	18118.38
488.84	18200.30
489.05	18550.50
489.25	18245.35
489.46	18880.22
489.67	18525.93
489.87	18747.11
490.08	18716.39
490.29	18679.52
490.49	19185.37
490.70	19207.90
490.90	19281.63
491.11	19044.06
491.32	19322.59
491.52	19453.66
491.73	19654.36
491.94	19656.40
492.14	19574.49
492.35	19924.69
492.55	19889.87
492.76	20008.65
492.97	20125.39
493.17	20111.05
493.38	20145.87
493.58	20557.51
493.79	20672.20
494.00	20557.51
494.20	20723.40
494.41	20764.36
494.61	20793.03
494.82	20817.60
495.02	20784.83
495.23	20850.37
495.44	21137.09
495.64	21431.99
495.85	21257.92
496.05	21362.36
496.26	21368.51
496.47	21806.77
496.67	21565.11
496.88	22034.10
497.08	21706.42
497.29	21702.32
497.49	21956.27
497.70	22275.76
497.91	22224.56
498.11	22324.91
498.32	22095.53
498.52	22539.94
498.73	22888.10
498.93	22562.47
499.14	22552.23
499.34	22965.92
499.55	22900.39
499.76	22634.15
499.96	22875.81
500.17	22912.67
500.37	22873.76
500.58	23051.94
500.78	22959.78
500.99	23330.46
501.19	23533.21
501.40	23531.16
501.60	23187.10
501.81	23520.92
502.02	23506.59
502.22	23451.29
502.43	23668.37
502.63	23817.88
502.84	24135.31
503.04	24020.63
503.25	23963.28
503.45	23916.18
503.66	24436.36
503.86	24209.04
504.07	24585.86
504.27	24243.85
504.48	24837.76
504.68	24460.94
504.89	25013.89
505.09	24960.64
505.30	24610.44
505.50	24977.03
505.71	25110.14
505.91	24923.78
506.12	24755.85
506.32	25198.21
506.53	25063.04
506.73	25063.04
506.94	25185.92
507.14	25548.41
507.35	25384.57
507.55	25736.82
507.76	25556.60
507.96	25452.16
508.17	25423.48
508.37	25181.82
508.58	25523.83
508.78	25609.85
508.99	25982.58
509.19	25802.36
509.40	26234.48
509.60	25880.18
509.81	26158.70
510.01	26062.45
510.22	25982.58
510.42	26257.01
510.63	26140.27
510.83	26111.60
511.04	26416.75
511.24	26279.54
511.44	26371.69
511.65	26502.76
511.85	26590.83
512.06	26664.55
512.26	26945.12
512.47	26625.64
512.67	26836.58
512.88	26824.29
513.08	26930.79
513.29	27061.86
513.49	27035.24
513.69	26877.54
513.90	27070.05
514.10	27065.96
514.31	27082.34
514.51	27176.55
514.72	27012.71
514.92	27364.96
515.13	27483.74
515.33	27881.05
515.53	27420.25
515.74	27342.43
515.94	27758.17
516.15	27555.42
516.35	27596.38
516.56	27676.25
516.76	27594.33
516.96	28016.21
517.17	28229.20
517.37	28067.41
517.58	28094.04
517.78	28085.84
517.99	27919.96
518.19	28380.75
518.39	28339.79
518.60	28509.77
518.80	28423.76
519.01	28653.13
519.21	28139.09
519.41	28560.97
519.62	28587.60
519.82	28354.13
520.03	28669.51
520.23	28896.84
520.43	28868.17
520.64	29066.82
520.84	28722.76
521.05	29181.51
521.25	29230.66
521.45	29204.03
521.66	29152.84
521.86	29044.29
522.07	29388.35
522.27	29437.50
522.47	29269.57
522.68	29689.40
522.88	29445.69
523.08	29804.09
523.29	29595.20
523.49	29867.58
523.70	29793.85
523.90	30305.84
524.10	30154.29
524.31	30203.44
524.51	30037.56
524.71	30365.23
524.92	30127.67
525.12	30492.21
525.33	30398.00
525.53	30451.25
525.73	30813.74
525.94	30697.00
526.14	30787.11
526.34	30873.13
526.55	30959.14
526.75	30789.16
526.95	31170.08
527.16	31315.49
527.36	31190.56
527.56	31389.22
527.77	31751.71
527.97	31788.57
528.17	31342.11
528.38	31522.34
528.58	31708.70
528.78	31569.44
528.99	31249.96
529.19	32181.78
529.39	31784.48
529.60	32290.32
529.80	32130.58
530.00	32140.82
530.21	32411.15
530.41	32499.22
530.61	32497.17
530.82	32511.50
531.02	32618.00
531.22	32990.73
531.43	32706.06
531.63	32630.29
531.83	32925.19
532.04	33228.29
532.24	33031.69
532.44	33308.16
532.64	33732.09
532.85	33730.05
533.05	33201.67
533.25	33785.34
533.46	33668.61
533.66	34309.62
533.86	33709.57
534.07	34010.62
534.27	34080.25
534.47	34262.52
534.67	34260.47
534.88	34143.74
535.08	34432.50
535.28	34262.52
535.49	34489.84
535.69	34913.77
535.89	34895.34
536.09	35079.66
536.30	35198.44
536.50	35165.67
536.70	35259.88
536.91	35116.52
537.11	35030.51
537.31	35313.13
537.51	35239.40
537.72	35589.60
537.92	35644.90
538.12	35755.49
538.32	35837.41
538.53	36310.49
538.73	36029.91
538.93	35997.15
539.13	36455.89
539.34	36308.44
539.54	36029.91
539.74	36705.74
539.94	36740.56
540.15	36324.82
540.35	36668.88
540.55	36546.00
540.75	36781.52
540.96	36941.26
541.16	36951.50
541.36	37035.47
541.56	37051.85
541.77	37307.85
541.97	37363.14
542.17	37260.74
542.37	37451.20
542.58	37445.06
542.78	37121.48
542.98	37545.41
543.18	37615.04
543.38	38116.79
543.59	38067.64
543.79	37848.51
543.99	37643.71
544.19	38233.53
544.40	38229.43
544.60	38167.99
544.80	38231.48
545.00	38247.86
545.20	38606.26
545.41	38196.67
545.61	38540.72
545.81	38485.43
546.01	38655.41
546.21	38766.00
546.42	38722.99
546.62	38882.73
546.82	38727.09
547.02	39097.77
547.22	38825.39
547.43	39198.12
547.63	39136.68
547.83	39429.54
548.03	39114.16
548.23	39583.14
548.44	39425.45
548.64	39695.78
548.84	39802.27
549.04	39544.23
549.24	39787.94
549.45	39884.19
549.65	39976.35
549.85	39732.64
550.05	40557.97
550.25	39978.40
550.45	40283.55
550.66	40091.04
550.86	39890.34
551.06	40723.86
551.26	40451.48
551.46	40809.87
551.66	40594.84
551.87	40899.98
552.07	40447.38
552.27	40760.72
552.47	40801.68
552.67	40922.51
552.87	40736.15
553.07	40899.98
553.28	41239.95
553.48	40945.04
553.68	40998.29
553.88	41307.53
554.08	41278.86
554.28	41129.36
554.48	41115.02
554.69	41244.04
554.89	41426.31
555.09	41176.46
555.29	41184.65
555.49	41569.67
555.69	41551.24
555.89	41676.16
556.10	41751.94
556.30	41659.78
556.50	42012.03
556.70	41694.60
556.90	41897.34
557.10	42423.67
557.30	41977.22
557.50	41905.54
557.70	41764.23
557.91	42065.28
558.11	41923.97
558.31	42417.53
558.51	42231.16
558.71	42370.43
558.91	42384.76
559.11	42296.70
559.31	42702.20
559.51	42429.82
559.72	42255.74
559.92	42454.39
560.12	42607.99
560.32	42775.92
560.52	42694.00
560.72	42640.76
560.92	42999.15
561.12	42718.58
561.32	43328.87
561.52	43040.11
561.72	43234.67
561.93	42900.85
562.13	42876.27
562.33	42681.72
562.53	43287.92
562.73	42982.77
562.93	43398.51
563.13	43560.30
563.33	43050.35
563.53	43615.59
563.73	42644.85
563.93	43347.31
564.13	43795.81
564.33	43074.93
564.53	43287.92
564.74	43613.54
564.94	43234.67
565.14	43765.09
565.34	43306.35
565.54	43490.66
565.74	43603.30
565.94	43890.02
566.14	43996.51
566.34	43621.73
566.54	44168.54
566.74	43728.23
566.94	43859.30
567.14	43920.74
567.34	43822.44
567.54	44275.04
567.74	43963.75
567.94	43732.32
568.14	44045.66
568.34	44156.25
568.54	43978.08
568.74	44240.22
568.94	44397.91
569.14	44961.11
569.34	44316.00
569.54	44367.20
569.75	43939.17
569.95	44318.04
570.15	44772.69
570.35	44283.23
570.55	44412.25
570.75	44672.34
570.95	44809.56
571.15	44440.92
571.35	44662.10
571.55	44748.12
571.75	44617.05
571.95	44655.96
572.15	44307.80
572.35	45071.70
572.55	44606.81
572.75	44787.03
572.95	44922.19
573.15	45022.54
573.35	44559.70
573.55	44864.85
573.75	44965.20
573.95	45163.85
574.15	45043.02
574.35	45528.39
574.55	45198.67
574.75	45176.14
574.95	45450.57
575.15	45376.84
575.34	45350.22
575.54	46044.48
575.74	45847.88
575.94	45821.25
576.14	45466.95
576.34	45657.42
576.54	45944.13
576.74	45940.04
576.94	45770.05
577.14	45778.25
577.34	45968.71
577.54	45542.73
577.74	45880.64
577.94	45751.62
578.14	46087.49
578.34	46341.44
578.54	45505.87
578.74	45659.46
578.94	46239.04
579.14	45899.08
579.34	46099.78
579.54	46001.47
579.74	46366.01
579.94	46380.35
580.13	46538.04
580.33	46067.01
580.53	46558.52
580.73	46978.36
580.93	46601.53
581.13	46841.14
581.33	46658.87
581.53	46880.05
581.73	47093.04
581.93	47109.43
582.13	46783.80
582.33	47025.46
582.53	47076.66
582.73	47490.35
582.92	47342.89
583.12	47064.37
583.32	47566.12
583.52	46835.00
583.72	47590.70
583.92	47037.75
584.12	47605.03
584.32	47498.54
584.52	47445.29
584.72	47443.24
584.92	47813.93
585.11	47717.67
585.31	47627.56
585.51	47643.94
585.71	47645.99
585.91	47701.29
586.11	47650.09
586.31	47543.59
586.51	47787.30
586.71	47856.93
586.91	47914.28
587.10	48051.49
587.30	48135.46
587.50	48293.15
587.70	47805.73
587.90	48141.60
588.10	48377.12
588.30	48672.03
588.50	48682.27
