SpectraSuite Data File
++++++++++++++++++++++++++++++++++++
Date: Fri Jun 02 14:49:30 CEST 2017
User: INFO_000
Dark Spectrum Present: No
Reference Spectrum Present: No
Number of Sampled Component Spectra: 1
Spectrometers: USB4H00879
Integration Time (usec): 80000 (USB4H00879)
Spectra Averaged: 1 (USB4H00879)
Boxcar Smoothing: 0 (USB4H00879)
Correct for Electrical Dark: No (USB4H00879)
Strobe/Lamp Enabled: No (USB4H00879)
Correct for Detector Non-linearity: No (USB4H00879)
Correct for Stray Light: No (USB4H00879)
Number of Pixels in Processed Spectrum: 3648
>>>>>Begin Processed Spectral Data<<<<<
345.13	1261.55
345.34	1261.55
345.56	1261.55
345.78	1310.70
345.99	1355.76
346.21	1736.68
346.42	1648.61
346.64	1656.81
346.86	1775.59
347.07	1654.76
347.29	1687.53
347.50	1648.61
347.72	1716.20
347.94	1802.21
348.15	1589.22
348.37	1566.70
348.59	1652.71
348.80	1669.09
349.02	1755.11
349.23	1843.17
349.45	1798.12
349.67	1902.56
349.88	1863.65
350.10	1955.81
350.31	1804.26
350.53	1779.68
350.75	1968.10
350.96	1769.44
351.18	1875.94
351.39	1857.51
351.61	1841.12
351.82	1990.63
352.04	1896.42
352.26	1847.27
352.47	1912.80
352.69	1847.27
352.90	1738.73
353.12	1929.19
353.34	1869.80
353.55	1894.37
353.77	1902.56
353.98	1757.16
354.20	1826.79
354.41	1945.57
354.63	1978.34
354.85	1972.19
355.06	1845.22
355.28	1863.65
355.49	1951.71
355.71	1871.84
355.92	1847.27
356.14	1933.28
356.35	1863.65
356.57	1861.60
356.79	1974.24
357.00	1877.99
357.22	1994.72
357.43	1906.66
357.65	1968.10
357.86	1775.59
358.08	1949.67
358.29	1935.33
358.51	1949.67
358.72	1945.57
358.94	1908.71
359.16	1986.53
359.37	1964.00
359.59	1937.38
359.80	2023.39
360.02	1953.76
360.23	1898.47
360.45	1994.72
360.66	1873.89
360.88	1976.29
361.09	1892.32
361.31	1994.72
361.52	1880.04
361.74	2060.26
361.95	2045.92
362.17	1961.95
362.38	2107.36
362.60	2004.96
362.81	2004.96
363.03	1918.95
363.24	2035.68
363.46	2101.22
363.67	2007.01
363.89	1986.53
364.10	2019.30
364.32	1964.00
364.53	1998.82
364.75	1961.95
364.96	1996.77
365.18	1984.48
365.39	1972.19
365.61	1880.04
365.82	2084.83
366.04	1990.63
366.25	1902.56
366.47	2101.22
366.68	2054.11
366.90	1949.67
367.11	2023.39
367.33	2068.45
367.54	2082.78
367.76	2011.11
367.97	2103.26
368.19	2072.54
368.40	2070.50
368.62	2000.87
368.83	2000.87
369.05	2025.44
369.26	2023.39
369.48	1925.09
369.69	2009.06
369.91	2043.87
370.12	2004.96
370.33	2103.26
370.55	1996.77
370.76	2068.45
370.98	2058.21
371.19	2052.06
371.41	1978.34
371.62	2090.98
371.84	2015.20
372.05	2164.70
372.27	2056.16
372.48	2056.16
372.69	2066.40
372.91	2066.40
373.12	2232.29
373.34	2072.54
373.55	2084.83
373.77	2168.80
373.98	2142.18
374.20	2131.94
374.41	2263.01
374.62	2082.78
374.84	2121.70
375.05	2199.52
375.27	2189.28
375.48	2277.34
375.70	2164.70
375.91	2215.90
376.12	2346.97
376.34	2189.28
376.55	2187.23
376.77	2166.75
376.98	2052.06
377.19	2166.75
377.41	2131.94
377.62	2242.53
377.84	2297.82
378.05	2271.20
378.27	2174.94
378.48	2281.44
378.69	2404.32
378.91	2316.25
379.12	2314.20
379.34	2166.75
379.55	2220.00
379.76	2336.73
379.98	2207.71
380.19	2275.29
380.41	2224.09
380.62	2265.05
380.83	2199.52
381.05	2242.53
381.26	2346.97
381.47	2205.66
381.69	2166.75
381.90	2449.37
382.12	2297.82
382.33	2283.49
382.54	2303.96
382.76	2238.43
382.97	2254.81
383.19	2289.63
383.40	2349.02
383.61	2303.96
383.83	2228.19
384.04	2314.20
384.25	2265.05
384.47	2428.89
384.68	2369.50
384.89	2342.88
385.11	2334.68
385.32	2330.59
385.54	2367.45
385.75	2371.55
385.96	2414.56
386.18	2396.12
386.39	2396.12
386.60	2275.29
386.82	2357.21
387.03	2494.43
387.24	2465.75
387.46	2432.99
387.67	2467.80
387.88	2502.62
388.10	2484.19
388.31	2590.68
388.52	2545.63
388.74	2461.66
388.95	2471.90
389.16	2394.08
389.38	2457.56
389.59	2543.58
389.80	2617.30
390.02	2605.02
390.23	2637.78
390.44	2449.37
390.66	2590.68
390.87	2592.73
391.08	2662.36
391.30	2701.27
391.51	2658.26
391.72	2629.59
391.94	2559.96
392.15	2537.43
392.36	2635.74
392.58	2643.93
392.79	2533.34
393.00	2670.55
393.22	2789.33
393.43	2756.57
393.64	2756.57
393.85	2789.33
394.07	2609.11
394.28	2752.47
394.49	2764.76
394.71	2680.79
394.92	2801.62
395.13	2721.75
395.35	2779.09
395.56	2834.39
395.77	2711.51
395.98	2828.24
396.20	2854.87
396.41	2861.01
396.62	2891.73
396.84	2797.53
397.05	2840.53
397.26	2801.62
397.47	2940.88
397.69	2854.87
397.90	2965.46
398.11	2947.03
398.32	2912.21
398.54	2795.48
398.75	2863.06
398.96	2901.97
399.18	2979.79
399.39	2990.03
399.60	3018.71
399.81	2877.40
400.03	2922.45
400.24	3246.03
400.45	2940.88
400.66	3008.47
400.88	2994.13
401.09	3102.67
401.30	3076.05
401.51	3119.06
401.73	3180.50
401.94	3192.78
402.15	3141.58
402.36	3035.09
402.58	3131.34
402.79	3143.63
403.00	3168.21
403.21	3194.83
403.43	3178.45
403.64	3321.81
403.85	3069.91
404.06	3190.74
404.27	3065.81
404.49	3057.62
404.70	3098.58
404.91	3284.94
405.12	3330.00
405.34	3147.73
405.55	3475.40
405.76	3119.06
405.97	3200.98
406.19	3330.00
406.40	3237.84
406.61	3327.95
406.82	3317.71
407.03	3262.41
407.25	3313.61
407.46	3387.34
407.67	3430.35
407.88	3330.00
408.09	3327.95
408.31	3344.33
408.52	3401.68
408.73	3235.79
408.94	3362.76
409.15	3440.59
409.37	3387.34
409.58	3475.40
409.79	3440.59
410.00	3389.39
410.21	3444.68
410.43	3438.54
410.64	3514.31
410.85	3485.64
411.06	3514.31
411.27	3545.03
411.48	3667.91
411.70	3518.41
411.91	3522.51
412.12	3688.39
412.33	3608.52
412.54	3588.04
412.76	3635.14
412.97	3635.14
413.18	3571.66
413.39	3647.43
413.60	3725.26
413.81	3674.06
414.03	3690.44
414.24	3631.05
414.45	3807.17
414.66	3432.40
414.87	3790.79
415.08	3715.02
415.30	3694.54
415.51	3721.16
415.72	3631.05
415.93	3672.01
416.14	3727.30
416.35	3704.78
416.56	3878.85
416.78	3721.16
416.99	3702.73
417.20	3798.98
417.41	3782.60
417.62	3758.02
417.83	3848.13
418.04	3878.85
418.26	3952.58
418.47	3909.57
418.68	3936.20
418.89	3944.39
419.10	4093.89
419.31	3848.13
419.52	4042.69
419.73	3985.35
419.95	4014.02
420.16	3975.11
420.37	4028.35
420.58	4048.83
420.79	3973.06
421.00	4097.99
421.21	4032.45
421.42	4089.79
421.63	4149.18
421.85	4116.42
422.06	4196.29
422.27	4069.31
422.48	4296.64
422.69	4210.62
422.90	4106.18
423.11	4294.59
423.32	4249.54
423.53	4288.45
423.75	4251.58
423.96	4444.09
424.17	4370.37
424.38	4519.87
424.59	4374.46
424.80	4468.67
425.01	4308.93
425.22	4409.28
425.43	4403.13
425.64	4483.00
425.85	4640.70
426.06	4591.55
426.28	4519.87
426.49	4460.48
426.70	4548.54
426.91	4507.58
427.12	4548.54
427.33	4657.08
427.54	4585.40
427.75	4761.53
427.96	4700.09
428.17	4714.42
428.38	4638.65
428.59	4872.12
428.80	4710.33
429.01	4667.32
429.23	4706.23
429.44	5066.67
429.65	5003.19
429.86	4941.75
430.07	4806.58
430.28	4886.45
430.49	4970.42
430.70	5035.96
430.91	4878.26
431.12	4763.58
431.33	5222.32
431.54	5105.59
431.75	5126.07
431.96	5072.82
432.17	5191.60
432.38	5101.49
432.59	5312.43
432.80	5316.53
433.01	5126.07
433.22	5339.05
433.43	5115.83
433.64	5365.68
433.85	5269.42
434.06	5267.38
434.27	5291.95
434.49	5480.36
434.70	5447.60
434.91	5435.31
435.12	5400.49
435.33	5461.93
435.54	5451.69
435.75	5328.81
435.96	5441.45
436.17	5394.35
436.38	5496.75
436.59	5613.48
436.80	5488.56
437.01	5767.08
437.22	5705.64
437.43	5636.01
437.64	5513.13
437.85	5812.14
438.06	5703.59
438.27	5593.00
438.48	5603.24
438.69	5904.29
438.90	5777.32
439.11	5726.12
439.32	5762.98
439.53	5674.92
439.74	5769.13
439.95	5973.92
440.16	5705.64
440.37	5803.94
440.57	5814.18
440.78	5916.58
440.99	6049.70
441.20	5990.31
441.41	5875.62
441.62	5961.64
441.83	5965.73
442.04	5992.36
442.25	5924.77
442.46	5975.97
442.67	6057.89
442.88	6348.70
443.09	6031.27
443.30	6137.76
443.51	6021.03
443.72	6414.24
443.93	6238.11
444.14	6590.36
444.35	6078.37
444.56	6248.35
444.77	6424.48
444.98	6258.59
445.19	6266.78
445.40	6168.48
445.61	6297.50
445.81	6576.03
446.02	6418.33
446.23	6537.12
446.44	6315.94
446.65	6455.20
446.86	6553.50
447.07	6526.88
447.28	6651.80
447.49	6565.79
447.70	6504.35
447.91	6590.36
448.12	6522.78
448.33	6748.06
448.54	6571.93
448.74	6707.10
448.95	6758.30
449.16	6612.89
449.37	7057.30
449.58	6635.42
449.79	7098.26
450.00	6657.95
450.21	6807.45
450.42	6983.57
450.63	6842.26
450.84	6856.60
451.05	6989.72
451.25	6989.72
451.46	6889.37
451.67	7112.60
451.88	7024.53
452.09	7153.55
452.30	7194.51
452.51	7131.03
452.72	7157.65
452.93	7358.35
453.13	7085.97
453.34	7085.97
453.55	7196.56
453.76	7284.62
453.97	7470.99
454.18	7479.18
454.39	7438.22
454.60	7380.88
454.81	7561.10
455.01	7622.54
455.22	7358.35
455.43	7409.55
455.64	7804.81
455.85	7767.95
456.06	7905.16
456.27	7808.90
456.48	7710.60
456.68	7825.29
456.89	8013.70
457.10	7946.12
457.31	7858.06
457.52	7843.72
457.73	8091.52
457.94	8392.58
458.14	8023.94
458.35	8275.84
458.56	8107.91
458.77	7948.17
458.98	8361.86
459.19	8200.07
459.39	8253.31
459.60	8400.77
459.81	8226.69
460.02	8574.85
460.23	8621.95
460.44	8660.86
460.65	8574.85
460.85	8675.20
461.06	8654.72
461.27	8429.44
461.48	8638.33
461.69	9052.02
461.89	8572.80
462.10	8816.51
462.31	8664.96
462.52	8843.13
462.73	9004.92
462.94	9072.50
463.14	9074.55
463.35	9062.26
463.56	9316.21
463.77	9351.03
463.98	9074.55
464.18	9267.06
464.39	9473.90
464.60	9600.88
464.81	9596.78
465.02	9391.98
465.23	9791.34
465.43	9441.14
465.64	9709.42
465.85	9641.84
466.06	9607.02
466.27	9983.85
466.47	9891.69
466.68	9961.32
466.89	9951.08
467.10	10053.48
467.30	10055.53
467.51	10082.15
467.72	10305.38
467.93	10002.28
468.14	10282.85
468.34	10356.58
468.55	10512.22
468.76	10471.26
468.97	10377.06
469.17	10577.76
469.38	10753.88
469.59	10954.58
469.80	10723.16
470.01	10831.71
470.21	10755.93
470.42	11143.00
470.63	11108.18
470.84	10911.58
471.04	11130.71
471.25	11192.15
471.46	11073.37
471.67	11677.52
471.87	11456.34
472.08	11360.08
472.29	11652.94
472.50	11415.38
472.70	11636.56
472.91	11491.15
473.12	11949.90
473.33	11939.66
473.53	12085.06
473.74	11958.09
473.95	12134.21
474.16	12334.92
474.36	12296.00
474.57	12515.14
474.78	12425.03
474.99	12558.14
475.19	12425.03
475.40	12697.41
475.61	12945.21
475.81	13152.06
476.02	13248.31
476.23	12947.26
476.44	13043.51
476.64	13383.48
476.85	13483.83
477.06	13399.86
477.27	13649.71
477.47	13518.64
477.68	13686.58
477.89	13803.31
478.09	13881.13
478.30	13860.65
478.51	13930.28
478.71	14133.03
478.92	14114.60
479.13	14315.30
479.34	14481.19
479.54	14491.43
479.75	14647.07
479.96	14690.08
480.16	14563.11
480.37	14829.34
480.58	14980.89
480.78	15236.89
480.99	15054.62
481.20	15275.80
481.41	15161.11
481.61	15398.68
481.82	15626.00
482.03	15429.40
482.23	15580.95
482.44	15800.08
482.65	15814.41
482.85	15941.39
483.06	16043.79
483.27	15992.59
483.47	16035.60
483.68	16301.83
483.89	16486.15
484.09	16174.86
484.30	16404.23
484.51	16639.75
484.71	16733.95
484.92	16535.30
485.13	16889.60
485.33	16998.14
485.54	16826.11
485.75	17407.73
485.95	17456.89
486.16	17284.86
486.37	17356.54
486.57	17303.29
486.78	17536.76
486.98	17547.00
487.19	17891.06
487.40	18161.39
487.60	18001.65
487.81	18073.32
488.02	18142.96
488.22	18163.43
488.43	18345.70
488.64	18278.12
488.84	18669.28
489.05	18691.81
489.25	18491.11
489.46	19054.30
489.67	18896.61
489.87	19185.37
490.08	18730.72
490.29	19060.45
490.49	19484.37
490.70	19252.95
490.90	19539.67
491.11	19431.13
491.32	19363.54
491.52	19390.17
491.73	19689.17
491.94	19990.22
492.14	19732.18
492.35	19967.70
492.55	20182.73
492.76	20356.81
492.97	20149.96
493.17	20436.68
493.38	20127.44
493.58	20526.79
493.79	20612.81
494.00	20643.52
494.20	20793.03
494.41	20539.08
494.61	20926.14
494.82	20950.72
495.02	20885.19
495.23	21128.89
495.44	21448.38
495.64	21190.33
495.85	21405.37
496.05	21548.73
496.26	21288.64
496.47	21610.17
496.67	21479.10
496.88	21776.05
497.08	21868.21
497.29	22288.04
497.49	21952.18
497.70	22079.15
497.91	22206.13
498.11	22494.89
498.32	22257.32
498.52	22431.40
498.73	22630.05
498.93	22419.11
499.14	22494.89
499.34	22855.33
499.55	22771.36
499.76	22648.49
499.96	22836.90
500.17	22894.24
500.37	22638.25
500.58	22990.50
500.78	22603.43
500.99	23203.49
501.19	23467.67
501.40	23398.04
501.60	23228.06
501.81	23287.45
502.02	23371.42
502.22	23479.96
502.43	23615.13
502.63	23869.08
502.84	24004.24
503.04	23889.56
503.25	23985.81
503.45	23795.35
503.66	24094.35
503.86	24002.19
504.07	24518.28
504.27	23860.88
504.48	24479.37
504.68	24411.79
504.89	24718.98
505.09	24516.23
505.30	24692.36
505.50	24682.12
505.71	24729.22
505.91	24874.63
506.12	25013.89
506.32	24792.71
506.53	24884.87
506.73	25228.93
506.94	24993.41
507.14	25220.74
507.35	25450.11
507.55	25204.35
507.76	25439.87
507.96	25505.40
508.17	25448.06
508.37	25712.25
508.58	25376.38
508.78	25751.16
508.99	26064.50
509.19	25810.55
509.40	25906.80
509.60	26019.44
509.81	26201.71
510.01	25980.53
510.22	26105.46
510.42	26119.79
510.63	26209.90
510.83	26111.60
511.04	26322.54
511.24	26177.14
511.44	26228.34
511.65	26519.15
511.85	26285.68
512.06	26574.44
512.26	26613.35
512.47	26762.86
512.67	26812.01
512.88	26797.67
513.08	26695.27
513.29	26920.55
513.49	27027.04
513.69	27209.31
513.90	26900.07
514.10	27213.41
514.31	26988.13
514.51	27362.91
514.72	26953.32
514.92	27242.08
515.13	26963.56
515.33	27407.97
515.53	27584.09
515.74	27268.70
515.94	27668.06
516.15	27586.14
516.35	27373.15
516.56	27979.35
516.76	27450.97
516.96	27821.66
517.17	27999.83
517.37	27936.34
517.58	27956.82
517.78	28112.47
517.99	28159.57
518.19	28296.78
518.39	28259.92
518.60	28452.43
518.80	28167.76
519.01	28421.71
519.21	28405.33
519.41	28931.65
519.62	28698.19
519.82	28900.94
520.03	28866.12
520.23	28862.02
520.43	29189.70
520.64	29460.03
520.84	29408.83
521.05	29220.42
521.25	29257.28
521.45	29343.30
521.66	29582.91
521.86	29591.10
522.07	29660.73
522.27	29820.47
522.47	29709.88
522.68	30115.38
522.88	30172.72
523.08	30230.07
523.29	29853.24
523.49	29929.02
523.70	30092.85
523.90	30445.10
524.10	30076.47
524.31	30486.06
524.51	30264.88
524.71	30613.04
524.92	30500.40
525.12	30887.46
525.33	30664.24
525.53	31075.88
525.73	31168.04
525.94	31182.37
526.14	30901.80
526.34	31206.95
526.55	31534.62
526.75	31223.33
526.95	31440.42
527.16	31213.09
527.36	31432.22
527.56	31956.50
527.77	31847.96
527.97	31778.33
528.17	32077.33
528.38	32437.78
528.58	32298.52
528.78	32196.12
528.99	31919.64
529.19	32648.72
529.39	32284.18
529.60	32445.97
529.80	32718.35
530.00	32335.38
530.21	32796.17
530.41	33113.61
530.61	32925.19
530.82	33256.96
531.02	33105.41
531.22	33158.66
531.43	33138.18
531.63	33342.98
531.83	33568.26
532.04	33891.83
532.24	33787.39
532.44	33764.86
532.64	33617.41
532.85	34131.45
533.05	34082.30
533.25	33981.95
533.46	34231.80
533.66	34582.00
533.86	34295.28
534.07	34788.85
534.27	34555.38
534.47	34993.64
534.67	35010.03
534.88	34647.54
535.08	34721.26
535.28	35065.32
535.49	35345.89
535.69	35493.35
535.89	35782.11
536.09	35673.57
536.30	35694.05
536.50	35616.22
536.70	35620.32
536.91	35581.41
537.11	35511.78
537.31	35814.88
537.51	35927.52
537.72	36189.66
537.92	36320.73
538.12	36621.78
538.32	36361.69
538.53	36572.63
538.73	36357.59
538.93	36570.58
539.13	36672.98
539.34	36865.49
539.54	36511.19
539.74	36849.10
539.94	36873.68
540.15	37133.77
540.35	37285.32
540.55	37025.23
540.75	36945.36
540.96	37240.26
541.16	37643.71
541.36	37207.50
541.56	37404.10
541.77	37770.69
541.97	37764.54
542.17	37764.54
542.37	37494.21
542.58	37889.47
542.78	38192.57
542.98	38071.74
543.18	38159.80
543.38	38282.68
543.59	38088.12
543.79	38102.46
543.99	38086.07
544.19	38763.95
544.40	38157.75
544.60	38591.92
544.80	38643.12
545.00	38383.03
545.20	38983.09
545.41	38645.17
545.61	38567.35
545.81	39148.97
546.01	39167.40
546.21	38940.08
546.42	38966.70
546.62	39259.56
546.82	39308.71
547.02	39220.65
547.22	39679.39
547.43	39038.38
547.63	39445.93
547.83	39456.17
548.03	39323.05
548.23	39478.69
548.44	39773.60
548.64	39439.78
548.84	39583.14
549.04	39433.64
549.24	40056.22
549.45	40215.96
549.65	39714.21
549.85	40056.22
550.05	39984.54
550.25	40248.73
550.45	40498.58
550.66	39964.06
550.86	40048.03
551.06	40594.84
551.26	40246.68
551.46	40463.77
551.66	40445.33
551.87	40281.50
552.07	40803.73
552.27	40367.51
552.47	40764.82
552.67	40357.27
552.87	40883.60
553.07	40875.41
553.28	40832.40
553.48	41010.57
553.68	40856.98
553.88	41319.82
554.08	40934.80
554.28	40615.32
554.48	40621.46
554.69	41000.33
554.89	41205.13
555.09	40717.71
555.29	41153.93
555.49	41213.32
555.69	41076.11
555.89	41457.03
556.10	41698.69
556.30	41325.96
556.50	41532.81
556.70	41719.17
556.90	41801.09
557.10	41948.54
557.30	41840.00
557.50	42106.24
557.70	41975.17
557.91	41874.82
558.11	41907.58
558.31	41962.88
558.51	42020.22
558.71	41872.77
558.91	42139.00
559.11	41721.22
559.31	42071.42
559.51	41723.27
559.72	41936.26
559.92	42071.42
560.12	42253.69
560.32	42438.01
560.52	42114.43
560.72	42630.52
560.92	42669.43
561.12	42573.17
561.32	42849.65
561.52	42493.30
561.72	42816.88
561.93	42681.72
562.13	42200.44
562.33	42554.74
562.53	42902.90
562.73	42276.22
562.93	42847.60
563.13	43261.29
563.33	43066.73
563.53	43023.73
563.73	42661.24
563.93	42710.39
564.13	43322.73
564.33	43013.49
564.53	43093.36
564.74	43175.28
564.94	42872.18
565.14	43206.00
565.34	42636.66
565.54	43144.56
565.74	43275.63
565.94	43898.21
566.14	43214.19
566.34	43222.38
566.54	43535.72
566.74	43097.45
566.94	43621.73
567.14	43605.35
567.34	43206.00
567.54	43539.82
567.74	43685.22
567.94	43595.11
568.14	43758.95
568.34	44215.65
568.54	43820.39
568.74	44268.89
568.94	44111.20
569.14	44438.87
569.34	44096.86
569.54	44143.97
569.75	43787.62
569.95	43930.98
570.15	44424.54
570.35	44338.52
570.55	44064.10
570.75	44375.39
570.95	44371.29
571.15	44483.93
571.35	44361.05
571.55	44803.41
571.75	44746.07
571.95	45008.21
572.15	44717.40
572.35	45012.31
572.55	44719.45
572.75	44750.17
572.95	44938.58
573.15	44676.44
573.35	44672.34
573.55	44875.09
573.75	44479.83
573.95	45170.00
574.15	44729.69
574.35	45284.68
574.55	45040.98
574.75	44860.76
574.95	45251.92
575.15	44991.83
575.34	45583.69
575.54	45679.94
575.74	45647.18
575.94	45911.36
576.14	45725.00
576.34	46222.65
576.54	45901.12
576.74	45917.51
576.94	45819.20
577.14	45940.04
577.34	46161.22
577.54	45786.44
577.74	46290.24
577.94	46030.15
578.14	46163.26
578.34	46423.36
578.54	46013.76
578.74	45980.99
578.94	46456.12
579.14	46372.16
579.34	46124.35
579.54	46630.20
579.74	46808.37
579.94	46636.34
580.13	46540.09
580.33	46703.93
580.53	47029.55
580.73	46767.41
580.93	47123.76
581.13	47134.00
581.33	47383.85
581.53	47232.30
581.73	47064.37
581.93	47883.56
582.13	47291.69
582.33	47502.64
582.53	47150.38
582.73	47197.49
582.92	47510.83
583.12	47842.60
583.32	47269.17
583.52	47674.66
583.72	48063.78
583.92	47623.47
584.12	47762.73
584.32	48364.83
584.52	48022.82
584.72	47945.00
584.92	48325.92
585.11	48637.21
585.31	47607.08
585.51	48225.57
585.71	48260.38
585.91	48932.12
586.11	48223.52
586.31	48495.90
586.51	48502.04
586.71	48428.32
586.91	48934.17
587.10	48872.73
587.30	48590.11
587.50	49050.90
587.70	48907.54
587.90	48915.73
588.10	48899.35
588.30	48815.38
588.50	49378.57
