SpectraSuite Data File
++++++++++++++++++++++++++++++++++++
Date: Fri Jun 02 14:49:25 CEST 2017
User: INFO_000
Dark Spectrum Present: No
Reference Spectrum Present: No
Number of Sampled Component Spectra: 1
Spectrometers: USB4H00879
Integration Time (usec): 80000 (USB4H00879)
Spectra Averaged: 1 (USB4H00879)
Boxcar Smoothing: 0 (USB4H00879)
Correct for Electrical Dark: No (USB4H00879)
Strobe/Lamp Enabled: No (USB4H00879)
Correct for Detector Non-linearity: No (USB4H00879)
Correct for Stray Light: No (USB4H00879)
Number of Pixels in Processed Spectrum: 3648
>>>>>Begin Processed Spectral Data<<<<<
345.13	1241.07
345.34	1241.07
345.56	1241.07
345.78	1261.55
345.99	1286.12
346.21	1699.81
346.42	1720.29
346.64	1677.29
346.86	1812.45
347.07	1648.61
347.29	1720.29
347.50	1560.55
347.72	1656.81
347.94	1720.29
348.15	1513.45
348.37	1658.85
348.59	1775.59
348.80	1662.95
349.02	1753.06
349.23	1828.84
349.45	1767.40
349.67	1806.31
349.88	1843.17
350.10	1896.42
350.31	1785.83
350.53	1822.69
350.75	1937.38
350.96	1746.92
351.18	1857.51
351.39	1935.33
351.61	1785.83
351.82	1931.23
352.04	1920.99
352.26	1796.07
352.47	1894.37
352.69	1875.94
352.90	1847.27
353.12	1843.17
353.34	1898.47
353.55	1888.23
353.77	1910.75
353.98	1845.22
354.20	1828.84
354.41	1871.84
354.63	1957.86
354.85	2027.49
355.06	1920.99
355.28	1744.87
355.49	1857.51
355.71	1961.95
355.92	1824.74
356.14	1980.39
356.35	1988.58
356.57	1865.70
356.79	1918.95
357.00	1855.46
357.22	1927.14
357.43	1769.44
357.65	1957.86
357.86	1894.37
358.08	1843.17
358.29	1955.81
358.51	1968.10
358.72	2017.25
358.94	1873.89
359.16	1966.05
359.37	1986.53
359.59	1880.04
359.80	2056.16
360.02	1859.56
360.23	1935.33
360.45	2043.87
360.66	1869.80
360.88	1834.98
361.09	1964.00
361.31	1968.10
361.52	1937.38
361.74	2007.01
361.95	2072.54
362.17	1931.23
362.38	2093.02
362.60	2068.45
362.81	2101.22
363.03	1933.28
363.24	1927.14
363.46	2117.60
363.67	2027.49
363.89	2033.63
364.10	2013.15
364.32	1990.63
364.53	2035.68
364.75	1884.13
364.96	1982.43
365.18	1986.53
365.39	1990.63
365.61	1961.95
365.82	2050.02
366.04	1998.82
366.25	1849.32
366.47	2025.44
366.68	2060.26
366.90	2027.49
367.11	2043.87
367.33	2035.68
367.54	2072.54
367.76	2017.25
367.97	2072.54
368.19	2021.35
368.40	2117.60
368.62	1970.15
368.83	1961.95
369.05	2088.93
369.26	2090.98
369.48	2068.45
369.69	1923.04
369.91	2090.98
370.12	2082.78
370.33	2076.64
370.55	1978.34
370.76	2000.87
370.98	2168.80
371.19	2037.73
371.41	2062.30
371.62	2109.41
371.84	2013.15
372.05	2150.37
372.27	2054.11
372.48	2029.54
372.69	2111.46
372.91	2123.74
373.12	2123.74
373.34	2043.87
373.55	2064.35
373.77	2140.13
373.98	2084.83
374.20	2133.98
374.41	2228.19
374.62	2109.41
374.84	2123.74
375.05	2236.38
375.27	2183.13
375.48	2183.13
375.70	2193.37
375.91	2179.04
376.12	2312.16
376.34	2090.98
376.55	2217.95
376.77	2207.71
376.98	2072.54
377.19	2095.07
377.41	2101.22
377.62	2158.56
377.84	2236.38
378.05	2312.16
378.27	2150.37
378.48	2387.93
378.69	2398.17
378.91	2310.11
379.12	2248.67
379.34	2336.73
379.55	2303.96
379.76	2242.53
379.98	2230.24
380.19	2260.96
380.41	2199.52
380.62	2281.44
380.83	2236.38
381.05	2113.50
381.26	2316.25
381.47	2254.81
381.69	2217.95
381.90	2412.51
382.12	2222.05
382.33	2220.00
382.54	2170.85
382.76	2330.59
382.97	2287.58
383.19	2248.67
383.40	2394.08
383.61	2320.35
383.83	2320.35
384.04	2412.51
384.25	2439.13
384.47	2447.32
384.68	2363.36
384.89	2312.16
385.11	2324.44
385.32	2240.48
385.54	2316.25
385.75	2385.88
385.96	2494.43
386.18	2369.50
386.39	2367.45
386.60	2385.88
386.82	2469.85
387.03	2445.27
387.24	2498.52
387.46	2445.27
387.67	2506.71
387.88	2435.03
388.10	2459.61
388.31	2435.03
388.52	2582.49
388.74	2506.71
388.95	2502.62
389.16	2613.21
389.38	2490.33
389.59	2668.50
389.80	2555.86
390.02	2508.76
390.23	2613.21
390.44	2637.78
390.66	2553.82
390.87	2568.15
391.08	2697.17
391.30	2650.07
391.51	2668.50
391.72	2600.92
391.94	2705.37
392.15	2584.54
392.36	2600.92
392.58	2625.50
392.79	2736.09
393.00	2779.09
393.22	2723.80
393.43	2629.59
393.64	2789.33
393.85	2844.63
394.07	2717.65
394.28	2858.96
394.49	2766.81
394.71	2785.24
394.92	2768.85
395.13	2750.42
395.35	2744.28
395.56	2799.57
395.77	2840.53
395.98	2834.39
396.20	2920.40
396.41	2891.73
396.62	2826.20
396.84	2828.24
397.05	2818.00
397.26	2830.29
397.47	2912.21
397.69	2856.92
397.90	2994.13
398.11	2969.55
398.32	2899.92
398.54	2840.53
398.75	2899.92
398.96	2910.16
399.18	3090.38
399.39	2971.60
399.60	2961.36
399.81	2957.27
400.03	2893.78
400.24	3213.26
400.45	2865.11
400.66	2998.23
400.88	2947.03
401.09	3137.49
401.30	3074.00
401.51	3157.97
401.73	3133.39
401.94	3139.54
402.15	3121.10
402.36	3166.16
402.58	3194.83
402.79	3231.69
403.00	3067.86
403.21	3313.61
403.43	3223.50
403.64	3307.47
403.85	3194.83
404.06	3106.77
404.27	3055.57
404.49	3219.41
404.70	3207.12
404.91	3299.28
405.12	3119.06
405.34	3200.98
405.55	3346.38
405.76	3153.87
405.97	3176.40
406.19	3264.46
406.40	3260.37
406.61	3311.57
406.82	3405.77
407.03	3184.59
407.25	3237.84
407.46	3284.94
407.67	3397.58
407.88	3321.81
408.09	3276.75
408.31	3346.38
408.52	3301.33
408.73	3321.81
408.94	3352.52
409.15	3409.87
409.37	3336.14
409.58	3444.68
409.79	3397.58
410.00	3393.48
410.21	3332.05
410.43	3389.39
410.64	3270.61
410.85	3534.79
411.06	3448.78
411.27	3481.55
411.48	3522.51
411.70	3594.19
411.91	3520.46
412.12	3715.02
412.33	3465.16
412.54	3428.30
412.76	3614.66
412.97	3563.47
413.18	3495.88
413.39	3626.95
413.60	3710.92
413.81	3717.06
414.03	3692.49
414.24	3479.50
414.45	3878.85
414.66	3588.04
414.87	3796.93
415.08	3641.29
415.30	3583.95
415.51	3747.78
415.72	3700.68
415.93	3794.89
416.14	3786.69
416.35	3788.74
416.56	3692.49
416.78	3891.14
416.99	3696.58
417.20	3770.31
417.41	3807.17
417.62	3944.39
417.83	3899.33
418.04	3827.65
418.26	3915.72
418.47	3848.13
418.68	3919.81
418.89	3885.00
419.10	4081.60
419.31	3999.68
419.52	4149.18
419.73	3887.04
419.95	4032.45
420.16	3852.23
420.37	4165.57
420.58	3966.92
420.79	3819.46
421.00	3971.01
421.21	4140.99
421.42	3899.33
421.63	4083.65
421.85	3958.72
422.06	4222.91
422.27	4167.62
422.48	4061.12
422.69	4282.30
422.90	4261.82
423.11	4204.48
423.32	4132.80
423.53	4390.84
423.75	4315.07
423.96	4435.90
424.17	4450.24
424.38	4370.37
424.59	4403.13
424.80	4526.01
425.01	4478.91
425.22	4261.82
425.43	4368.32
425.64	4589.50
425.85	4622.27
426.06	4603.83
426.28	4530.11
426.49	4507.58
426.70	4575.16
426.91	4626.36
427.12	4616.12
427.33	4720.57
427.54	4566.97
427.75	4741.05
427.96	4767.67
428.17	4794.29
428.38	4757.43
428.59	4890.55
428.80	4775.86
429.01	4902.84
429.23	4845.49
429.44	4876.21
429.65	5009.33
429.86	4904.89
430.07	4890.55
430.28	4839.35
430.49	4945.84
430.70	5078.96
430.91	5060.53
431.12	5056.43
431.33	5189.55
431.54	5064.63
431.75	5128.11
431.96	5058.48
432.17	5191.60
432.38	5136.31
432.59	5275.57
432.80	5271.47
433.01	5203.89
433.22	5144.50
433.43	5334.96
433.64	5390.25
433.85	5218.22
434.06	5474.22
434.27	5289.90
434.49	5367.73
434.70	5357.49
434.91	5433.26
435.12	5380.01
435.33	5451.69
435.54	5402.54
435.75	5302.19
435.96	5377.97
436.17	5275.57
436.38	5547.95
436.59	5519.28
436.80	5552.04
437.01	5824.42
437.22	5697.45
437.43	5646.25
437.64	5406.64
437.85	5640.11
438.06	5687.21
438.27	5560.24
438.48	5679.02
438.69	5846.95
438.90	5719.98
439.11	5597.10
439.32	5754.79
439.53	5705.64
439.74	5752.74
439.95	5771.18
440.16	5922.73
440.37	5691.31
440.57	5705.64
440.78	5842.85
440.99	5939.11
441.20	5822.38
441.41	5760.94
441.62	6070.18
441.83	5742.50
442.04	6117.28
442.25	5959.59
442.46	5941.16
442.67	6053.80
442.88	6410.14
443.09	5961.64
443.30	5957.54
443.51	6049.70
443.72	6277.02
443.93	6037.41
444.14	6289.31
444.35	6057.89
444.56	6266.78
444.77	6234.02
444.98	6262.69
445.19	6166.43
445.40	6330.27
445.61	6197.15
445.81	6309.79
446.02	6436.77
446.23	6168.48
446.44	6315.94
446.65	6393.76
446.86	6414.24
447.07	6416.29
447.28	6508.44
447.49	6514.59
447.70	6490.01
447.91	6614.94
448.12	6573.98
448.33	6535.07
448.54	6668.19
448.74	6576.03
448.95	6616.99
449.16	6612.89
449.37	6811.54
449.58	6672.28
449.79	6959.00
450.00	6756.25
450.21	6801.30
450.42	6870.94
450.63	6938.52
450.84	6987.67
451.05	6856.60
451.25	7002.01
451.46	6809.50
451.67	7128.98
451.88	7233.43
452.09	6975.38
452.30	6860.70
452.51	7227.28
452.72	7288.72
452.93	7542.67
453.13	7128.98
453.34	7266.19
453.55	7155.60
453.76	7229.33
453.97	7589.77
454.18	7198.61
454.39	7401.36
454.60	7489.42
454.81	7462.80
455.01	7671.69
455.22	7323.54
455.43	7587.72
455.64	7726.99
455.85	7866.25
456.06	7769.99
456.27	7706.51
456.48	7700.36
456.68	7794.57
456.89	7864.20
457.10	7966.60
457.31	7950.21
457.52	8017.80
457.73	8040.33
457.94	8218.50
458.14	8056.71
458.35	8408.96
458.56	7921.54
458.77	8152.96
458.98	8296.32
459.19	8324.99
459.39	8525.69
459.60	8329.09
459.81	8312.71
460.02	8556.41
460.23	8476.54
460.44	8728.44
460.65	8667.00
460.85	8861.56
461.06	8658.81
461.27	8421.25
461.48	8867.70
461.69	8945.53
461.89	8544.13
462.10	8836.99
462.31	8607.61
462.52	8673.15
462.73	8871.80
462.94	9205.62
463.14	8925.05
463.35	9033.59
463.56	9564.01
463.77	9402.22
463.98	9250.67
464.18	9267.06
464.39	9578.35
464.60	9564.01
464.81	9834.35
465.02	9480.05
465.23	9744.24
465.43	9496.43
465.64	9682.80
465.85	9844.59
466.06	9697.13
466.27	10301.28
466.47	10057.57
466.68	10137.45
466.89	10071.91
467.10	10209.12
467.30	9867.11
467.51	10317.67
467.72	10332.00
467.93	10129.25
468.14	10366.82
468.34	10659.68
468.55	10274.66
468.76	10696.54
468.97	10483.55
469.17	10843.99
469.38	10782.56
469.59	10966.87
469.80	10661.73
470.01	10790.75
470.21	10903.39
470.42	11206.48
470.63	11157.33
470.84	11044.70
471.04	11222.87
471.25	11501.39
471.46	11335.51
471.67	11388.75
471.87	11435.86
472.08	11712.33
472.29	11456.34
472.50	11497.30
472.70	11472.72
472.91	11630.41
473.12	11722.57
473.33	11851.60
473.53	12023.62
473.74	12177.22
473.95	12111.69
474.16	12173.13
474.36	12066.63
474.57	12396.35
474.78	12701.50
474.99	12408.64
475.19	12496.71
475.40	12623.68
475.61	12760.89
475.81	13170.49
476.02	13129.53
476.23	12908.35
476.44	12965.69
476.64	13358.90
476.85	13473.59
477.06	12996.41
477.27	13379.38
477.47	13672.24
477.68	13553.46
477.89	13795.12
478.09	13737.77
478.30	13682.48
478.51	13649.71
478.71	13903.66
478.92	14176.04
479.13	14087.98
479.34	14266.15
479.54	14409.51
479.75	14362.40
479.96	14294.82
480.16	14665.50
480.37	14743.33
480.58	14724.90
480.78	14862.11
480.99	14866.21
481.20	15079.19
481.41	15189.78
481.61	15277.85
481.82	15292.18
482.03	15273.75
482.23	15234.84
482.44	15712.02
482.65	15626.00
482.85	15834.89
483.06	15496.98
483.27	15707.92
483.47	15888.14
483.68	16054.03
483.89	15994.64
484.09	16230.15
484.30	16072.46
484.51	16508.68
484.71	16482.05
484.92	16420.61
485.13	16629.51
485.33	16375.56
485.54	16637.70
485.75	16963.33
485.95	17084.16
486.16	17051.39
486.37	17250.04
486.57	17139.45
486.78	17161.98
486.98	17114.87
487.19	17348.34
487.40	17710.83
487.60	17647.35
487.81	17872.62
488.02	17825.52
488.22	17671.92
488.43	17880.82
488.64	17925.87
488.84	18308.84
489.05	18353.90
489.25	18179.82
489.46	18171.63
489.67	18716.39
489.87	18695.91
490.08	18876.13
490.29	18552.55
490.49	19091.16
490.70	18980.57
490.90	19158.75
491.11	19320.54
491.32	19150.56
491.52	19517.14
491.73	19621.59
491.94	19443.42
492.14	19308.25
492.35	19764.95
492.55	19799.76
492.76	19834.58
492.97	20154.06
493.17	20209.36
493.38	20207.31
493.58	20416.20
493.79	20496.07
494.00	20477.64
494.20	20661.96
494.41	20506.31
494.61	20836.03
494.82	20836.03
495.02	20856.51
495.23	20991.68
495.44	21034.69
495.64	21130.94
495.85	21046.97
496.05	21300.92
496.26	21307.07
496.47	21503.67
496.67	21454.52
496.88	21802.68
497.08	21601.97
497.29	21943.99
497.49	21669.56
497.70	21780.15
497.91	22283.95
498.11	22273.71
498.32	22019.76
498.52	22384.30
498.73	22658.73
498.93	22353.58
499.14	22525.61
499.34	22464.17
499.55	22826.66
499.76	22779.56
499.96	22906.53
500.17	22865.57
500.37	23121.57
500.58	23039.65
500.78	23365.28
500.99	23674.52
501.19	23545.50
501.40	23617.18
501.60	23156.38
501.81	23592.60
502.02	23578.26
502.22	23471.77
502.43	23883.41
502.63	24055.44
502.84	24184.46
503.04	23977.62
503.25	24264.33
503.45	23910.04
503.66	24534.67
503.86	24149.65
504.07	24594.06
504.27	24309.39
504.48	24833.67
504.68	24745.61
504.89	25032.32
505.09	25110.14
505.30	25183.87
505.50	25091.71
505.71	25151.10
505.91	25491.07
506.12	25310.85
506.32	25462.40
506.53	25468.54
506.73	25456.25
506.94	25403.00
507.14	25378.43
507.35	25777.78
507.55	25773.69
507.76	26019.44
507.96	25570.94
508.17	25882.23
508.37	25626.23
508.58	26023.54
508.78	25763.45
508.99	26173.04
509.19	26183.28
509.40	26154.61
509.60	26166.90
509.81	26404.46
510.01	26275.44
510.22	26203.76
510.42	26414.70
510.63	26820.20
510.83	26576.49
511.04	26728.04
511.24	26560.11
511.44	26658.41
511.65	26775.14
511.85	26682.98
512.06	26773.10
512.26	26711.66
512.47	27037.28
512.67	27121.25
512.88	27356.77
513.08	27215.46
513.29	27315.81
513.49	27428.45
513.69	27328.10
513.90	27182.69
514.10	27590.24
514.31	27534.94
514.51	27354.72
514.72	27504.22
514.92	27432.54
515.13	27536.99
515.33	27887.19
515.53	27635.29
515.74	27504.22
515.94	28128.85
516.15	28038.74
516.35	27559.52
516.56	28059.22
516.76	27711.07
516.96	28151.38
517.17	28374.61
517.37	28018.26
517.58	28100.18
517.78	28235.35
517.99	28350.03
518.19	28360.27
518.39	28368.46
518.60	28667.47
518.80	28745.29
519.01	28649.03
519.21	28667.47
519.41	28874.31
519.62	28356.18
519.82	29062.72
520.03	29017.67
520.23	28884.55
520.43	28923.46
520.64	29130.31
520.84	29089.35
521.05	28943.94
521.25	29292.10
521.45	29247.04
521.66	29541.95
521.86	29482.56
522.07	29357.63
522.27	29734.46
522.47	29283.91
522.68	29789.75
522.88	29476.41
523.08	30285.36
523.29	29896.25
523.49	29763.13
523.70	29894.20
523.90	30193.20
524.10	29902.39
524.31	30332.47
524.51	29908.54
524.71	30250.55
524.92	30041.65
525.12	30590.51
525.33	30373.42
525.53	30484.01
525.73	31004.20
525.94	30334.51
526.14	30686.76
526.34	30754.35
526.55	30762.54
526.75	30860.84
526.95	31413.79
527.16	30942.76
527.36	30918.18
527.56	31292.96
527.77	31131.17
527.97	31264.29
528.17	31366.69
528.38	31796.76
528.58	31596.06
528.78	31581.73
528.99	31929.88
529.19	31909.40
529.39	31589.92
529.60	32140.82
529.80	31944.22
530.00	31856.15
530.21	32206.36
530.41	32491.02
530.61	32222.74
530.82	32208.40
531.02	32038.42
531.22	32589.33
531.43	32562.70
531.63	32613.90
531.83	32863.75
532.04	33048.07
532.24	32525.84
532.44	33418.75
532.64	33103.37
532.85	32904.71
533.05	33181.19
533.25	33240.58
533.46	33269.25
533.66	33793.53
533.86	33453.57
534.07	33689.09
534.27	33619.46
534.47	34260.47
534.67	33922.55
534.88	33873.40
535.08	33969.66
535.28	34444.79
535.49	34592.24
535.69	34491.89
535.89	34723.31
536.09	34864.62
536.30	34811.37
536.50	34749.93
536.70	34973.16
536.91	34696.69
537.11	35091.94
537.31	35003.88
537.51	35169.77
537.72	35376.61
537.92	35702.24
538.12	35970.52
538.32	35409.38
538.53	35843.55
538.73	35636.70
538.93	35767.77
539.13	35917.28
539.34	35743.20
539.54	36271.57
539.74	36179.42
539.94	35724.77
540.15	36607.44
540.35	36703.70
540.55	36632.02
540.75	36656.59
540.96	36744.66
541.16	36564.43
541.36	36883.92
541.56	36933.07
541.77	37205.45
541.97	37180.87
542.17	37008.84
542.37	37094.86
542.58	37051.85
542.78	37131.72
542.98	37688.77
543.18	37768.64
543.38	37713.34
543.59	37731.78
543.79	37576.13
543.99	37561.79
544.19	37887.42
544.40	37705.15
544.60	38299.06
544.80	38104.51
545.00	38286.78
545.20	38632.88
545.41	38428.09
545.61	38231.48
545.81	38864.30
546.01	38602.16
546.21	38591.92
546.42	38616.50
546.62	38684.08
546.82	38731.18
547.02	38761.90
547.22	38829.49
547.43	38921.65
547.63	39165.35
547.83	39566.76
548.03	39036.33
548.23	39654.82
548.44	39288.23
548.64	39398.82
548.84	39155.11
549.04	39423.40
549.24	39744.93
549.45	39992.73
549.65	39396.77
549.85	39804.32
550.05	40156.57
550.25	39796.13
550.45	40572.31
550.66	39906.72
550.86	39888.29
551.06	40181.15
551.26	40342.94
551.46	40416.66
551.66	40119.71
551.87	40707.47
552.07	40762.77
552.27	40596.88
552.47	40928.66
552.67	40723.86
552.87	41280.91
553.07	40940.94
553.28	41076.11
553.48	41219.47
553.68	41082.25
553.88	41416.07
554.08	41612.68
554.28	41547.14
554.48	41299.34
554.69	41606.53
554.89	41661.83
555.09	41545.09
555.29	41807.23
555.49	42102.14
555.69	41846.15
555.89	41336.20
556.10	42007.94
556.30	41778.56
556.50	42263.93
556.70	41792.90
556.90	42132.86
557.10	42143.10
557.30	41553.29
557.50	42282.36
557.70	42329.47
557.91	42321.27
558.11	42323.32
558.31	42548.60
558.51	42304.89
558.71	42913.14
558.91	42847.60
559.11	42591.61
559.31	42829.17
559.51	42550.65
559.72	42726.77
559.92	42732.92
560.12	42747.25
560.32	43048.30
560.52	42794.36
560.72	43316.59
560.92	42913.14
561.12	42964.34
561.32	43165.04
561.52	42571.13
561.72	43634.02
561.93	43201.90
562.13	43185.52
562.33	43029.87
562.53	43941.22
562.73	43046.26
562.93	42972.53
563.13	43310.44
563.33	43418.99
563.53	44021.09
563.73	43685.22
563.93	43509.10
564.13	43865.44
564.33	44354.91
564.53	43672.93
564.74	43824.48
564.94	44107.10
565.14	43724.13
565.34	43441.51
565.54	43887.97
565.74	44137.82
565.94	44184.93
566.14	44131.68
566.34	43930.98
566.54	44324.19
566.74	44037.47
566.94	44205.41
567.14	44799.32
567.34	44285.28
567.54	44541.27
567.74	44176.73
567.94	44164.45
568.14	44823.89
568.34	44668.25
568.54	44879.19
568.74	44768.60
568.94	44528.98
569.14	44895.57
569.34	44502.36
569.54	44840.28
569.75	44791.12
569.95	44805.46
570.15	44856.66
570.35	44924.24
570.55	44666.20
570.75	44680.53
570.95	45425.99
571.15	44936.53
571.35	45282.64
571.55	45323.60
571.75	44938.58
571.95	45536.59
572.15	44803.41
572.35	45243.73
572.55	45299.02
572.75	45630.79
572.95	44971.35
573.15	45051.22
573.35	45725.00
573.55	45243.73
573.75	45077.84
573.95	45630.79
574.15	45378.89
574.35	45593.93
574.55	45354.32
574.75	45509.96
574.95	45843.78
575.15	45194.57
575.34	45978.95
575.54	45643.08
575.74	45647.18
575.94	46064.96
576.14	45657.42
576.34	46128.45
576.54	46075.20
576.74	46026.05
576.94	45673.80
577.14	46384.44
577.34	46447.93
577.54	46241.09
577.74	45819.20
577.94	45964.61
578.14	46236.99
578.34	46509.37
578.54	45518.15
578.74	45917.51
578.94	46560.57
579.14	45952.32
579.34	46077.25
579.54	46527.80
579.74	46583.10
579.94	46794.04
580.13	46552.38
580.33	46738.74
580.53	47154.48
580.73	46560.57
580.93	46828.85
581.13	46830.90
581.33	47320.37
581.53	46855.48
581.73	46796.09
581.93	46910.77
582.13	47136.05
582.33	47187.25
582.53	47154.48
582.73	46974.26
582.92	47504.68
583.12	47220.02
583.32	47230.26
583.52	46992.69
583.72	47248.69
583.92	47375.66
584.12	47115.57
584.32	47732.01
584.52	47285.55
584.72	47256.88
584.92	47222.06
585.11	48153.89
585.31	47488.30
585.51	47394.09
585.71	47297.84
585.91	47355.18
586.11	47539.50
586.31	47994.15
586.51	47705.38
586.71	47713.58
586.91	48026.92
587.10	47994.15
587.30	47994.15
587.50	47858.98
587.70	47949.09
587.90	48303.39
588.10	48311.58
588.30	48117.03
588.50	48395.55
