SpectraSuite Data File
++++++++++++++++++++++++++++++++++++
Date: Fri Jun 02 14:49:25 CEST 2017
User: INFO_000
Dark Spectrum Present: No
Reference Spectrum Present: No
Number of Sampled Component Spectra: 1
Spectrometers: USB4H00879
Integration Time (usec): 80000 (USB4H00879)
Spectra Averaged: 1 (USB4H00879)
Boxcar Smoothing: 0 (USB4H00879)
Correct for Electrical Dark: No (USB4H00879)
Strobe/Lamp Enabled: No (USB4H00879)
Correct for Detector Non-linearity: No (USB4H00879)
Correct for Stray Light: No (USB4H00879)
Number of Pixels in Processed Spectrum: 3648
>>>>>Begin Processed Spectral Data<<<<<
345.13	1300.46
345.34	1300.46
345.56	1300.46
345.78	1296.36
345.99	1263.60
346.21	1654.76
346.42	1708.01
346.64	1611.75
346.86	1810.40
347.07	1638.38
347.29	1626.09
347.50	1615.85
347.72	1630.18
347.94	1834.98
348.15	1542.12
348.37	1644.52
348.59	1654.76
348.80	1673.19
349.02	1834.98
349.23	1900.52
349.45	1779.68
349.67	1839.08
349.88	1791.97
350.10	1933.28
350.31	1806.31
350.53	1837.03
350.75	1937.38
350.96	1812.45
351.18	1861.60
351.39	1787.88
351.61	1753.06
351.82	1839.08
352.04	1834.98
352.26	1822.69
352.47	1845.22
352.69	1898.47
352.90	1796.07
353.12	1875.94
353.34	1830.88
353.55	1871.84
353.77	1847.27
353.98	1751.01
354.20	1910.75
354.41	1888.23
354.63	1978.34
354.85	2060.26
355.06	1888.23
355.28	1802.21
355.49	1855.46
355.71	1918.95
355.92	1849.32
356.14	1927.14
356.35	1894.37
356.57	1855.46
356.79	1908.71
357.00	1896.42
357.22	1933.28
357.43	1853.41
357.65	1961.95
357.86	1785.83
358.08	1869.80
358.29	1902.56
358.51	1943.52
358.72	2007.01
358.94	1966.05
359.16	1914.85
359.37	1966.05
359.59	1916.90
359.80	2027.49
360.02	1906.66
360.23	1949.67
360.45	1982.43
360.66	1953.76
360.88	1900.52
361.09	1933.28
361.31	2011.11
361.52	1908.71
361.74	2011.11
361.95	2007.01
362.17	2060.26
362.38	2074.59
362.60	2066.40
362.81	1978.34
363.03	1986.53
363.24	1976.29
363.46	2095.07
363.67	1988.58
363.89	2019.30
364.10	2041.82
364.32	1908.71
364.53	2035.68
364.75	1953.76
364.96	1994.72
365.18	2017.25
365.39	1957.86
365.61	1982.43
365.82	2086.88
366.04	2033.63
366.25	1964.00
366.47	2027.49
366.68	2056.16
366.90	1982.43
367.11	2144.22
367.33	2084.83
367.54	2047.97
367.76	1943.52
367.97	2043.87
368.19	1998.82
368.40	2090.98
368.62	1970.15
368.83	1974.24
369.05	2056.16
369.26	1992.67
369.48	2007.01
369.69	2037.73
369.91	2101.22
370.12	2090.98
370.33	1996.77
370.55	1998.82
370.76	2093.02
370.98	2133.98
371.19	1980.39
371.41	2039.78
371.62	2047.97
371.84	2082.78
372.05	2166.75
372.27	2045.92
372.48	2099.17
372.69	2088.93
372.91	2170.85
373.12	2166.75
373.34	2062.30
373.55	2068.45
373.77	2101.22
373.98	2095.07
374.20	2111.46
374.41	2185.18
374.62	2142.18
374.84	2072.54
375.05	2142.18
375.27	2138.08
375.48	2142.18
375.70	2224.09
375.91	2236.38
376.12	2193.37
376.34	2191.33
376.55	2090.98
376.77	2211.81
376.98	2027.49
377.19	2138.08
377.41	2090.98
377.62	2191.33
377.84	2267.10
378.05	2228.19
378.27	2138.08
378.48	2224.09
378.69	2269.15
378.91	2297.82
379.12	2146.27
379.34	2191.33
379.55	2322.40
379.76	2222.05
379.98	2263.01
380.19	2215.90
380.41	2316.25
380.62	2273.25
380.83	2250.72
381.05	2172.89
381.26	2381.79
381.47	2273.25
381.69	2310.11
381.90	2490.33
382.12	2242.53
382.33	2207.71
382.54	2254.81
382.76	2279.39
382.97	2301.92
383.19	2254.81
383.40	2404.32
383.61	2291.68
383.83	2277.34
384.04	2340.83
384.25	2369.50
384.47	2389.98
384.68	2428.89
384.89	2209.76
385.11	2267.10
385.32	2310.11
385.54	2389.98
385.75	2353.12
385.96	2355.16
386.18	2422.75
386.39	2353.12
386.60	2291.68
386.82	2392.03
387.03	2402.27
387.24	2418.65
387.46	2375.64
387.67	2455.51
387.88	2613.21
388.10	2461.66
388.31	2385.88
388.52	2537.43
388.74	2498.52
388.95	2559.96
389.16	2453.47
389.38	2422.75
389.59	2580.44
389.80	2611.16
390.02	2553.82
390.23	2535.39
390.44	2529.24
390.66	2564.06
390.87	2531.29
391.08	2562.01
391.30	2686.94
391.51	2584.54
391.72	2600.92
391.94	2623.45
392.15	2631.64
392.36	2637.78
392.58	2539.48
392.79	2611.16
393.00	2684.89
393.22	2713.56
393.43	2768.85
393.64	2764.76
393.85	2783.19
394.07	2711.51
394.28	2688.98
394.49	2731.99
394.71	2764.76
394.92	2783.19
395.13	2686.94
395.35	2742.23
395.56	2787.29
395.77	2809.81
395.98	2818.00
396.20	2818.00
396.41	2783.19
396.62	2934.74
396.84	2820.05
397.05	2873.30
397.26	2858.96
397.47	2967.51
397.69	2756.57
397.90	3000.27
398.11	2969.55
398.32	2873.30
398.54	2844.63
398.75	2883.54
398.96	2912.21
399.18	2963.41
399.39	2983.89
399.60	2967.51
399.81	2987.99
400.03	2891.73
400.24	3299.28
400.45	2901.97
400.66	3100.62
400.88	2963.41
401.09	3147.73
401.30	3026.90
401.51	3192.78
401.73	3164.11
401.94	3106.77
402.15	3082.19
402.36	3119.06
402.58	3055.57
402.79	3117.01
403.00	3071.95
403.21	3162.06
403.43	3149.78
403.64	3207.12
403.85	3053.52
404.06	3139.54
404.27	2994.13
404.49	3258.32
404.70	3174.35
404.91	3231.69
405.12	3190.74
405.34	3246.03
405.55	3459.02
405.76	3237.84
405.97	3209.17
406.19	3182.54
406.40	3084.24
406.61	3237.84
406.82	3346.38
407.03	3209.17
407.25	3282.89
407.46	3366.86
407.67	3549.13
407.88	3495.88
408.09	3252.17
408.31	3237.84
408.52	3448.78
408.73	3379.15
408.94	3387.34
409.15	3413.96
409.37	3467.21
409.58	3452.88
409.79	3399.63
410.00	3583.95
410.21	3465.16
410.43	3461.07
410.64	3340.24
410.85	3461.07
411.06	3510.22
411.27	3536.84
411.48	3487.69
411.70	3510.22
411.91	3573.71
412.12	3651.53
412.33	3649.48
412.54	3489.74
412.76	3575.75
412.97	3590.09
413.18	3592.14
413.39	3739.59
413.60	3678.15
413.81	3592.14
414.03	3629.00
414.24	3633.10
414.45	3780.55
414.66	3604.42
414.87	3837.89
415.08	3717.06
415.30	3706.82
415.51	3647.43
415.72	3690.44
415.93	3758.02
416.14	3774.41
416.35	3811.27
416.56	3803.08
416.78	3874.76
416.99	3813.32
417.20	3743.69
417.41	3835.85
417.62	3850.18
417.83	3854.28
418.04	3893.19
418.26	3968.96
418.47	3862.47
418.68	3968.96
418.89	3874.76
419.10	4083.65
419.31	3950.53
419.52	4073.41
419.73	4087.75
419.95	4052.93
420.16	3911.62
420.37	3962.82
420.58	3977.16
420.79	3889.09
421.00	3915.72
421.21	4032.45
421.42	3946.44
421.63	4001.73
421.85	4091.84
422.06	4165.57
422.27	4132.80
422.48	4093.89
422.69	4329.41
422.90	4202.43
423.11	4249.54
423.32	4247.49
423.53	4259.78
423.75	4341.69
423.96	4401.08
424.17	4292.54
424.38	4431.80
424.59	4278.21
424.80	4620.22
425.01	4360.13
425.22	4382.65
425.43	4382.65
425.64	4573.11
425.85	4534.20
426.06	4474.81
426.28	4429.76
426.49	4374.46
426.70	4583.35
426.91	4620.22
427.12	4566.97
427.33	4618.17
427.54	4616.12
427.75	4652.98
427.96	4763.58
428.17	4601.79
428.38	4685.75
428.59	4872.12
428.80	4718.52
429.01	4808.63
429.23	4722.62
429.44	4908.98
429.65	4865.97
429.86	4878.26
430.07	4847.54
430.28	4872.12
430.49	4888.50
430.70	5066.67
430.91	4997.04
431.12	4954.04
431.33	5250.99
431.54	4960.18
431.75	5031.86
431.96	5179.31
432.17	5042.10
432.38	5107.63
432.59	5222.32
432.80	5228.46
433.01	5164.98
433.22	5064.63
433.43	5201.84
433.64	5197.74
433.85	5238.70
434.06	5224.37
434.27	5195.70
434.49	5072.82
434.70	5445.55
434.91	5429.17
435.12	5382.06
435.33	5488.56
435.54	5416.88
435.75	5181.36
435.96	5427.12
436.17	5382.06
436.38	5431.21
436.59	5513.13
436.80	5474.22
437.01	5767.08
437.22	5785.51
437.43	5656.49
437.64	5406.64
437.85	5648.30
438.06	5855.14
438.27	5636.01
438.48	5679.02
438.69	5697.45
438.90	5744.55
439.11	5605.29
439.32	5857.19
439.53	5562.28
439.74	5812.14
439.95	5859.24
440.16	5805.99
440.37	5760.94
440.57	5730.22
440.78	5994.40
440.99	6027.17
441.20	5957.54
441.41	5916.58
441.62	5769.13
441.83	5838.76
442.04	5857.19
442.25	6014.88
442.46	5986.21
442.67	6158.24
442.88	6541.21
443.09	5992.36
443.30	6154.15
443.51	6023.08
443.72	6242.21
443.93	6195.11
444.14	6328.22
444.35	6209.44
444.56	6217.63
444.77	6244.26
444.98	6307.74
445.19	6442.91
445.40	6299.55
445.61	6367.13
445.81	6578.08
446.02	6365.09
446.23	6434.72
446.44	6283.17
446.65	6502.30
446.86	6438.81
447.07	6496.16
447.28	6629.27
447.49	6635.42
447.70	6502.30
447.91	6700.95
448.12	6653.85
448.33	6840.22
448.54	6621.08
448.74	6614.94
448.95	6721.43
449.16	6760.34
449.37	6989.72
449.58	6719.39
449.79	6918.04
450.00	6868.89
450.21	6973.33
450.42	6827.93
450.63	7061.40
450.84	6991.77
451.05	7010.20
451.25	6944.66
451.46	6889.37
451.67	7002.01
451.88	7219.09
452.09	7155.60
452.30	7192.47
452.51	7008.15
452.72	7182.23
452.93	7589.77
453.13	7133.08
453.34	7206.80
453.55	7315.34
453.76	7278.48
453.97	7507.85
454.18	7405.46
454.39	7419.79
454.60	7557.00
454.81	7440.27
455.01	7565.20
455.22	7331.73
455.43	7614.35
455.64	7804.81
455.85	7839.62
456.06	8056.71
456.27	7612.30
456.48	7686.03
456.68	7817.10
456.89	7913.35
457.10	7841.67
457.31	7989.13
457.52	7917.45
457.73	7997.32
457.94	8054.66
458.14	7919.50
458.35	8388.48
458.56	8181.64
458.77	7958.41
458.98	8044.42
459.19	8417.15
459.39	8296.32
459.60	8249.22
459.81	8247.17
460.02	8238.98
460.23	8300.42
460.44	8464.25
460.65	8525.69
460.85	8421.25
461.06	8560.51
461.27	8480.64
461.48	8793.98
461.69	8984.44
461.89	8550.27
462.10	8634.24
462.31	8462.21
462.52	8781.69
462.73	8834.94
462.94	9090.93
463.14	9013.11
463.35	8847.22
463.56	9305.97
463.77	9219.96
463.98	9140.08
464.18	9140.08
464.39	9406.32
464.60	9463.66
464.81	9258.87
465.02	9125.75
465.23	9631.60
465.43	9529.20
465.64	9564.01
465.85	9551.73
466.06	9521.01
466.27	9684.84
466.47	9803.63
466.68	9701.23
466.89	9723.76
467.10	9848.68
467.30	9781.10
467.51	9895.78
467.72	10239.84
467.93	9838.44
468.14	10102.63
468.34	10059.62
468.55	10329.95
468.76	10336.10
468.97	10063.72
469.17	10504.03
469.38	10473.31
469.59	10825.56
469.80	10530.66
470.01	10684.25
470.21	10674.01
470.42	10841.95
470.63	10909.53
470.84	10784.60
471.04	11044.70
471.25	10862.43
471.46	10979.16
471.67	11333.46
471.87	11255.64
472.08	11261.78
472.29	11663.18
472.50	11134.81
472.70	11405.14
472.91	11564.88
473.12	11693.90
473.33	11820.88
473.53	11994.95
473.74	11898.70
473.95	12042.06
474.16	12216.13
474.36	12191.56
474.57	12308.29
474.78	12664.64
474.99	12263.24
475.19	12281.67
475.40	12719.93
475.61	12756.80
475.81	12799.80
476.02	13078.33
476.23	12857.15
476.44	13049.66
476.64	13225.78
476.85	13299.51
477.06	13293.37
477.27	13551.41
477.47	13500.21
477.68	13354.80
477.89	13608.75
478.09	13827.88
478.30	13854.51
478.51	13598.51
478.71	14208.81
478.92	14044.97
479.13	14210.86
479.34	14257.96
479.54	14401.32
479.75	14436.13
479.96	14583.59
480.16	14475.04
480.37	14663.46
480.58	14692.13
480.78	15023.90
480.99	15314.71
481.20	15171.35
481.41	15142.68
481.61	15292.18
481.82	15527.70
482.03	15396.63
482.23	15345.43
482.44	15914.77
482.65	15941.39
482.85	15865.61
483.06	15974.16
483.27	16004.88
483.47	16217.86
483.68	16281.35
483.89	16377.61
484.09	16338.69
484.30	16574.21
484.51	16453.38
484.71	16629.51
484.92	16705.28
485.13	16981.76
485.33	16891.65
485.54	17204.99
485.75	17196.79
485.95	17176.31
486.16	17254.14
486.37	17786.61
486.57	17577.72
486.78	17454.84
486.98	17540.85
487.19	17852.14
487.40	17983.21
487.60	17737.46
487.81	18302.70
488.02	18171.63
488.22	17905.39
488.43	18022.12
488.64	18339.56
488.84	18462.44
489.05	18677.48
489.25	18509.54
489.46	18880.22
489.67	18925.28
489.87	19109.60
490.08	18718.43
490.29	18853.60
490.49	19400.41
490.70	19173.08
490.90	19541.72
491.11	19269.34
491.32	19437.27
491.52	19562.20
491.73	19627.73
491.94	20018.89
492.14	19853.01
492.35	19873.49
492.55	19992.27
492.76	20307.66
492.97	20430.54
493.17	20305.61
493.38	20551.37
493.58	20821.70
493.79	20795.07
494.00	20365.00
494.20	20666.05
494.41	20975.30
494.61	21128.89
494.82	20989.63
495.02	21112.51
495.23	21300.92
495.44	21266.11
495.64	21225.15
495.85	21620.41
496.05	21534.39
496.26	21259.96
496.47	21835.44
496.67	21321.40
496.88	21708.47
497.08	21513.91
497.29	22095.53
497.49	21679.80
497.70	21997.23
497.91	22195.89
498.11	22423.21
498.32	22308.52
498.52	22408.87
498.73	22623.91
498.93	22554.28
499.14	22566.57
499.34	22843.04
499.55	23092.90
499.76	22865.57
499.96	22765.22
500.17	22826.66
500.37	23037.60
500.58	22900.39
500.78	23269.02
500.99	23252.64
501.19	23539.35
501.40	23002.78
501.60	23441.05
501.81	23103.14
502.02	23490.20
502.22	23404.19
502.43	23805.59
502.63	23688.85
502.84	23807.64
503.04	23606.94
503.25	23781.01
503.45	23920.28
503.66	24188.56
503.86	23787.16
504.07	23901.84
504.27	23826.07
504.48	24577.67
504.68	24340.11
504.89	24370.83
505.09	24659.59
505.30	24610.44
505.50	24360.59
505.71	24628.87
505.91	24776.33
506.12	24692.36
506.32	24880.77
506.53	24800.90
506.73	24909.44
506.94	25099.90
507.14	25024.13
507.35	25196.16
507.55	24985.22
507.76	25222.78
507.96	25495.16
508.17	25063.04
508.37	25314.94
508.58	25392.76
508.78	25456.25
508.99	25726.58
509.19	25685.62
509.40	25351.81
509.60	25407.10
509.81	25734.78
510.01	25407.10
510.22	25753.21
510.42	25808.50
510.63	25855.61
510.83	26097.27
511.04	25849.46
511.24	25884.28
511.44	25980.53
511.65	26191.47
511.85	26078.83
512.06	26220.14
512.26	26265.20
512.47	26494.57
512.67	26271.34
512.88	26308.21
513.08	25874.04
513.29	26605.16
513.49	26457.71
513.69	26857.06
513.90	26586.73
514.10	26859.11
514.31	26701.42
514.51	26791.53
514.72	27213.41
514.92	26783.34
515.13	27088.48
515.33	26998.37
515.53	27053.67
515.74	27334.24
515.94	27362.91
516.15	27135.59
516.35	26955.36
516.56	27395.68
516.76	27334.24
516.96	27324.00
517.17	27526.75
517.37	27371.10
517.58	27340.38
517.78	27567.71
517.99	27625.05
518.19	27977.30
518.39	27930.20
518.60	28188.24
518.80	28100.18
519.01	28124.75
519.21	28364.37
519.41	28431.95
519.62	28128.85
519.82	28483.15
520.03	28399.18
520.23	28206.67
520.43	28366.42
520.64	28706.38
520.84	28929.61
521.05	28681.80
521.25	28939.85
521.45	28808.78
521.66	29189.70
521.86	29228.61
522.07	28886.60
522.27	29097.54
522.47	29273.67
522.68	29279.81
522.88	29562.43
523.08	29697.59
523.29	29914.68
523.49	29568.57
523.70	29572.67
523.90	29996.60
524.10	29732.41
524.31	30058.04
524.51	29756.99
524.71	30506.54
524.92	30332.47
525.12	30762.54
525.33	30248.50
525.53	30680.62
525.73	30584.37
525.94	30514.73
526.14	30492.21
526.34	30955.05
526.55	30729.77
526.75	30758.44
526.95	31477.28
527.16	30987.82
527.36	31045.16
527.56	31489.57
527.77	31620.64
527.97	31522.34
528.17	31737.37
528.38	31950.36
528.58	32099.86
528.78	31864.35
528.99	32044.57
529.19	32409.11
529.39	31864.35
529.60	32345.62
529.80	32069.14
530.00	32486.93
530.21	32407.06
530.41	32499.22
530.61	32572.94
530.82	32507.41
531.02	32724.49
531.22	33156.61
531.43	32951.82
531.63	33439.23
531.83	33678.85
532.04	33908.22
532.24	33123.85
532.44	33848.83
532.64	34065.91
532.85	34180.60
533.05	33754.62
533.25	33805.82
533.46	33486.34
533.66	34665.97
533.86	34358.77
534.07	34711.02
534.27	34584.05
534.47	34840.04
534.67	34878.96
534.88	34940.39
535.08	34942.44
535.28	35079.66
535.49	35206.63
535.69	35259.88
535.89	35476.96
536.09	35337.70
536.30	35659.23
536.50	35513.83
536.70	36128.22
536.91	35470.82
537.11	35935.71
537.31	35993.05
537.51	35806.69
537.72	36480.47
537.92	36341.21
538.12	36589.01
538.32	36462.04
538.53	36699.60
538.73	36419.03
538.93	36425.17
539.13	36634.06
539.34	36904.40
539.54	37023.18
539.74	37086.67
539.94	36939.21
540.15	36974.03
540.35	37328.33
540.55	37346.76
540.75	37408.20
540.96	37580.23
541.16	37397.96
541.36	37316.04
541.56	37809.60
541.77	37881.28
541.97	37426.63
542.17	37842.37
542.37	38116.79
542.58	37946.81
542.78	37688.77
542.98	38200.76
543.18	38368.69
543.38	38698.42
543.59	38663.60
543.79	38372.79
543.99	38194.62
544.19	38436.28
544.40	38467.00
544.60	39122.35
544.80	39124.40
545.00	38897.07
545.20	39542.18
545.41	38993.32
545.61	39173.55
545.81	39277.99
546.01	39364.01
546.21	39095.72
546.42	38923.69
546.62	39169.45
546.82	39167.40
547.02	39638.44
547.22	39603.62
547.43	39314.86
547.63	39507.37
547.83	39396.77
548.03	39417.25
548.23	39910.82
548.44	39955.87
548.64	40060.32
548.84	39841.18
549.04	39560.61
549.24	39994.78
549.45	40164.76
549.65	39767.46
549.85	39888.29
550.05	40459.67
550.25	40523.16
550.45	40652.18
550.66	39964.06
550.86	40271.26
551.06	40977.81
551.26	40621.46
551.46	40508.82
551.66	40682.90
551.87	40555.93
552.07	40846.74
552.27	40666.52
552.47	40988.05
552.67	40723.86
552.87	40832.40
553.07	40873.36
553.28	40899.98
553.48	41198.99
553.68	40830.35
553.88	41375.11
554.08	40787.35
554.28	41438.60
554.48	40695.19
554.69	41446.79
554.89	41076.11
555.09	41225.61
555.29	41092.49
555.49	41317.77
555.69	41198.99
555.89	41387.40
556.10	41690.50
556.30	41592.20
556.50	41567.62
556.70	41440.65
556.90	41645.44
557.10	41768.32
557.30	41237.90
557.50	41745.80
557.70	41850.24
557.91	42145.15
558.11	41792.90
558.31	41946.50
558.51	41670.02
558.71	42239.36
558.91	42155.39
559.11	42214.78
559.31	41842.05
559.51	41733.51
559.72	41956.74
559.92	42337.66
560.12	42194.30
560.32	42444.15
560.52	42245.50
560.72	41899.39
560.92	42034.56
561.12	42069.37
561.32	42978.67
561.52	42550.65
561.72	42825.07
561.93	42009.98
562.13	42319.23
562.33	42255.74
562.53	42898.80
562.73	42153.34
562.93	42589.56
563.13	42667.38
563.33	41977.22
563.53	42786.16
563.73	42376.57
563.93	42491.26
564.13	43027.82
564.33	42708.34
564.53	42605.94
564.74	43044.21
564.94	42401.14
565.14	42454.39
565.34	42853.75
565.54	42790.26
565.74	42997.10
565.94	43066.73
566.14	42984.82
566.34	42673.52
566.54	43521.38
566.74	42876.27
566.94	43060.59
567.14	43281.77
567.34	43189.61
567.54	43408.75
567.74	42890.61
567.94	42632.57
568.14	43277.68
568.34	43480.42
568.54	43218.28
568.74	43185.52
568.94	43294.06
569.14	43814.24
569.34	43498.86
569.54	43728.23
569.75	43142.51
569.95	43529.58
570.15	43818.34
570.35	43769.19
570.55	43722.08
570.75	43742.56
570.95	43877.73
571.15	44072.29
571.35	43742.56
571.55	44234.08
571.75	43855.20
571.95	44393.82
572.15	44070.24
572.35	44301.66
572.55	44391.77
572.75	44225.89
572.95	44514.65
573.15	44053.86
573.35	44334.43
573.55	43986.27
573.75	44262.75
573.95	44784.98
574.15	44457.31
574.35	44514.65
574.55	44248.41
574.75	44203.36
574.95	44760.40
575.15	44510.55
575.34	45032.78
575.54	44723.54
575.74	44633.43
575.94	44901.71
576.14	44758.36
576.34	45190.48
576.54	45501.77
576.74	44762.45
576.94	44864.85
577.14	45233.49
577.34	45421.90
577.54	45038.93
577.74	45393.23
577.94	45620.55
578.14	45292.88
578.34	45452.62
578.54	45008.21
578.74	45346.12
578.94	45649.22
579.14	45360.46
579.34	45376.84
579.54	46058.82
579.74	46101.82
579.94	45868.36
580.13	45935.94
580.33	45970.75
580.53	46085.44
580.73	46216.51
580.93	46105.92
581.13	46230.85
581.33	46810.42
581.53	46474.55
581.73	46488.89
581.93	46155.07
582.13	46521.66
582.33	46699.83
582.53	46513.47
582.73	46914.87
582.92	46683.45
583.12	46945.59
583.32	46685.50
583.52	46558.52
583.72	46949.68
583.92	46863.67
584.12	47199.54
584.32	47430.96
584.52	47359.28
584.72	46904.63
584.92	47512.88
585.11	47705.38
585.31	47453.48
585.51	47916.32
585.71	47559.98
585.91	47619.37
586.11	47529.26
586.31	48033.06
586.51	48110.88
586.71	47709.48
586.91	48119.07
587.10	48229.66
587.30	47963.43
587.50	48463.13
587.70	48031.01
587.90	48114.98
588.10	48575.77
588.30	48104.74
588.50	48487.71
588.69	48475.42
