SpectraSuite Data File
++++++++++++++++++++++++++++++++++++
Date: Fri Jun 02 14:49:23 CEST 2017
User: INFO_000
Dark Spectrum Present: No
Reference Spectrum Present: No
Number of Sampled Component Spectra: 1
Spectrometers: USB4H00879
Integration Time (usec): 80000 (USB4H00879)
Spectra Averaged: 1 (USB4H00879)
Boxcar Smoothing: 0 (USB4H00879)
Correct for Electrical Dark: No (USB4H00879)
Strobe/Lamp Enabled: No (USB4H00879)
Correct for Detector Non-linearity: No (USB4H00879)
Correct for Stray Light: No (USB4H00879)
Number of Pixels in Processed Spectrum: 3648
>>>>>Begin Processed Spectral Data<<<<<
345.13	1198.06
345.34	1198.06
345.56	1198.06
345.78	1220.59
345.99	1279.98
346.21	1677.29
346.42	1728.49
346.64	1564.65
346.86	1777.64
347.07	1628.14
347.29	1574.89
347.50	1609.70
347.72	1644.52
347.94	1722.34
348.15	1513.45
348.37	1667.05
348.59	1710.05
348.80	1697.77
349.02	1753.06
349.23	1794.02
349.45	1712.10
349.67	1771.49
349.88	1697.77
350.10	1828.84
350.31	1767.40
350.53	1718.25
350.75	1849.32
350.96	1658.85
351.18	1744.87
351.39	1724.39
351.61	1708.01
351.82	1781.73
352.04	1759.21
352.26	1732.58
352.47	1794.02
352.69	1785.83
352.90	1722.34
353.12	1773.54
353.34	1660.90
353.55	1794.02
353.77	1791.97
353.98	1673.19
354.20	1718.25
354.41	1777.64
354.63	1798.12
354.85	1964.00
355.06	1777.64
355.28	1613.80
355.49	1755.11
355.71	1759.21
355.92	1742.82
356.14	1863.65
356.35	1673.19
356.57	1703.91
356.79	1773.54
357.00	1779.68
357.22	1779.68
357.43	1734.63
357.65	1796.07
357.86	1685.48
358.08	1771.49
358.29	1734.63
358.51	1808.36
358.72	1837.03
358.94	1755.11
359.16	1871.84
359.37	1771.49
359.59	1845.22
359.80	1787.88
360.02	1787.88
360.23	1818.60
360.45	1900.52
360.66	1765.35
360.88	1634.28
361.09	1722.34
361.31	1820.64
361.52	1757.16
361.74	1877.99
361.95	1867.75
362.17	1740.77
362.38	1867.75
362.60	1857.51
362.81	1746.92
363.03	1744.87
363.24	1763.30
363.46	1869.80
363.67	1796.07
363.89	1771.49
364.10	1779.68
364.32	1677.29
364.53	1783.78
364.75	1705.96
364.96	1738.73
365.18	1849.32
365.39	1787.88
365.61	1726.44
365.82	1861.60
366.04	1806.31
366.25	1673.19
366.47	1888.23
366.68	1771.49
366.90	1802.21
367.11	1791.97
367.33	1765.35
367.54	1888.23
367.76	1796.07
367.97	1890.28
368.19	1775.59
368.40	1880.04
368.62	1726.44
368.83	1773.54
369.05	1734.63
369.26	1714.15
369.48	1740.77
369.69	1734.63
369.91	1798.12
370.12	1720.29
370.33	1812.45
370.55	1701.86
370.76	1781.73
370.98	1845.22
371.19	1744.87
371.41	1826.79
371.62	1751.01
371.84	1716.20
372.05	1896.42
372.27	1785.83
372.48	1810.40
372.69	1841.12
372.91	1978.34
373.12	1869.80
373.34	1722.34
373.55	1871.84
373.77	1791.97
373.98	1855.46
374.20	1882.08
374.41	2025.44
374.62	1820.64
374.84	1880.04
375.05	1802.21
375.27	1861.60
375.48	1869.80
375.70	1900.52
375.91	1953.76
376.12	2035.68
376.34	1826.79
376.55	1798.12
376.77	1847.27
376.98	1900.52
377.19	1826.79
377.41	1824.74
377.62	1916.90
377.84	1957.86
378.05	2111.46
378.27	1912.80
378.48	1912.80
378.69	2045.92
378.91	1916.90
379.12	1968.10
379.34	1859.56
379.55	1929.19
379.76	1947.62
379.98	1892.32
380.19	1931.23
380.41	1959.91
380.62	1968.10
380.83	1957.86
381.05	1824.74
381.26	2047.97
381.47	1802.21
381.69	1902.56
381.90	2142.18
382.12	1904.61
382.33	1845.22
382.54	1916.90
382.76	1961.95
382.97	2015.20
383.19	1808.36
383.40	2068.45
383.61	1982.43
383.83	1976.29
384.04	1982.43
384.25	2002.91
384.47	2031.58
384.68	1920.99
384.89	1974.24
385.11	2033.63
385.32	2074.59
385.54	1941.47
385.75	1900.52
385.96	2035.68
386.18	1986.53
386.39	2056.16
386.60	2019.30
386.82	2062.30
387.03	2027.49
387.24	2093.02
387.46	2045.92
387.67	2164.70
387.88	2215.90
388.10	2035.68
388.31	2093.02
388.52	2226.14
388.74	2154.46
388.95	2199.52
389.16	2039.78
389.38	2115.55
389.59	2197.47
389.80	2256.86
390.02	2252.77
390.23	2269.15
390.44	2166.75
390.66	2125.79
390.87	2041.82
391.08	2220.00
391.30	2314.20
391.51	2338.78
391.72	2250.72
391.94	2351.07
392.15	2306.01
392.36	2131.94
392.58	2154.46
392.79	2328.54
393.00	2303.96
393.22	2402.27
393.43	2392.03
393.64	2396.12
393.85	2412.51
394.07	2375.64
394.28	2418.65
394.49	2504.67
394.71	2611.16
394.92	2459.61
395.13	2340.83
395.35	2396.12
395.56	2228.19
395.77	2441.18
395.98	2404.32
396.20	2478.04
396.41	2605.02
396.62	2555.86
396.84	2490.33
397.05	2435.03
397.26	2588.63
397.47	2639.83
397.69	2471.90
397.90	2754.52
398.11	2645.98
398.32	2543.58
398.54	2471.90
398.75	2598.87
398.96	2676.70
399.18	2832.34
399.39	2654.17
399.60	2764.76
399.81	2592.73
400.03	2727.89
400.24	2783.19
400.45	2678.74
400.66	2822.10
400.88	2740.18
401.09	2838.48
401.30	2668.50
401.51	2861.01
401.73	2781.14
401.94	2787.29
402.15	2928.60
402.36	2975.70
402.58	2899.92
402.79	2951.12
403.00	2912.21
403.21	2928.60
403.43	3096.53
403.64	3010.51
403.85	3004.37
404.06	3059.67
404.27	2940.88
404.49	2992.08
404.70	2949.08
404.91	3035.09
405.12	3033.04
405.34	2944.98
405.55	3059.67
405.76	2959.31
405.97	3110.86
406.19	3256.27
406.40	3000.27
406.61	3131.34
406.82	3157.97
407.03	2953.17
407.25	3045.33
407.46	3231.69
407.67	3160.02
407.88	3336.14
408.09	3268.56
408.31	3174.35
408.52	3180.50
408.73	3272.65
408.94	3155.92
409.15	3254.22
409.37	3377.10
409.58	3260.37
409.79	3180.50
410.00	3459.02
410.21	3221.45
410.43	3317.71
410.64	3235.79
410.85	3297.23
411.06	3413.96
411.27	3459.02
411.48	3358.67
411.70	3448.78
411.91	3530.70
412.12	3553.23
412.33	3542.99
412.54	3446.73
412.76	3581.90
412.97	3551.18
413.18	3362.76
413.39	3436.49
413.60	3456.97
413.81	3504.07
414.03	3536.84
414.24	3491.79
414.45	3776.45
414.66	3493.83
414.87	3694.54
415.08	3538.89
415.30	3688.39
415.51	3708.87
415.72	3559.37
415.93	3649.48
416.14	3690.44
416.35	3772.36
416.56	3624.90
416.78	3811.27
416.99	3745.73
417.20	3684.30
417.41	3876.80
417.62	3776.45
417.83	3784.65
418.04	3794.89
418.26	3770.31
418.47	3712.97
418.68	3831.75
418.89	3948.48
419.10	3956.68
419.31	4042.69
419.52	4020.16
419.73	3889.09
419.95	4059.07
420.16	3934.15
420.37	4005.83
420.58	4106.18
420.79	3846.09
421.00	3889.09
421.21	4018.11
421.42	4052.93
421.63	4208.58
421.85	4042.69
422.06	4171.71
422.27	4220.86
422.48	4054.98
422.69	4214.72
422.90	4212.67
423.11	4204.48
423.32	4239.30
423.53	4433.85
423.75	4149.18
423.96	4298.69
424.17	4313.02
424.38	4341.69
424.59	4411.32
424.80	4497.34
425.01	4464.57
425.22	4407.23
425.43	4435.90
425.64	4624.31
425.85	4616.12
426.06	4507.58
426.28	4485.05
426.49	4513.72
426.70	4575.16
426.91	4560.83
427.12	4495.29
427.33	4599.74
427.54	4474.81
427.75	4759.48
427.96	4736.95
428.17	4661.18
428.38	4816.82
428.59	4845.49
428.80	4718.52
429.01	4890.55
429.23	4757.43
429.44	4802.49
429.65	4872.12
429.86	4923.32
430.07	4896.69
430.28	4710.33
430.49	5003.19
430.70	5207.98
430.91	5052.34
431.12	4970.42
431.33	5070.77
431.54	5128.11
431.75	5078.96
431.96	5093.30
432.17	4995.00
432.38	5111.73
432.59	5363.63
432.80	5306.29
433.01	5265.33
433.22	5318.57
433.43	5134.26
433.64	5267.38
433.85	5273.52
434.06	5267.38
434.27	5238.70
434.49	5183.41
434.70	5408.69
434.91	5242.80
435.12	5332.91
435.33	5414.83
435.54	5457.84
435.75	5396.40
435.96	5384.11
436.17	5304.24
436.38	5631.91
436.59	5539.76
436.80	5605.29
437.01	5728.17
437.22	5779.37
437.43	5533.61
437.64	5521.32
437.85	5752.74
438.06	5650.35
438.27	5576.62
438.48	5644.20
438.69	5746.60
438.90	5787.56
439.11	5619.63
439.32	5808.04
439.53	5719.98
439.74	5760.94
439.95	5728.17
440.16	5793.70
440.37	5656.49
440.57	5666.73
440.78	5820.33
440.99	5803.94
441.20	5924.77
441.41	5928.87
441.62	5943.21
441.83	5812.14
442.04	5947.30
442.25	6072.23
442.46	5908.39
442.67	6195.11
442.88	6442.91
443.09	5916.58
443.30	6094.76
443.51	6094.76
443.72	6305.70
443.93	6100.90
444.14	6342.56
444.35	6059.94
444.56	6227.87
444.77	6254.50
444.98	6315.94
445.19	6270.88
445.40	6299.55
445.61	6453.15
445.81	6590.36
446.02	6459.29
446.23	6485.92
446.44	6307.74
446.65	6444.96
446.86	6432.67
447.07	6504.35
447.28	6629.27
447.49	6674.33
447.70	6541.21
447.91	6516.64
448.12	6477.73
448.33	6813.59
448.54	6528.92
448.74	6588.32
448.95	6666.14
449.16	6705.05
449.37	6832.02
449.58	6817.69
449.79	6821.78
450.00	6727.58
450.21	6950.81
450.42	7016.34
450.63	6913.94
450.84	6725.53
451.05	7157.65
451.25	6858.65
451.46	7012.24
451.67	7237.52
451.88	7229.33
452.09	7122.84
452.30	7061.40
452.51	7104.40
452.72	7202.71
452.93	7483.28
453.13	6973.33
453.34	7143.32
453.55	7225.23
453.76	7335.82
453.97	7514.00
454.18	7405.46
454.39	7440.27
454.60	7481.23
454.81	7405.46
455.01	7540.62
455.22	7235.47
455.43	7569.29
455.64	7769.99
455.85	7860.10
456.06	7796.62
456.27	7653.26
456.48	7806.86
456.68	7790.47
456.89	7643.02
457.10	8060.80
457.31	7946.12
457.52	7950.21
457.73	7937.93
457.94	8079.24
458.14	7876.49
458.35	8570.75
458.56	8243.07
458.77	7958.41
458.98	8261.51
459.19	8112.00
459.39	8267.65
459.60	8523.65
459.81	8300.42
460.02	8597.37
460.23	8400.77
460.44	8615.80
460.65	8523.65
460.85	8695.68
461.06	8785.79
461.27	8300.42
461.48	8976.25
461.69	8877.94
461.89	8529.79
462.10	8793.98
462.31	8556.41
462.52	8755.07
462.73	8789.88
462.94	9135.99
463.14	8896.38
463.35	8974.20
463.56	9475.95
463.77	9279.35
463.98	9056.12
464.18	9197.43
464.39	9490.29
464.60	9424.75
464.81	9488.24
465.02	9353.07
465.23	9723.76
465.43	9414.51
465.64	9848.68
465.85	9621.36
466.06	9719.66
466.27	10137.45
466.47	9836.39
466.68	9766.76
466.89	10067.81
467.10	10137.45
467.30	9703.28
467.51	9973.61
467.72	10358.63
467.93	9910.12
468.14	10225.51
468.34	10381.15
468.55	10442.59
468.76	10567.52
468.97	10323.81
469.17	10536.80
469.38	10530.66
469.59	10882.91
469.80	10694.49
470.01	10639.20
470.21	10749.79
470.42	11120.47
470.63	10954.58
470.84	10923.87
471.04	11186.01
471.25	11243.35
471.46	11093.85
471.67	11396.95
471.87	11378.51
472.08	11386.71
472.29	11732.81
472.50	11454.29
472.70	11548.50
472.91	11669.33
473.12	11810.64
473.33	11929.42
473.53	12091.21
473.74	11994.95
473.95	12042.06
474.16	12384.07
474.36	12146.50
474.57	12332.87
474.78	12429.12
474.99	12445.51
475.19	12310.34
475.40	12597.06
475.61	12832.57
475.81	13066.04
476.02	13229.88
476.23	12939.07
476.44	13053.75
476.64	13186.87
476.85	13434.68
477.06	13303.60
477.27	13625.14
477.47	13657.90
477.68	13631.28
477.89	13874.99
478.09	13825.84
478.30	13819.69
478.51	13958.96
478.71	14081.83
478.92	14229.29
479.13	14083.88
479.34	14335.78
479.54	14421.80
479.75	14432.04
479.96	14329.64
480.16	14630.69
480.37	14700.32
480.58	14702.37
480.78	15175.45
480.99	14956.32
481.20	15202.07
481.41	15132.44
481.61	15320.85
481.82	15636.24
482.03	14989.08
482.23	15341.33
482.44	15519.51
482.65	16045.84
482.85	15843.09
483.06	15869.71
483.27	15867.66
483.47	16074.51
483.68	15951.63
483.89	16297.74
484.09	16152.33
484.30	16504.58
484.51	16604.93
484.71	16715.52
484.92	16598.79
485.13	16948.99
485.33	17147.64
485.54	16955.13
485.75	17254.14
485.95	17172.22
486.16	17536.76
486.37	17491.70
486.57	17377.01
486.78	17407.73
486.98	17762.03
487.19	17663.73
487.40	17698.55
487.60	17759.98
487.81	18128.62
488.02	17897.20
488.22	18181.87
488.43	18329.32
488.64	18388.71
488.84	18482.92
489.05	18487.01
489.25	18415.34
489.46	18765.54
489.67	18648.80
489.87	18874.08
490.08	18800.35
490.29	19019.49
490.49	19236.57
490.70	19113.69
490.90	19463.90
491.11	19416.79
491.32	19472.09
491.52	19185.37
491.73	19633.88
491.94	19545.81
492.14	19871.44
492.35	19957.46
492.55	19982.03
492.76	20115.15
492.97	20242.12
493.17	19869.39
493.38	20602.57
493.58	20582.09
493.79	20586.18
494.00	20375.24
494.20	20612.81
494.41	20680.39
494.61	21032.64
494.82	20795.07
495.02	20723.40
495.23	20997.82
495.44	21202.62
495.64	21018.30
495.85	21352.12
496.05	21561.02
496.26	21206.72
496.47	21706.42
496.67	21335.74
496.88	21778.10
497.08	21464.76
497.29	22101.68
497.49	21894.83
497.70	22017.71
497.91	21993.14
498.11	22412.97
498.32	22152.88
498.52	22300.33
498.73	22351.53
498.93	22513.32
499.14	22650.53
499.34	22736.55
499.55	22898.34
499.76	22492.84
499.96	22781.60
500.17	22836.90
500.37	22965.92
500.58	23266.97
500.78	23256.73
500.99	23017.12
501.19	23277.21
501.40	23398.04
501.60	23279.26
501.81	23545.50
502.02	23586.46
502.22	23434.91
502.43	23864.98
502.63	23719.57
502.84	24037.01
503.04	23879.32
503.25	23940.75
503.45	23785.11
503.66	24309.39
503.86	24004.24
504.07	24147.60
504.27	24014.48
504.48	24305.29
504.68	24182.42
504.89	24665.74
505.09	24745.61
505.30	24491.66
505.50	24772.23
505.71	24733.32
505.91	24485.51
506.12	24831.62
506.32	24694.41
506.53	24940.16
506.73	24989.31
506.94	24997.51
507.14	25226.88
507.35	25196.16
507.55	25097.86
507.76	25513.59
507.96	25407.10
508.17	25560.70
508.37	25407.10
508.58	25441.92
508.78	25607.80
508.99	26001.01
509.19	25474.68
509.40	25896.56
509.60	25742.97
509.81	25941.62
510.01	25781.88
510.22	25892.47
510.42	25931.38
510.63	26105.46
510.83	26177.14
511.04	26060.40
511.24	26576.49
511.44	26318.45
511.65	26426.99
511.85	26322.54
512.06	26412.65
512.26	26394.22
512.47	26603.11
512.67	26476.14
512.88	26662.51
513.08	26572.39
513.29	26916.45
513.49	27100.77
513.69	26762.86
513.90	27121.25
514.10	26840.68
514.31	27041.38
514.51	27199.07
514.72	27305.57
514.92	27227.74
515.13	27319.90
515.33	27321.95
515.53	27610.71
515.74	27295.33
515.94	27362.91
516.15	27489.88
516.35	27711.07
516.56	27778.65
516.76	27416.16
516.96	27643.48
517.17	27848.28
517.37	27731.54
517.58	27926.10
517.78	27704.92
517.99	28087.89
518.19	28487.25
518.39	28706.38
518.60	28403.28
518.80	28292.69
519.01	28591.69
519.21	28423.76
519.41	28450.38
519.62	28724.81
519.82	28778.06
520.03	28601.93
520.23	28722.76
520.43	28509.77
520.64	29261.38
520.84	29132.36
521.05	28866.12
521.25	29175.36
521.45	29402.69
521.66	29457.98
521.86	29083.20
522.07	29378.11
522.27	29564.48
522.47	29427.26
522.68	29605.44
522.88	29666.88
523.08	30092.85
523.29	29668.92
523.49	29974.07
523.70	29695.55
523.90	29900.34
524.10	30066.23
524.31	30289.46
524.51	30236.21
524.71	30574.13
524.92	30373.42
525.12	30342.70
525.33	30940.71
525.53	30842.41
525.73	30725.68
525.94	30852.65
526.14	30799.40
526.34	30983.72
526.55	31106.60
526.75	31202.85
526.95	31292.96
527.16	31223.33
527.36	31532.57
527.56	31647.26
527.77	31839.77
527.97	31598.11
528.17	31559.20
528.38	32198.16
528.58	31682.08
528.78	32144.92
528.99	31954.46
529.19	32120.34
529.39	31780.38
529.60	32429.59
529.80	32011.80
530.00	32413.20
530.21	32443.92
530.41	32646.67
530.61	32806.41
530.82	32564.75
531.02	32697.87
531.22	33306.12
531.43	32851.47
531.63	33242.63
531.83	33490.43
532.04	33668.61
532.24	33293.83
532.44	33934.84
532.64	33650.17
532.85	33809.92
533.05	33809.92
533.25	34055.67
533.46	33803.77
533.66	34143.74
533.86	34237.94
534.07	34285.04
534.27	34412.02
534.47	34797.04
534.67	34627.06
534.88	34301.43
535.08	34559.47
535.28	34844.14
535.49	35030.51
535.69	34905.58
535.89	34946.54
536.09	35405.28
536.30	35409.38
536.50	35409.38
536.70	35214.82
536.91	35343.84
537.11	35610.08
537.31	35282.41
537.51	35687.90
537.72	35988.95
537.92	35915.23
538.12	36339.16
538.32	35956.19
538.53	36156.89
538.73	35882.46
538.93	36185.56
539.13	36292.05
539.34	36548.05
539.54	36568.53
539.74	36599.25
539.94	36646.35
540.15	36357.59
540.35	37006.80
540.55	36619.73
540.75	37209.54
540.96	36902.35
541.16	36920.78
541.36	37127.63
541.56	37393.86
541.77	37250.50
541.97	37207.50
542.17	37375.43
542.37	37760.45
542.58	37596.61
542.78	37801.41
542.98	37424.58
543.18	38081.98
543.38	38157.75
543.59	38346.17
543.79	37981.63
543.99	37868.99
544.19	37860.80
544.40	38372.79
544.60	38612.40
544.80	38067.64
545.00	38458.81
545.20	38823.34
545.41	38628.79
545.61	38495.67
545.81	39122.35
546.01	38978.99
546.21	38440.37
546.42	38645.17
546.62	38845.87
546.82	39243.18
547.02	39318.95
547.22	38763.95
547.43	39237.03
547.63	39253.42
547.83	39167.40
548.03	39521.70
548.23	39787.94
548.44	39503.27
548.64	39435.69
548.84	39941.53
549.04	39832.99
549.24	40162.72
549.45	40052.12
549.65	39601.57
549.85	39761.31
550.05	40011.17
550.25	40254.87
550.45	40189.34
550.66	40514.97
550.86	40295.83
551.06	40408.47
551.26	40402.33
551.46	40756.63
551.66	40768.91
551.87	40648.08
552.07	40514.97
552.27	40285.59
552.47	40889.74
552.67	40478.10
552.87	40543.64
553.07	40721.81
553.28	41127.31
553.48	41078.16
553.68	40816.02
553.88	41557.38
554.08	41024.91
554.28	40615.32
554.48	40676.76
554.69	41086.35
554.89	41225.61
555.09	41391.50
555.29	41110.92
555.49	41069.97
555.69	41514.37
555.89	41590.15
556.10	41764.23
556.30	41346.44
556.50	41733.51
556.70	41358.73
556.90	41993.60
557.10	41784.71
557.30	41569.67
557.50	41844.10
557.70	42110.33
557.91	41903.49
558.11	41973.12
558.31	42251.64
558.51	41569.67
558.71	41954.69
558.91	42485.11
559.11	42112.38
559.31	42282.36
559.51	41483.66
559.72	41860.48
559.92	42308.99
560.12	41856.39
560.32	42671.48
560.52	42292.60
560.72	41823.62
560.92	42468.73
561.12	42155.39
561.32	42904.95
561.52	42556.79
561.72	42882.42
561.93	42509.69
562.13	42507.64
562.33	42272.12
562.53	43099.50
562.73	42521.98
562.93	42784.12
563.13	42798.45
563.33	42855.79
563.53	42855.79
563.73	42644.85
563.93	42659.19
564.13	42958.19
564.33	43093.36
564.53	42870.13
564.74	43414.89
564.94	43009.39
565.14	43361.64
565.34	43128.17
565.54	43283.82
565.74	43289.96
565.94	43767.14
566.14	43328.87
566.34	43345.26
566.54	43558.25
566.74	43197.80
566.94	43584.87
567.14	43537.77
567.34	43607.40
567.54	43836.77
567.74	43582.82
567.94	43369.83
568.14	43593.06
568.34	44178.78
568.54	44037.47
568.74	43859.30
568.94	43787.62
569.14	44264.80
569.34	43918.69
569.54	44082.53
569.75	43750.76
569.95	44168.54
570.15	44330.33
570.35	44199.26
570.55	44189.02
570.75	44135.77
570.95	44160.35
571.15	44287.32
571.35	44107.10
571.55	44463.45
571.75	44664.15
571.95	44424.54
572.15	44623.19
572.35	44848.47
572.55	44664.15
572.75	44346.72
572.95	44774.74
573.15	44496.22
573.35	44920.15
573.55	44260.70
573.75	44832.08
573.95	44995.92
574.15	44598.62
574.35	44639.57
574.55	44967.25
574.75	45092.18
574.95	45174.09
575.15	45106.51
575.34	45479.24
575.54	45217.10
575.74	45542.73
575.94	45417.80
576.14	45399.37
576.34	45741.38
576.54	45708.61
576.74	45632.84
576.94	45647.18
577.14	45528.39
577.34	45843.78
577.54	45835.59
577.74	45841.73
577.94	45395.28
578.14	45784.39
578.34	46413.12
578.54	45446.47
578.74	46009.67
578.94	46169.41
579.14	45806.92
579.34	46171.46
579.54	46011.71
579.74	47058.23
579.94	46714.17
580.13	46372.16
580.33	46757.17
580.53	46306.62
580.73	46976.31
580.93	46691.64
581.13	46912.82
581.33	47107.38
581.53	47080.75
581.73	47252.78
581.93	47113.52
582.13	47215.92
582.33	47240.50
582.53	47136.05
582.73	46581.05
582.92	47418.67
583.12	47426.86
583.32	47619.37
583.52	47052.08
583.72	47547.69
583.92	47330.61
584.12	47439.15
584.32	48125.22
584.52	47660.33
584.72	47418.67
584.92	47789.35
585.11	48102.69
585.31	47953.19
585.51	47996.20
585.71	48067.87
585.91	47885.61
586.11	48041.25
586.31	47744.30
586.51	47975.72
586.71	48260.38
586.91	48569.63
587.10	48510.24
587.30	48555.29
587.50	48244.00
587.70	48340.25
587.90	48112.93
588.10	48289.06
588.30	48430.36
588.50	48741.66
