SpectraSuite Data File
++++++++++++++++++++++++++++++++++++
Date: Fri Jun 02 14:49:23 CEST 2017
User: INFO_000
Dark Spectrum Present: No
Reference Spectrum Present: No
Number of Sampled Component Spectra: 1
Spectrometers: USB4H00879
Integration Time (usec): 80000 (USB4H00879)
Spectra Averaged: 1 (USB4H00879)
Boxcar Smoothing: 0 (USB4H00879)
Correct for Electrical Dark: No (USB4H00879)
Strobe/Lamp Enabled: No (USB4H00879)
Correct for Detector Non-linearity: No (USB4H00879)
Correct for Stray Light: No (USB4H00879)
Number of Pixels in Processed Spectrum: 3648
>>>>>Begin Processed Spectral Data<<<<<
345.13	1286.12
345.34	1286.12
345.56	1286.12
345.78	1290.22
345.99	1234.93
346.21	1667.05
346.42	1656.81
346.64	1665.00
346.86	1830.88
347.07	1687.53
347.29	1693.67
347.50	1535.98
347.72	1632.23
347.94	1712.10
348.15	1585.13
348.37	1626.09
348.59	1662.95
348.80	1603.56
349.02	1671.14
349.23	1736.68
349.45	1787.88
349.67	1857.51
349.88	1763.30
350.10	1910.75
350.31	1732.58
350.53	1728.49
350.75	1927.14
350.96	1634.28
351.18	1814.50
351.39	1689.57
351.61	1665.00
351.82	1810.40
352.04	1812.45
352.26	1744.87
352.47	1814.50
352.69	1781.73
352.90	1634.28
353.12	1726.44
353.34	1757.16
353.55	1806.31
353.77	1765.35
353.98	1677.29
354.20	1736.68
354.41	1837.03
354.63	1789.92
354.85	1920.99
355.06	1847.27
355.28	1634.28
355.49	1802.21
355.71	1748.97
355.92	1722.34
356.14	1779.68
356.35	1732.58
356.57	1648.61
356.79	1832.93
357.00	1738.73
357.22	1847.27
357.43	1775.59
357.65	1777.64
357.86	1701.86
358.08	1759.21
358.29	1857.51
358.51	1896.42
358.72	1791.97
358.94	1785.83
359.16	1843.17
359.37	1773.54
359.59	1796.07
359.80	1845.22
360.02	1767.40
360.23	1859.56
360.45	1816.55
360.66	1855.46
360.88	1691.62
361.09	1718.25
361.31	1804.26
361.52	1652.71
361.74	1832.93
361.95	1896.42
362.17	1802.21
362.38	1935.33
362.60	1890.28
362.81	1789.92
363.03	1830.88
363.24	1812.45
363.46	1964.00
363.67	1853.41
363.89	1871.84
364.10	1880.04
364.32	1718.25
364.53	1861.60
364.75	1699.81
364.96	1796.07
365.18	1820.64
365.39	1812.45
365.61	1751.01
365.82	1937.38
366.04	1855.46
366.25	1753.06
366.47	1918.95
366.68	1882.08
366.90	1796.07
367.11	1906.66
367.33	1884.13
367.54	1923.04
367.76	1832.93
367.97	2023.39
368.19	1800.16
368.40	1912.80
368.62	1773.54
368.83	1695.72
369.05	1839.08
369.26	1699.81
369.48	1824.74
369.69	1794.02
369.91	1925.09
370.12	1755.11
370.33	1894.37
370.55	1800.16
370.76	1804.26
370.98	1853.41
371.19	1896.42
371.41	1867.75
371.62	1888.23
371.84	1761.25
372.05	1988.58
372.27	1884.13
372.48	2009.06
372.69	1855.46
372.91	2013.15
373.12	1888.23
373.34	1875.94
373.55	1923.04
373.77	1976.29
373.98	1875.94
374.20	2017.25
374.41	1984.48
374.62	1937.38
374.84	2002.91
375.05	1900.52
375.27	1978.34
375.48	1996.77
375.70	1968.10
375.91	2013.15
376.12	2088.93
376.34	2015.20
376.55	1978.34
376.77	1935.33
376.98	1918.95
377.19	1992.67
377.41	1949.67
377.62	2070.50
377.84	2076.64
378.05	2211.81
378.27	1966.05
378.48	2078.69
378.69	2115.55
378.91	2142.18
379.12	2142.18
379.34	2052.06
379.55	2037.73
379.76	2015.20
379.98	2015.20
380.19	2133.98
380.41	2015.20
380.62	2047.97
380.83	1994.72
381.05	1982.43
381.26	2291.68
381.47	1853.41
381.69	2029.54
381.90	2222.05
382.12	2052.06
382.33	2043.87
382.54	2064.35
382.76	2105.31
382.97	2140.13
383.19	2086.88
383.40	2215.90
383.61	2097.12
383.83	2121.70
384.04	2021.35
384.25	2250.72
384.47	2220.00
384.68	2125.79
384.89	2043.87
385.11	2187.23
385.32	2138.08
385.54	2170.85
385.75	2162.66
385.96	2248.67
386.18	2127.84
386.39	2127.84
386.60	2150.37
386.82	2187.23
387.03	2164.70
387.24	2236.38
387.46	2195.42
387.67	2359.26
387.88	2303.96
388.10	2277.34
388.31	2226.14
388.52	2445.27
388.74	2314.20
388.95	2387.93
389.16	2263.01
389.38	2303.96
389.59	2432.99
389.80	2416.60
390.02	2447.32
390.23	2533.34
390.44	2357.21
390.66	2355.16
390.87	2265.05
391.08	2461.66
391.30	2566.10
391.51	2482.14
391.72	2592.73
391.94	2437.08
392.15	2568.15
392.36	2480.09
392.58	2437.08
392.79	2439.13
393.00	2553.82
393.22	2695.13
393.43	2658.26
393.64	2688.98
393.85	2740.18
394.07	2602.97
394.28	2660.31
394.49	2709.46
394.71	2650.07
394.92	2721.75
395.13	2531.29
395.35	2670.55
395.56	2553.82
395.77	2738.13
395.98	2611.16
396.20	2703.32
396.41	2770.90
396.62	2848.72
396.84	2688.98
397.05	2613.21
397.26	2736.09
397.47	2887.64
397.69	2729.94
397.90	2912.21
398.11	2844.63
398.32	2811.86
398.54	2766.81
398.75	2832.34
398.96	2858.96
399.18	2973.65
399.39	2826.20
399.60	2914.26
399.81	2893.78
400.03	2797.53
400.24	3149.78
400.45	2766.81
400.66	3035.09
400.88	2965.46
401.09	3114.96
401.30	3012.56
401.51	3088.34
401.73	3117.01
401.94	3067.86
402.15	3114.96
402.36	2936.79
402.58	3090.38
402.79	3117.01
403.00	3063.76
403.21	3223.50
403.43	3125.20
403.64	3246.03
403.85	3094.48
404.06	3162.06
404.27	3094.48
404.49	3168.21
404.70	3088.34
404.91	3176.40
405.12	3131.34
405.34	3233.74
405.55	3375.05
405.76	3129.30
405.97	3215.31
406.19	3254.22
406.40	3190.74
406.61	3276.75
406.82	3237.84
407.03	3229.65
407.25	3162.06
407.46	3336.14
407.67	3243.98
407.88	3504.07
408.09	3422.16
408.31	3276.75
408.52	3366.86
408.73	3413.96
408.94	3389.39
409.15	3393.48
409.37	3454.92
409.58	3475.40
409.79	3585.99
410.00	3577.80
410.21	3463.12
410.43	3454.92
410.64	3356.62
410.85	3426.25
411.06	3401.68
411.27	3549.13
411.48	3553.23
411.70	3530.70
411.91	3571.66
412.12	3633.10
412.33	3502.03
412.54	3563.47
412.76	3641.29
412.97	3723.21
413.18	3424.20
413.39	3690.44
413.60	3647.43
413.81	3686.34
414.03	3655.62
414.24	3629.00
414.45	3821.51
414.66	3588.04
414.87	3690.44
415.08	3821.51
415.30	3645.38
415.51	3717.06
415.72	3678.15
415.93	3626.95
416.14	3719.11
416.35	3868.61
416.56	3891.14
416.78	3678.15
416.99	3930.05
417.20	3868.61
417.41	3825.61
417.62	3901.38
417.83	3962.82
418.04	3788.74
418.26	3891.14
418.47	3821.51
418.68	4011.97
418.89	3971.01
419.10	4136.90
419.31	3901.38
419.52	4095.94
419.73	3950.53
419.95	3991.49
420.16	3856.33
420.37	3944.39
420.58	4001.73
420.79	3825.61
421.00	4138.94
421.21	4192.19
421.42	4089.79
421.63	4149.18
421.85	4171.71
422.06	4173.76
422.27	4120.51
422.48	4286.40
422.69	4175.81
422.90	4073.41
423.11	4286.40
423.32	4292.54
423.53	4261.82
423.75	4288.45
423.96	4405.18
424.17	4241.34
424.38	4452.28
424.59	4278.21
424.80	4591.55
425.01	4329.41
425.22	4386.75
425.43	4405.18
425.64	4603.83
425.85	4614.07
426.06	4485.05
426.28	4485.05
426.49	4425.66
426.70	4487.10
426.91	4534.20
427.12	4620.22
427.33	4626.36
427.54	4521.92
427.75	4786.10
427.96	4800.44
428.17	4708.28
428.38	4648.89
428.59	4906.93
428.80	4679.61
429.01	4683.70
429.23	4698.04
429.44	4917.17
429.65	4863.93
429.86	4941.75
430.07	4949.94
430.28	4775.86
430.49	4941.75
430.70	5048.24
430.91	4927.41
431.12	4827.06
431.33	5173.17
431.54	5113.78
431.75	5023.67
431.96	5181.36
432.17	5021.62
432.38	5019.57
432.59	5310.38
432.80	5115.83
433.01	5156.79
433.22	5345.20
433.43	5277.62
433.64	5269.42
433.85	5271.47
434.06	5400.49
434.27	5093.30
434.49	5392.30
434.70	5427.12
434.91	5449.64
435.12	5466.03
435.33	5425.07
435.54	5435.31
435.75	5285.81
435.96	5377.97
436.17	5320.62
436.38	5396.40
436.59	5574.57
436.80	5384.11
437.01	5928.87
437.22	5703.59
437.43	5515.18
437.64	5433.26
437.85	5672.87
438.06	5754.79
438.27	5578.67
438.48	5705.64
438.69	5824.42
438.90	5935.01
439.11	5566.38
439.32	5787.56
439.53	5650.35
439.74	5918.63
439.95	5945.25
440.16	5826.47
440.37	5877.67
440.57	5865.38
440.78	5818.28
440.99	5973.92
441.20	5943.21
441.41	5832.62
441.62	6043.56
441.83	5939.11
442.04	6029.22
442.25	6014.88
442.46	6035.36
442.67	6152.10
442.88	6584.22
443.09	5922.73
443.30	5822.38
443.51	5932.97
443.72	6365.09
443.93	6051.75
444.14	6451.10
444.35	5920.68
444.56	6242.21
444.77	6289.31
444.98	6401.95
445.19	6408.09
445.40	6375.33
445.61	6305.70
445.81	6520.73
446.02	6518.68
446.23	6268.83
446.44	6356.90
446.65	6412.19
446.86	6461.34
447.07	6512.54
447.28	6504.35
447.49	6678.43
447.70	6494.11
447.91	6619.04
448.12	6455.20
448.33	6711.19
448.54	6659.99
448.74	6530.97
448.95	6897.56
449.16	6737.82
449.37	7094.16
449.58	6705.05
449.79	6907.80
450.00	6815.64
450.21	6932.37
450.42	7090.07
450.63	7022.48
450.84	6971.29
451.05	6893.46
451.25	6883.22
451.46	6862.74
451.67	7098.26
451.88	7155.60
452.09	7114.64
452.30	7042.96
452.51	7077.78
452.72	6963.09
452.93	7456.65
453.13	7163.79
453.34	7202.71
453.55	7212.95
453.76	7303.06
453.97	7643.02
454.18	7315.34
454.39	7589.77
454.60	7395.22
454.81	7511.95
455.01	7497.61
455.22	7356.30
455.43	7520.14
455.64	7696.27
455.85	7831.43
456.06	7888.78
456.27	7673.74
456.48	7729.03
456.68	7794.57
456.89	7907.21
457.10	8023.94
457.31	8003.46
457.52	7884.68
457.73	8107.91
457.94	8116.10
458.14	7937.93
458.35	8138.63
458.56	8105.86
458.77	8138.63
458.98	8224.64
459.19	8228.74
459.39	8349.57
459.60	8542.08
459.81	8263.55
460.02	8384.38
460.23	8441.73
460.44	8572.80
460.65	8488.83
460.85	8707.96
461.06	8691.58
461.27	8621.95
461.48	8857.46
461.69	8955.77
461.89	8585.08
462.10	8836.99
462.31	8730.49
462.52	8836.99
462.73	8798.07
462.94	9174.90
463.14	9252.72
463.35	9066.36
463.56	9469.81
463.77	9398.13
463.98	9000.82
464.18	9308.02
464.39	9289.59
464.60	9672.56
464.81	9437.04
465.02	9449.33
465.23	9670.51
465.43	9559.92
465.64	9723.76
465.85	9770.86
466.06	9600.88
466.27	9944.94
466.47	9836.39
466.68	10100.58
466.89	9949.03
467.10	9963.37
467.30	9959.27
467.51	10157.92
467.72	10397.54
467.93	10022.76
468.14	10295.14
468.34	10383.20
468.55	10495.84
468.76	10561.37
468.97	10284.90
469.17	10555.23
469.38	10798.94
469.59	10975.06
469.80	10745.69
470.01	10686.30
470.21	10882.91
470.42	11083.61
470.63	11216.72
470.84	11063.13
471.04	11304.79
471.25	11005.78
471.46	11267.92
471.67	11335.51
471.87	11423.57
472.08	11439.95
472.29	11681.61
472.50	11376.47
472.70	11532.11
472.91	11806.54
473.12	11814.73
473.33	11847.50
473.53	12130.12
473.74	11853.64
473.95	12238.66
474.16	12396.35
474.36	12191.56
474.57	12476.23
474.78	12379.97
474.99	12498.75
475.19	12365.64
475.40	12656.45
475.61	12791.61
475.81	12693.31
476.02	12994.36
476.23	12676.93
476.44	12916.54
476.64	13258.55
476.85	13430.58
477.06	13373.24
477.27	13594.42
477.47	13469.49
477.68	13543.22
477.89	13733.68
478.09	13741.87
478.30	13895.47
478.51	13975.34
478.71	13981.48
478.92	14098.22
479.13	14315.30
479.34	14151.46
479.54	14374.69
479.75	14532.39
479.96	14587.68
480.16	14651.17
480.37	14587.68
480.58	14608.16
480.78	14679.84
480.99	14833.44
481.20	15173.40
481.41	15447.83
481.61	15173.40
481.82	15456.02
482.03	15427.35
482.23	15345.43
482.44	15666.96
482.65	15795.98
482.85	15798.03
483.06	15736.59
483.27	15894.29
483.47	16197.38
483.68	15945.48
483.89	16154.38
484.09	16221.96
484.30	16451.33
484.51	16563.97
484.71	16582.40
484.92	16512.77
485.13	16703.23
485.33	16686.85
485.54	16488.20
485.75	17204.99
485.95	17237.75
486.16	17204.99
486.37	17370.87
486.57	17477.37
486.78	17307.38
486.98	17725.17
487.19	17680.11
487.40	17899.25
487.60	17743.60
487.81	18058.99
488.02	17827.57
488.22	17997.55
488.43	18167.53
488.64	18351.85
488.84	18280.17
489.05	18675.43
489.25	18314.98
489.46	18812.64
489.67	18700.00
489.87	19005.15
490.08	18863.84
490.29	18867.94
490.49	19373.78
490.70	19302.11
490.90	19422.94
491.11	19211.99
491.32	19289.82
491.52	19672.79
491.73	19668.69
491.94	19879.63
492.14	19531.48
492.35	20162.25
492.55	20358.86
492.76	20254.41
492.97	20315.85
493.17	20211.40
493.38	20430.54
493.58	20739.78
493.79	20807.36
494.00	20485.83
494.20	20778.69
494.41	21165.76
494.61	20926.14
494.82	21182.14
495.02	20948.67
495.23	20928.19
495.44	21141.18
495.64	21450.42
495.85	21438.14
496.05	21409.47
496.26	21622.45
496.47	21767.86
496.67	21690.04
496.88	22070.96
497.08	21759.67
497.29	22105.77
497.49	22144.69
497.70	22247.08
497.91	22478.50
498.11	22349.48
498.32	22265.52
498.52	22605.48
498.73	22720.17
498.93	22578.86
499.14	22927.01
499.34	22892.19
499.55	22738.60
499.76	22892.19
499.96	22705.83
500.17	22908.58
500.37	23279.26
500.58	23352.99
500.78	23256.73
500.99	23490.20
501.19	23187.10
501.40	23658.14
501.60	23080.61
501.81	23654.04
502.02	23543.45
502.22	23336.60
502.43	24065.68
502.63	23778.97
502.84	24000.15
503.04	24057.49
503.25	23768.73
503.45	23914.13
503.66	24157.84
503.86	24358.54
504.07	24424.08
504.27	24327.82
504.48	24651.40
504.68	24376.97
504.89	24770.18
505.09	24745.61
505.30	24805.00
505.50	24678.02
505.71	25087.62
505.91	24901.25
506.12	24831.62
506.32	24845.96
506.53	24901.25
506.73	25155.20
506.94	25122.43
507.14	25013.89
507.35	25204.35
507.55	25503.35
507.76	25470.59
507.96	25147.01
508.17	25329.28
508.37	25448.06
508.58	25362.04
508.78	25671.29
508.99	25636.47
509.19	25679.48
509.40	26007.16
509.60	25890.42
509.81	25998.96
510.01	25751.16
510.22	25876.09
510.42	25816.69
510.63	26058.35
510.83	26185.33
511.04	26107.51
511.24	26226.29
511.44	26039.92
511.65	26347.12
511.85	26228.34
512.06	26549.87
512.26	26392.17
512.47	26510.96
512.67	26461.80
512.88	26754.66
513.08	26379.89
513.29	26744.42
513.49	26740.33
513.69	26734.18
513.90	26877.54
514.10	26947.17
514.31	27080.29
514.51	27076.19
514.72	27115.11
514.92	27018.85
515.13	27018.85
515.33	27367.01
515.53	26918.50
515.74	27211.36
515.94	27135.59
516.15	27387.49
516.35	27481.69
516.56	27627.10
516.76	27551.32
516.96	27674.20
517.17	27655.77
517.37	27721.30
517.58	28010.07
517.78	28022.36
517.99	28048.98
518.19	28069.46
518.39	28356.18
518.60	28276.30
518.80	28421.71
519.01	28354.13
519.21	28507.72
519.41	28452.43
519.62	28388.94
519.82	28634.70
520.03	28874.31
520.23	28749.39
520.43	28792.39
520.64	29128.26
520.84	29267.52
521.05	28624.46
521.25	29271.62
521.45	29058.63
521.66	29455.93
521.86	28991.05
522.07	29210.18
522.27	29554.24
522.47	29195.84
522.68	29812.28
522.88	29441.60
523.08	30101.04
523.29	29820.47
523.49	29763.13
523.70	29980.21
523.90	30096.95
524.10	30328.37
524.31	30287.41
524.51	30252.59
524.71	30625.32
524.92	30533.17
525.12	30602.80
525.33	30582.32
525.53	30969.38
525.73	31245.86
525.94	31125.03
526.14	30957.10
526.34	30823.98
526.55	31170.08
526.75	31217.19
526.95	31278.63
527.16	31360.55
527.36	31716.89
527.56	31714.84
527.77	31704.60
527.97	32120.34
528.17	31618.59
528.38	32046.62
528.58	32175.64
528.78	32077.33
528.99	32011.80
529.19	32362.00
529.39	32271.89
529.60	32509.46
529.80	32523.79
530.00	32370.19
530.21	32876.04
530.41	33005.06
530.61	32810.51
530.82	32781.84
531.02	33091.08
531.22	33293.83
531.43	33488.38
531.63	33486.34
531.83	33639.93
532.04	33914.36
532.24	33361.41
532.44	33875.45
532.64	34258.42
532.85	34334.20
533.05	34082.30
533.25	34084.34
533.46	34379.25
533.66	34670.06
533.86	33875.45
534.07	34635.25
534.27	34483.70
534.47	34643.44
534.67	34727.41
534.88	34584.05
535.08	34940.39
535.28	35243.49
535.49	35210.73
535.69	35354.08
535.89	35651.04
536.09	35055.08
536.30	35491.30
536.50	35067.37
536.70	35012.07
536.91	35569.12
537.11	35436.00
537.31	35780.06
537.51	35675.62
537.72	36257.24
537.92	36158.94
538.12	36447.70
538.32	36349.40
538.53	36480.47
538.73	36210.14
538.93	36304.34
539.13	36507.09
539.34	36531.67
539.54	36414.93
539.74	37082.57
539.94	36976.08
540.15	36711.89
540.35	37053.90
540.55	36967.88
540.75	37320.13
540.96	37516.74
541.16	37479.88
541.36	37205.45
541.56	37520.84
541.77	37406.15
541.97	37457.35
542.17	37531.08
542.37	37490.12
542.58	37694.91
542.78	37922.24
542.98	37737.92
543.18	37615.04
543.38	38147.51
543.59	38092.22
543.79	37744.06
543.99	38215.10
544.19	37987.77
544.40	38208.95
544.60	38092.22
544.80	38370.74
545.00	38428.09
545.20	38800.82
545.41	38600.12
545.61	38294.97
545.81	38526.39
546.01	39284.14
546.21	38907.31
546.42	38608.31
546.62	38933.93
546.82	38786.48
547.02	38749.62
547.22	39282.09
547.43	38813.10
547.63	39384.49
547.83	39165.35
548.03	39155.11
548.23	39839.14
548.44	39208.36
548.64	39282.09
548.84	39759.27
549.04	39577.00
549.24	39583.14
549.45	39849.38
549.65	39468.45
549.85	39749.03
550.05	40043.93
550.25	39712.16
550.45	40678.80
550.66	40142.24
550.86	39794.08
551.06	39994.78
551.26	40140.19
551.46	40027.55
551.66	40240.54
551.87	40320.41
552.07	40179.10
552.27	40502.68
552.47	40506.77
552.67	40635.80
552.87	40584.60
553.07	40576.40
553.28	40367.51
553.48	40732.05
553.68	40598.93
553.88	41184.65
554.08	40807.83
554.28	40754.58
554.48	40684.95
554.69	40867.22
554.89	40953.23
555.09	41018.77
555.29	40932.75
555.49	41471.37
555.69	41155.98
555.89	41424.26
556.10	41387.40
556.30	41389.45
556.50	41403.78
556.70	41244.04
556.90	41549.19
557.10	41772.42
557.30	41567.62
557.50	41557.38
557.70	41993.60
557.91	41997.70
558.11	41749.89
558.31	42063.23
558.51	41997.70
558.71	41715.08
558.91	42372.47
559.11	42251.64
559.31	41954.69
559.51	41741.70
559.72	41989.50
559.92	42122.62
560.12	42227.07
560.32	42173.82
560.52	42057.09
560.72	42462.58
560.92	42218.88
561.12	42554.74
561.32	43177.33
561.52	42501.50
561.72	42777.97
561.93	42700.15
562.13	42593.65
562.33	42769.78
562.53	43015.54
562.73	42681.72
562.93	42704.24
563.13	42952.05
563.33	42507.64
563.53	43019.63
563.73	42734.96
563.93	43492.71
564.13	43275.63
564.33	43808.10
564.53	43308.40
564.74	43300.20
564.94	42913.14
565.14	43709.80
565.34	43246.96
565.54	43386.22
565.74	43357.55
565.94	43928.93
566.14	43445.61
566.34	43591.01
566.54	44367.20
566.74	43289.96
566.94	43670.89
567.14	44047.71
567.34	43797.86
567.54	44146.01
567.74	43945.31
567.94	43941.22
568.14	44506.46
568.34	44125.53
568.54	44023.14
568.74	44053.86
568.94	44647.77
569.14	44299.61
569.34	44461.40
569.54	44434.78
569.75	44283.23
569.95	44340.57
570.15	44852.56
570.35	44535.13
570.55	44479.83
570.75	44815.70
570.95	44733.78
571.15	44635.48
571.35	44518.74
571.55	44842.32
571.75	45120.85
571.95	44789.08
572.15	44397.91
572.35	44936.53
572.55	44698.97
572.75	44891.48
572.95	44952.91
573.15	45421.90
573.35	45032.78
573.55	44850.52
573.75	45208.91
573.95	45208.91
574.15	45233.49
574.35	45536.59
574.55	45438.28
574.75	45217.10
574.95	45544.78
575.15	45083.98
575.34	45995.33
575.54	45942.08
575.74	45892.93
575.94	46060.87
576.14	46118.21
576.34	45921.60
576.54	45843.78
576.74	46161.22
576.94	45923.65
577.14	46150.98
577.34	46044.48
577.54	45888.84
577.74	46404.92
577.94	46114.11
578.14	46437.69
578.34	46470.46
578.54	45935.94
578.74	46239.04
578.94	46007.62
579.14	46329.15
579.34	46351.68
579.54	46327.10
579.74	46478.65
579.94	47215.92
580.13	46779.70
580.33	46331.20
580.53	46368.06
580.73	46994.74
580.93	46931.25
581.13	46748.98
581.33	46816.57
581.53	47025.46
581.73	46800.18
581.93	47433.00
582.13	47437.10
582.33	47047.99
582.53	47019.31
582.73	47199.54
582.92	47482.16
583.12	47531.31
583.32	47289.65
583.52	47244.59
583.72	47516.97
583.92	47428.91
584.12	47668.52
584.32	47861.03
584.52	47820.07
584.72	47541.55
584.92	47557.93
585.11	48215.33
585.31	47580.46
585.51	47871.27
585.71	47867.17
585.91	48071.97
586.11	47539.50
586.31	47662.38
586.51	47854.89
586.71	48145.70
586.91	48364.83
587.10	48203.04
587.30	48151.84
587.50	48420.13
587.70	48452.89
587.90	48571.67
588.10	48577.82
588.30	48090.40
588.50	48643.35
