SpectraSuite Data File
++++++++++++++++++++++++++++++++++++
Date: Fri Jun 02 14:49:30 CEST 2017
User: INFO_000
Dark Spectrum Present: No
Reference Spectrum Present: No
Number of Sampled Component Spectra: 1
Spectrometers: USB4H00879
Integration Time (usec): 80000 (USB4H00879)
Spectra Averaged: 1 (USB4H00879)
Boxcar Smoothing: 0 (USB4H00879)
Correct for Electrical Dark: No (USB4H00879)
Strobe/Lamp Enabled: No (USB4H00879)
Correct for Detector Non-linearity: No (USB4H00879)
Correct for Stray Light: No (USB4H00879)
Number of Pixels in Processed Spectrum: 3648
>>>>>Begin Processed Spectral Data<<<<<
345.13	1296.36
345.34	1296.36
345.56	1296.36
345.78	1349.61
345.99	1329.13
346.21	1734.63
346.42	1796.07
346.64	1726.44
346.86	1832.93
347.07	1617.90
347.29	1759.21
347.50	1656.81
347.72	1587.18
347.94	1761.25
348.15	1578.98
348.37	1632.23
348.59	1617.90
348.80	1648.61
349.02	1816.55
349.23	1863.65
349.45	1732.58
349.67	1826.79
349.88	1771.49
350.10	1976.29
350.31	1806.31
350.53	1796.07
350.75	1968.10
350.96	1728.49
351.18	1896.42
351.39	1789.92
351.61	1886.18
351.82	1892.32
352.04	1918.95
352.26	1861.60
352.47	1929.19
352.69	2029.54
352.90	1783.78
353.12	1871.84
353.34	1896.42
353.55	1882.08
353.77	1912.80
353.98	1820.64
354.20	1744.87
354.41	1890.28
354.63	1927.14
354.85	2043.87
355.06	1877.99
355.28	1765.35
355.49	1937.38
355.71	1863.65
355.92	1839.08
356.14	1970.15
356.35	1884.13
356.57	1808.36
356.79	1931.23
357.00	1892.32
357.22	1933.28
357.43	1814.50
357.65	1947.62
357.86	1812.45
358.08	1914.85
358.29	1927.14
358.51	1982.43
358.72	2007.01
358.94	1863.65
359.16	1916.90
359.37	1916.90
359.59	1974.24
359.80	2041.82
360.02	1951.71
360.23	1980.39
360.45	1994.72
360.66	1890.28
360.88	1943.52
361.09	1949.67
361.31	1941.47
361.52	1966.05
361.74	2052.06
361.95	2039.78
362.17	1935.33
362.38	2062.30
362.60	2029.54
362.81	2019.30
363.03	1943.52
363.24	1943.52
363.46	2064.35
363.67	2000.87
363.89	2025.44
364.10	2037.73
364.32	1943.52
364.53	2013.15
364.75	1951.71
364.96	1970.15
365.18	2058.21
365.39	2035.68
365.61	1912.80
365.82	2095.07
366.04	1945.57
366.25	1968.10
366.47	2035.68
366.68	2004.96
366.90	1912.80
367.11	1988.58
367.33	2086.88
367.54	2037.73
367.76	2017.25
367.97	2136.03
368.19	2031.58
368.40	2011.11
368.62	2013.15
368.83	1992.67
369.05	2068.45
369.26	1972.19
369.48	1943.52
369.69	1953.76
369.91	2007.01
370.12	1998.82
370.33	2138.08
370.55	2015.20
370.76	2039.78
370.98	2015.20
371.19	2017.25
371.41	2011.11
371.62	2013.15
371.84	2011.11
372.05	2166.75
372.27	2054.11
372.48	2070.50
372.69	2170.85
372.91	2084.83
373.12	2201.57
373.34	2093.02
373.55	2222.05
373.77	2183.13
373.98	2060.26
374.20	2146.27
374.41	2275.29
374.62	2170.85
374.84	2144.22
375.05	2254.81
375.27	2199.52
375.48	2191.33
375.70	2050.02
375.91	2232.29
376.12	2209.76
376.34	2062.30
376.55	2113.50
376.77	2238.43
376.98	2125.79
377.19	2066.40
377.41	2129.89
377.62	2201.57
377.84	2183.13
378.05	2312.16
378.27	2099.17
378.48	2332.64
378.69	2435.03
378.91	2285.53
379.12	2248.67
379.34	2260.96
379.55	2263.01
379.76	2189.28
379.98	2189.28
380.19	2263.01
380.41	2232.29
380.62	2238.43
380.83	2224.09
381.05	2269.15
381.26	2355.16
381.47	2258.91
381.69	2213.85
381.90	2346.97
382.12	2299.87
382.33	2316.25
382.54	2306.01
382.76	2328.54
382.97	2328.54
383.19	2234.33
383.40	2383.84
383.61	2344.92
383.83	2281.44
384.04	2332.64
384.25	2340.83
384.47	2353.12
384.68	2408.41
384.89	2322.40
385.11	2318.30
385.32	2275.29
385.54	2363.36
385.75	2367.45
385.96	2402.27
386.18	2314.20
386.39	2449.37
386.60	2394.08
386.82	2373.60
387.03	2437.08
387.24	2432.99
387.46	2439.13
387.67	2453.47
387.88	2461.66
388.10	2480.09
388.31	2435.03
388.52	2641.88
388.74	2529.24
388.95	2564.06
389.16	2490.33
389.38	2605.02
389.59	2584.54
389.80	2625.50
390.02	2516.95
390.23	2674.65
390.44	2584.54
390.66	2529.24
390.87	2482.14
391.08	2559.96
391.30	2670.55
391.51	2510.81
391.72	2731.99
391.94	2699.22
392.15	2609.11
392.36	2617.30
392.58	2609.11
392.79	2699.22
393.00	2641.88
393.22	2789.33
393.43	2756.57
393.64	2832.34
393.85	2797.53
394.07	2650.07
394.28	2623.45
394.49	2711.51
394.71	2844.63
394.92	2752.47
395.13	2633.69
395.35	2781.14
395.56	2828.24
395.77	2826.20
395.98	2785.24
396.20	2852.82
396.41	2764.76
396.62	2877.40
396.84	2797.53
397.05	2813.91
397.26	2826.20
397.47	2879.44
397.69	2795.48
397.90	3074.00
398.11	2985.94
398.32	2875.35
398.54	2850.77
398.75	2858.96
398.96	2875.35
399.18	3055.57
399.39	2826.20
399.60	2963.41
399.81	2936.79
400.03	2885.59
400.24	3182.54
400.45	2969.55
400.66	3127.25
400.88	2846.68
401.09	3172.30
401.30	3026.90
401.51	3153.87
401.73	3057.62
401.94	3067.86
402.15	3082.19
402.36	3121.10
402.58	3145.68
402.79	3153.87
403.00	3106.77
403.21	3198.93
403.43	3219.41
403.64	3266.51
403.85	3137.49
404.06	3217.36
404.27	3104.72
404.49	3114.96
404.70	3076.05
404.91	3383.24
405.12	3248.08
405.34	3225.55
405.55	3401.68
405.76	3174.35
405.97	3178.45
406.19	3289.04
406.40	3231.69
406.61	3420.11
406.82	3379.15
407.03	3313.61
407.25	3291.09
407.46	3338.19
407.67	3356.62
407.88	3377.10
408.09	3311.57
408.31	3379.15
408.52	3393.48
408.73	3342.28
408.94	3301.33
409.15	3409.87
409.37	3506.12
409.58	3444.68
409.79	3467.21
410.00	3516.36
410.21	3405.77
410.43	3342.28
410.64	3534.79
410.85	3393.48
411.06	3510.22
411.27	3583.95
411.48	3604.42
411.70	3499.98
411.91	3545.03
412.12	3542.99
412.33	3641.29
412.54	3491.79
412.76	3676.10
412.97	3598.28
413.18	3559.37
413.39	3612.62
413.60	3764.17
413.81	3633.10
414.03	3639.24
414.24	3573.71
414.45	3835.85
414.66	3538.89
414.87	3690.44
415.08	3682.25
415.30	3624.90
415.51	3704.78
415.72	3747.78
415.93	3721.16
416.14	3856.33
416.35	3776.45
416.56	3770.31
416.78	3852.23
416.99	3854.28
417.20	3719.11
417.41	3788.74
417.62	3934.15
417.83	3874.76
418.04	3868.61
418.26	3960.77
418.47	3891.14
418.68	4020.16
418.89	3864.52
419.10	4091.84
419.31	3995.59
419.52	4026.31
419.73	4054.98
419.95	4138.94
420.16	4024.26
420.37	3923.91
420.58	4083.65
420.79	3846.09
421.00	4181.95
421.21	4112.32
421.42	4022.21
421.63	4104.13
421.85	4196.29
422.06	4044.74
422.27	4173.76
422.48	4106.18
422.69	4022.21
422.90	4179.90
423.11	4181.95
423.32	4300.73
423.53	4388.80
423.75	4300.73
423.96	4472.76
424.17	4323.26
424.38	4464.57
424.59	4417.47
424.80	4616.12
425.01	4470.72
425.22	4564.92
425.43	4368.32
425.64	4468.67
425.85	4585.40
426.06	4511.68
426.28	4540.35
426.49	4429.76
426.70	4446.14
426.91	4624.31
427.12	4550.59
427.33	4595.64
427.54	4564.92
427.75	4814.77
427.96	4788.15
428.17	4734.90
428.38	4655.03
428.59	4790.20
428.80	4753.34
429.01	4841.40
429.23	4898.74
429.44	4995.00
429.65	4997.04
429.86	5042.10
430.07	4890.55
430.28	4798.39
430.49	4945.84
430.70	5070.77
430.91	5107.63
431.12	4982.71
431.33	5134.26
431.54	5148.59
431.75	5107.63
431.96	5146.55
432.17	5156.79
432.38	5138.35
432.59	5226.42
432.80	5171.12
433.01	5212.08
433.22	5261.23
433.43	5287.86
433.64	5296.05
433.85	5072.82
434.06	5269.42
434.27	5185.46
434.49	5435.31
434.70	5382.06
434.91	5277.62
435.12	5447.60
435.33	5312.43
435.54	5296.05
435.75	5271.47
435.96	5433.26
436.17	5423.02
436.38	5636.01
436.59	5463.98
436.80	5470.12
437.01	5840.81
437.22	5775.27
437.43	5562.28
437.64	5375.92
437.85	5681.07
438.06	5738.41
438.27	5572.52
438.48	5668.78
438.69	5781.42
438.90	5777.32
439.11	5636.01
439.32	5668.78
439.53	5740.46
439.74	5799.85
439.95	5762.98
440.16	5775.27
440.37	5816.23
440.57	5773.22
440.78	5855.14
440.99	5906.34
441.20	6010.79
441.41	5803.94
441.62	5871.53
441.83	5849.00
442.04	6074.28
442.25	5939.11
442.46	5943.21
442.67	6154.15
442.88	6375.33
443.09	6064.04
443.30	6131.62
443.51	6033.32
443.72	6432.67
443.93	5965.73
444.14	6383.52
444.35	6004.64
444.56	6164.39
444.77	6277.02
444.98	6158.24
445.19	6387.61
445.40	6137.76
445.61	6309.79
445.81	6416.29
446.02	6467.49
446.23	6297.50
446.44	6150.05
446.65	6530.97
446.86	6358.94
447.07	6539.16
447.28	6567.84
447.49	6598.56
447.70	6412.19
447.91	6502.30
448.12	6721.43
448.33	6690.71
448.54	6709.15
448.74	6666.14
448.95	6739.87
449.16	6686.62
449.37	6995.86
449.58	6645.66
449.79	7008.15
450.00	6594.46
450.21	6963.09
450.42	7045.01
450.63	6946.71
450.84	6938.52
451.05	7116.69
451.25	7016.34
451.46	7004.05
451.67	7057.30
451.88	7163.79
452.09	7061.40
452.30	7071.64
452.51	7239.57
452.72	7258.00
452.93	7524.24
453.13	7124.88
453.34	7161.75
453.55	7206.80
453.76	7341.97
453.97	7587.72
454.18	7380.88
454.39	7565.20
454.60	7593.87
454.81	7384.98
455.01	7507.85
455.22	7253.91
455.43	7643.02
455.64	7761.80
455.85	7708.55
456.06	8058.76
456.27	7821.19
456.48	7722.89
456.68	7808.90
456.89	7964.55
457.10	8003.46
457.31	7966.60
457.52	7982.98
457.73	8087.43
457.94	8226.69
458.14	8013.70
458.35	8435.58
458.56	8236.93
458.77	8302.47
458.98	8275.84
459.19	8279.94
459.39	8433.54
459.60	8431.49
459.81	8302.47
460.02	8660.86
460.23	8535.93
460.44	8679.29
460.65	8587.13
460.85	8566.65
461.06	8808.31
461.27	8548.22
461.48	8918.90
461.69	9015.16
461.89	8634.24
462.10	8820.60
462.31	8810.36
462.52	8826.75
462.73	8908.66
462.94	9064.31
463.14	8859.51
463.35	9109.36
463.56	9482.10
463.77	9371.50
463.98	9185.14
464.18	9254.77
464.39	9639.79
464.60	9607.02
464.81	9697.13
465.02	9643.88
465.23	9744.24
465.43	9760.62
465.64	10008.42
465.85	9670.51
466.06	9572.21
466.27	10207.08
466.47	9994.09
466.68	10129.25
466.89	9977.70
467.10	10141.54
467.30	9811.82
467.51	10198.88
467.72	10454.88
467.93	10088.29
468.14	10121.06
468.34	10377.06
468.55	10407.78
468.76	10579.81
468.97	10432.35
469.17	10493.79
469.38	10604.38
469.59	10774.36
469.80	10698.59
470.01	10942.30
470.21	10891.10
470.42	10989.40
470.63	11155.29
470.84	10960.73
471.04	11204.44
471.25	11093.85
471.46	11050.84
471.67	11407.19
471.87	11425.62
472.08	11534.16
472.29	11718.48
472.50	11417.43
472.70	11454.29
472.91	11691.85
473.12	11835.21
473.33	11837.26
473.53	12152.65
473.74	11968.33
473.95	11994.95
474.16	12013.38
474.36	12152.65
474.57	12379.97
474.78	12339.01
474.99	12558.14
475.19	12320.58
475.40	12711.74
475.61	12728.13
475.81	12949.31
476.02	13244.21
476.23	12898.11
476.44	13135.67
476.64	13256.50
476.85	13274.93
477.06	13287.22
477.27	13293.37
477.47	13494.07
477.68	13582.13
477.89	13887.28
478.09	13741.87
478.30	13733.68
478.51	13903.66
478.71	14034.73
478.92	14122.79
479.13	14208.81
479.34	14233.38
479.54	14188.33
479.75	14386.98
479.96	14757.66
480.16	14520.10
480.37	14837.53
480.58	15044.38
480.78	15204.12
480.99	14931.74
481.20	15107.87
481.41	15261.46
481.61	15296.28
481.82	15372.05
482.03	15271.70
482.23	15283.99
482.44	15529.75
482.65	15775.50
482.85	15953.68
483.06	15623.95
483.27	15945.48
483.47	15871.76
483.68	16185.10
483.89	16258.82
484.09	16355.08
484.30	16142.09
484.51	16557.83
484.71	16582.40
484.92	16514.82
485.13	16774.91
485.33	16887.55
485.54	16828.16
485.75	17028.86
485.95	17291.00
486.16	16989.95
486.37	17247.99
486.57	17307.38
486.78	17401.59
486.98	17319.67
487.19	17450.74
487.40	17676.02
487.60	17645.30
487.81	17872.62
488.02	17880.82
488.22	18024.17
488.43	18075.37
488.64	18212.59
488.84	18331.37
489.05	18624.23
489.25	18450.15
489.46	18802.40
489.67	18472.68
489.87	18781.92
490.08	18763.49
490.29	18812.64
490.49	19433.18
490.70	19384.02
490.90	19416.79
491.11	19125.98
491.32	19275.48
491.52	19298.01
491.73	19324.63
491.94	19480.28
492.14	19689.17
492.35	20055.76
492.55	20315.85
492.76	20240.08
492.97	20139.72
493.17	20149.96
493.38	20213.45
493.58	20573.89
493.79	20686.53
494.00	20661.96
494.20	20645.57
494.41	20608.71
494.61	21073.60
494.82	20885.19
495.02	21018.30
495.23	21028.54
495.44	21294.78
495.64	21401.27
495.85	21356.22
496.05	21487.29
496.26	21747.38
496.47	21849.78
496.67	21477.05
496.88	21982.90
497.08	21755.57
497.29	22138.54
497.49	22257.32
497.70	22163.12
497.91	22247.08
498.11	22447.79
498.32	22322.86
498.52	22304.43
498.73	22709.93
498.93	22730.41
499.14	22793.89
499.34	22777.51
499.55	23148.19
499.76	22970.02
499.96	22877.86
500.17	23211.68
500.37	23144.09
500.58	23473.82
500.78	23436.95
500.99	23105.18
501.19	23617.18
501.40	23537.30
501.60	23656.09
501.81	23781.01
502.02	23690.90
502.22	23543.45
502.43	24065.68
502.63	24014.48
502.84	24114.83
503.04	24092.30
503.25	24206.99
503.45	24280.72
503.66	24669.83
503.86	24084.11
504.07	24471.18
504.27	24297.10
504.48	24827.53
504.68	24827.53
504.89	24942.21
505.09	25013.89
505.30	24934.02
505.50	24868.48
505.71	24712.84
505.91	25228.93
506.12	25020.03
506.32	25474.68
506.53	25243.26
506.73	25269.89
506.94	25593.47
507.14	25439.87
507.35	25511.55
507.55	25804.41
507.76	25714.30
507.96	25726.58
508.17	25976.44
508.37	25906.80
508.58	26209.90
508.78	25992.82
508.99	26265.20
509.19	25910.90
509.40	26068.59
509.60	26252.91
509.81	26125.94
510.01	26121.84
510.22	26048.11
510.42	26416.75
510.63	26678.89
510.83	26406.51
511.04	26654.31
511.24	26490.48
511.44	26779.24
511.65	27006.56
511.85	26844.77
512.06	26789.48
512.26	27174.50
512.47	27061.86
512.67	26850.92
512.88	27203.17
513.08	26961.51
513.29	26975.84
513.49	27008.61
513.69	27133.54
513.90	27661.91
514.10	27432.54
514.31	27676.25
514.51	27557.47
514.72	27471.45
514.92	27313.76
515.13	27614.81
515.33	27756.12
515.53	27752.02
515.74	27752.02
515.94	27864.66
516.15	27962.97
516.35	27709.02
516.56	28198.48
516.76	27846.23
516.96	28083.80
517.17	28245.58
517.37	28335.70
517.58	28075.60
517.78	27928.15
517.99	28354.13
518.19	28245.58
518.39	28419.66
518.60	28454.48
518.80	28268.11
519.01	29204.03
519.21	28507.72
519.41	28857.93
519.62	28603.98
519.82	28976.71
520.03	29070.92
520.23	28786.25
520.43	29101.64
520.64	29152.84
520.84	29578.81
521.05	29251.14
521.25	29464.13
521.45	29519.42
521.66	29361.73
521.86	29746.75
522.07	29693.50
522.27	29505.09
522.47	29832.76
522.68	30099.00
522.88	30109.24
523.08	30160.44
523.29	29648.44
523.49	30146.10
523.70	29728.31
523.90	30277.17
524.10	30287.41
524.31	30559.79
524.51	30213.68
524.71	30549.55
524.92	30445.10
525.12	30555.69
525.33	30606.89
525.53	30697.00
525.73	30955.05
525.94	30864.94
526.14	30967.34
526.34	31219.24
526.55	31022.63
526.75	31133.22
526.95	31622.69
527.16	31168.04
527.36	31417.89
527.56	31440.42
527.77	31604.25
527.97	31766.04
528.17	31606.30
528.38	31827.48
528.58	31692.32
528.78	31870.49
528.99	32050.71
529.19	31931.93
529.39	32101.91
529.60	32337.43
529.80	32122.39
530.00	32073.24
530.21	32562.70
530.41	32503.31
530.61	32308.76
530.82	32355.86
531.02	32804.36
531.22	32980.49
531.43	32728.59
531.63	33218.05
531.83	33052.17
532.04	33373.70
532.24	33189.38
532.44	33562.11
532.64	33396.23
532.85	33539.58
533.05	33859.07
533.25	33525.25
533.46	33965.56
533.66	34055.67
533.86	33947.13
534.07	34356.72
534.27	34055.67
534.47	34479.60
534.67	34366.96
534.88	34412.02
535.08	34299.38
535.28	34831.85
535.49	34811.37
535.69	35071.46
535.89	34823.66
536.09	34731.50
536.30	35534.31
536.50	35087.85
536.70	35440.10
536.91	35284.45
537.11	35071.46
537.31	35288.55
537.51	35519.97
537.72	35616.22
537.92	35802.59
538.12	35898.84
538.32	35671.52
538.53	36031.96
538.73	35919.32
538.93	35948.00
539.13	35841.50
539.34	36505.04
539.54	36167.13
539.74	36683.22
539.94	36439.51
540.15	36777.42
540.35	36683.22
540.55	36818.38
540.75	37017.04
540.96	36988.36
541.16	36617.68
541.36	37146.06
541.56	36943.31
541.77	37379.53
541.97	37029.32
542.17	37275.08
542.37	37336.52
542.58	37569.99
542.78	37453.25
542.98	37979.58
543.18	37498.31
543.38	37719.49
543.59	37860.80
543.79	37662.15
543.99	37729.73
544.19	38479.28
544.40	37856.70
544.60	38356.41
544.80	38010.30
545.00	38301.11
545.20	38651.31
545.41	38227.38
545.61	38458.81
545.81	38737.33
546.01	38716.85
546.21	38888.88
546.42	38647.22
546.62	38946.22
546.82	38813.10
547.02	38763.95
547.22	39163.31
547.43	38913.45
547.63	39062.96
547.83	39529.89
548.03	39245.23
548.23	39640.48
548.44	39452.07
548.64	39300.52
548.84	39832.99
549.04	39943.58
549.24	39730.59
549.45	40218.01
549.65	39718.31
549.85	40095.13
550.05	40158.62
550.25	39789.98
550.45	40762.77
550.66	40344.98
550.86	40015.26
551.06	40422.81
551.26	40220.06
551.46	40457.62
551.66	40379.80
551.87	40191.39
552.07	40652.18
552.27	40709.52
552.47	40580.50
552.67	40531.35
552.87	40828.30
553.07	41006.48
553.28	40863.12
553.48	41119.12
553.68	40986.00
553.88	41440.65
554.08	41004.43
554.28	41192.84
554.48	41123.21
554.69	41115.02
554.89	41452.94
555.09	41276.81
555.29	41278.86
555.49	41358.73
555.69	41848.19
555.89	41420.17
556.10	41723.27
556.30	41969.02
556.50	41852.29
556.70	41780.61
556.90	42091.90
557.10	41944.45
557.30	41725.32
557.50	42100.09
557.70	42360.19
557.91	42618.23
558.11	42505.59
558.31	41946.50
558.51	42149.24
558.71	42360.19
558.91	42759.54
559.11	42227.07
559.31	42601.85
559.51	42728.82
559.72	42438.01
559.92	43097.45
560.12	42689.91
560.32	42743.16
560.52	42640.76
560.72	42708.34
560.92	43130.22
561.12	42806.64
561.32	43652.45
561.52	42886.51
561.72	43232.62
561.93	42886.51
562.13	43349.35
562.33	43038.06
562.53	43859.30
562.73	43085.17
562.93	43306.35
563.13	43746.66
563.33	43255.15
563.53	43670.89
563.73	43380.07
563.93	43474.28
564.13	43865.44
564.33	43605.35
564.53	43736.42
564.74	43801.96
564.94	43617.64
565.14	43849.06
565.34	43496.81
565.54	44039.52
565.74	43959.65
565.94	44123.49
566.14	43857.25
566.34	44150.11
566.54	44393.82
566.74	43832.68
566.94	44539.22
567.14	44551.51
567.34	44152.16
567.54	44234.08
567.74	44533.08
567.94	44211.55
568.14	44875.09
568.34	44602.71
568.54	44821.84
568.74	44578.14
568.94	44500.31
569.14	45059.41
569.34	45137.23
569.54	44741.97
569.75	44465.50
569.95	45167.95
570.15	45182.29
570.35	44893.52
570.55	44694.87
570.75	44979.54
570.95	45063.50
571.15	45143.38
571.35	44995.92
571.55	45409.61
571.75	45432.14
571.95	45303.12
572.15	44875.09
572.35	45505.87
572.55	45303.12
572.75	45288.78
572.95	45407.56
573.15	45235.53
573.35	45782.34
573.55	45559.11
573.75	45421.90
573.95	45759.81
574.15	45487.43
574.35	45413.71
574.55	45956.42
574.75	45753.67
574.95	45835.59
575.15	45563.21
575.34	45804.87
575.54	45743.43
575.74	46292.29
575.94	46007.62
576.14	46030.15
576.34	46292.29
576.54	46318.91
576.74	46093.63
576.94	46134.59
577.14	46363.96
577.34	46640.44
577.54	46267.71
577.74	46718.26
577.94	46523.71
578.14	46576.95
578.34	46771.51
578.54	46171.46
578.74	46574.91
578.94	46857.52
579.14	46456.12
579.34	46386.49
579.54	46880.05
579.74	47267.12
579.94	47043.89
580.13	46964.02
580.33	46523.71
580.53	47062.32
580.73	47160.62
580.93	47170.86
581.13	47289.65
581.33	47074.61
581.53	47514.92
581.73	47494.44
581.93	47901.99
582.13	47224.11
582.33	47664.42
582.53	47422.76
582.73	47592.75
582.92	47711.53
583.12	47942.95
583.32	47482.16
583.52	47797.54
583.72	48209.18
583.92	47709.48
584.12	47940.90
584.32	48442.65
584.52	47807.78
584.72	47828.26
584.92	47981.86
585.11	48366.88
585.31	48440.60
585.51	48522.52
585.71	48223.52
585.91	48393.50
586.11	48491.80
586.31	48315.68
586.51	48239.90
586.71	48452.89
586.91	48637.21
587.10	48319.77
587.30	48561.44
587.50	48811.29
587.70	49022.23
587.90	48868.63
588.10	48762.14
588.30	48958.74
588.50	48755.99
