SpectraSuite Data File
++++++++++++++++++++++++++++++++++++
Date: Fri Jun 02 14:52:27 CEST 2017
User: INFO_000
Dark Spectrum Present: No
Reference Spectrum Present: No
Number of Sampled Component Spectra: 1
Spectrometers: USB4H00879
Integration Time (usec): 80000 (USB4H00879)
Spectra Averaged: 1 (USB4H00879)
Boxcar Smoothing: 0 (USB4H00879)
Correct for Electrical Dark: No (USB4H00879)
Strobe/Lamp Enabled: No (USB4H00879)
Correct for Detector Non-linearity: No (USB4H00879)
Correct for Stray Light: No (USB4H00879)
Number of Pixels in Processed Spectrum: 3648
>>>>>Begin Processed Spectral Data<<<<<
345.13	1265.64
345.34	1265.64
345.56	1265.64
345.78	1234.93
345.99	1316.84
346.21	1748.97
346.42	1642.47
346.64	1595.37
346.86	1859.56
347.07	1613.80
347.29	1693.67
347.50	1644.52
347.72	1685.48
347.94	1742.82
348.15	1601.51
348.37	1617.90
348.59	1652.71
348.80	1667.05
349.02	1787.88
349.23	1925.09
349.45	1822.69
349.67	1920.99
349.88	1822.69
350.10	2037.73
350.31	1837.03
350.53	1843.17
350.75	1986.53
350.96	1757.16
351.18	1863.65
351.39	1847.27
351.61	1810.40
351.82	1920.99
352.04	1902.56
352.26	1818.60
352.47	1882.08
352.69	1953.76
352.90	1705.96
353.12	1916.90
353.34	1845.22
353.55	1937.38
353.77	1882.08
353.98	1863.65
354.20	1832.93
354.41	2011.11
354.63	1814.50
354.85	1943.52
355.06	1984.48
355.28	1771.49
355.49	1925.09
355.71	1974.24
355.92	1859.56
356.14	2037.73
356.35	1834.98
356.57	1855.46
356.79	2025.44
357.00	1904.61
357.22	1935.33
357.43	1906.66
357.65	1982.43
357.86	1855.46
358.08	1914.85
358.29	1916.90
358.51	2054.11
358.72	2000.87
358.94	1990.63
359.16	1863.65
359.37	1982.43
359.59	2007.01
359.80	2052.06
360.02	1964.00
360.23	1961.95
360.45	2056.16
360.66	2027.49
360.88	1894.37
361.09	1953.76
361.31	2002.91
361.52	1955.81
361.74	2056.16
361.95	2099.17
362.17	1984.48
362.38	2099.17
362.60	2021.35
362.81	1961.95
363.03	1900.52
363.24	2056.16
363.46	2131.94
363.67	2007.01
363.89	1984.48
364.10	2125.79
364.32	2027.49
364.53	2072.54
364.75	1867.75
364.96	2045.92
365.18	2082.78
365.39	1964.00
365.61	1998.82
365.82	2105.31
366.04	1955.81
366.25	1898.47
366.47	2131.94
366.68	2013.15
366.90	2002.91
367.11	2072.54
367.33	2015.20
367.54	2080.74
367.76	2027.49
367.97	2164.70
368.19	2019.30
368.40	2058.21
368.62	2015.20
368.83	2047.97
369.05	2095.07
369.26	2045.92
369.48	2021.35
369.69	1986.53
369.91	2068.45
370.12	2011.11
370.33	2133.98
370.55	2064.35
370.76	2062.30
370.98	2117.60
371.19	2088.93
371.41	2013.15
371.62	2107.36
371.84	2052.06
372.05	2211.81
372.27	2133.98
372.48	2025.44
372.69	2131.94
372.91	2158.56
373.12	2158.56
373.34	2064.35
373.55	2076.64
373.77	2166.75
373.98	2129.89
374.20	2205.66
374.41	2176.99
374.62	2125.79
374.84	2144.22
375.05	2152.42
375.27	2144.22
375.48	2238.43
375.70	2215.90
375.91	2197.47
376.12	2310.11
376.34	2306.01
376.55	2203.61
376.77	2199.52
376.98	2074.59
377.19	2131.94
377.41	2150.37
377.62	2314.20
377.84	2252.77
378.05	2369.50
378.27	2258.91
378.48	2371.55
378.69	2432.99
378.91	2203.61
379.12	2252.77
379.34	2306.01
379.55	2320.35
379.76	2322.40
379.98	2293.72
380.19	2324.44
380.41	2324.44
380.62	2369.50
380.83	2285.53
381.05	2209.76
381.26	2484.19
381.47	2199.52
381.69	2314.20
381.90	2451.42
382.12	2281.44
382.33	2289.63
382.54	2394.08
382.76	2420.70
382.97	2408.41
383.19	2234.33
383.40	2437.08
383.61	2404.32
383.83	2379.74
384.04	2283.49
384.25	2279.39
384.47	2451.42
384.68	2428.89
384.89	2334.68
385.11	2396.12
385.32	2359.26
385.54	2365.40
385.75	2314.20
385.96	2385.88
386.18	2467.80
386.39	2459.61
386.60	2316.25
386.82	2553.82
387.03	2412.51
387.24	2467.80
387.46	2533.34
387.67	2443.23
387.88	2525.15
388.10	2473.95
388.31	2549.72
388.52	2535.39
388.74	2514.91
388.95	2510.81
389.16	2545.63
389.38	2465.75
389.59	2633.69
389.80	2613.21
390.02	2541.53
390.23	2682.84
390.44	2582.49
390.66	2592.73
390.87	2502.62
391.08	2652.12
391.30	2688.98
391.51	2670.55
391.72	2693.08
391.94	2607.06
392.15	2699.22
392.36	2627.54
392.58	2658.26
392.79	2639.83
393.00	2631.64
393.22	2699.22
393.43	2768.85
393.64	2820.05
393.85	2852.82
394.07	2760.66
394.28	2787.29
394.49	2682.84
394.71	2760.66
394.92	2932.69
395.13	2662.36
395.35	2871.25
395.56	2826.20
395.77	2803.67
395.98	2830.29
396.20	2904.02
396.41	2901.97
396.62	2981.84
396.84	2842.58
397.05	2863.06
397.26	2918.36
397.47	2975.70
397.69	2842.58
397.90	2990.03
398.11	3018.71
398.32	2924.50
398.54	2818.00
398.75	2873.30
398.96	2897.88
399.18	3055.57
399.39	3071.95
399.60	3006.42
399.81	2942.93
400.03	3051.47
400.24	3278.80
400.45	3104.72
400.66	3139.54
400.88	3080.14
401.09	3162.06
401.30	3071.95
401.51	3223.50
401.73	3137.49
401.94	3147.73
402.15	3166.16
402.36	3080.14
402.58	3182.54
402.79	3223.50
403.00	3241.93
403.21	3176.40
403.43	3231.69
403.64	3268.56
403.85	3213.26
404.06	3270.61
404.27	3100.62
404.49	3330.00
404.70	3284.94
404.91	3309.52
405.12	3221.45
405.34	3305.42
405.55	3248.08
405.76	3186.64
405.97	3286.99
406.19	3370.96
406.40	3291.09
406.61	3229.65
406.82	3475.40
407.03	3305.42
407.25	3407.82
407.46	3516.36
407.67	3413.96
407.88	3368.91
408.09	3448.78
408.31	3356.62
408.52	3481.55
408.73	3440.59
408.94	3491.79
409.15	3540.94
409.37	3452.88
409.58	3567.56
409.79	3485.64
410.00	3616.71
410.21	3471.31
410.43	3629.00
410.64	3487.69
410.85	3600.33
411.06	3579.85
411.27	3590.09
411.48	3590.09
411.70	3553.23
411.91	3647.43
412.12	3647.43
412.33	3622.86
412.54	3637.19
412.76	3669.96
412.97	3719.11
413.18	3583.95
413.39	3674.06
413.60	3848.13
413.81	3690.44
414.03	3688.39
414.24	3760.07
414.45	3784.65
414.66	3643.34
414.87	3882.95
415.08	3801.03
415.30	3839.94
415.51	3786.69
415.72	3780.55
415.93	3798.98
416.14	3981.25
416.35	3827.65
416.56	3850.18
416.78	4020.16
416.99	3878.85
417.20	3882.95
417.41	3944.39
417.62	3821.51
417.83	3958.72
418.04	4028.35
418.26	4063.17
418.47	4009.92
418.68	4091.84
418.89	3944.39
419.10	4200.38
419.31	4071.36
419.52	4212.67
419.73	3999.68
419.95	4204.48
420.16	3964.87
420.37	4005.83
420.58	4161.47
420.79	3979.20
421.00	3989.44
421.21	4280.25
421.42	4065.22
421.63	4284.35
421.85	4181.95
422.06	4261.82
422.27	4298.69
422.48	4319.17
422.69	4241.34
422.90	4298.69
423.11	4249.54
423.32	4392.89
423.53	4544.44
423.75	4454.33
423.96	4485.05
424.17	4519.87
424.38	4442.04
424.59	4530.11
424.80	4595.64
425.01	4571.07
425.22	4442.04
425.43	4462.52
425.64	4726.71
425.85	4704.18
426.06	4689.85
426.28	4702.14
426.49	4681.66
426.70	4554.68
426.91	4526.01
427.12	4788.15
427.33	4884.41
427.54	4603.83
427.75	4798.39
427.96	4870.07
428.17	4663.22
428.38	4827.06
428.59	4960.18
428.80	4861.88
429.01	4833.21
429.23	4900.79
429.44	4984.76
429.65	4978.61
429.86	5074.87
430.07	4929.46
430.28	4945.84
430.49	5099.44
430.70	5138.35
430.91	5334.96
431.12	5062.58
431.33	5306.29
431.54	5158.83
431.75	5253.04
431.96	5248.94
432.17	5117.87
432.38	5181.36
432.59	5443.50
432.80	5269.42
433.01	5277.62
433.22	5347.25
433.43	5394.35
433.64	5443.50
433.85	5441.45
434.06	5506.99
434.27	5410.73
434.49	5420.97
434.70	5552.04
434.91	5439.40
435.12	5545.90
435.33	5463.98
435.54	5615.53
435.75	5377.97
435.96	5537.71
436.17	5572.52
436.38	5685.16
436.59	5703.59
436.80	5636.01
437.01	5881.77
437.22	5967.78
437.43	5793.70
437.64	5537.71
437.85	5760.94
438.06	5902.25
438.27	5621.67
438.48	5760.94
438.69	5922.73
438.90	5951.40
439.11	5810.09
439.32	6115.23
439.53	5818.28
439.74	6010.79
439.95	6004.64
440.16	6162.34
440.37	6014.88
440.57	5978.02
440.78	6131.62
440.99	6004.64
441.20	6107.04
441.41	5920.68
441.62	6199.20
441.83	6037.41
442.04	6223.78
442.25	6076.32
442.46	6158.24
442.67	6240.16
442.88	6467.49
443.09	6041.51
443.30	6227.87
443.51	6350.75
443.72	6483.87
443.93	6272.93
444.14	6553.50
444.35	6352.80
444.56	6533.02
444.77	6479.77
444.98	6334.37
445.19	6645.66
445.40	6533.02
445.61	6414.24
445.81	6528.92
446.02	6653.85
446.23	6516.64
446.44	6381.47
446.65	6567.84
446.86	6784.92
447.07	6709.15
447.28	6920.09
447.49	6950.81
447.70	6696.86
447.91	6789.02
448.12	6905.75
448.33	6836.12
448.54	6870.94
448.74	6928.28
448.95	6993.81
449.16	6807.45
449.37	7169.94
449.58	6852.50
449.79	6979.48
450.00	6844.31
450.21	7083.92
450.42	7251.86
450.63	7180.18
450.84	7016.34
451.05	7198.61
451.25	7346.06
451.46	7149.46
451.67	7346.06
451.88	7389.07
452.09	7399.31
452.30	7323.54
452.51	7169.94
452.72	7432.08
452.93	7702.41
453.13	7415.69
453.34	7282.58
453.55	7315.34
453.76	7407.50
453.97	7899.02
454.18	7610.25
454.39	7761.80
454.60	7501.71
454.81	7524.24
455.01	7776.14
455.22	7571.34
455.43	7741.32
455.64	7948.17
455.85	8060.80
456.06	8007.56
456.27	7976.84
456.48	7835.53
456.68	8009.61
456.89	8079.24
457.10	7958.41
457.31	8286.08
457.52	8105.86
457.73	8054.66
457.94	8437.63
458.14	8091.52
458.35	8691.58
458.56	8343.42
458.77	8060.80
458.98	8316.80
459.19	8310.66
459.39	8750.97
459.60	8566.65
459.81	8470.40
460.02	8578.94
460.23	8675.20
460.44	8734.59
460.65	9033.59
460.85	8755.07
461.06	8849.27
461.27	8540.03
461.48	8980.34
461.69	9142.13
461.89	8793.98
462.10	9152.37
462.31	8947.58
462.52	8986.49
462.73	8984.44
462.94	9400.18
463.14	9326.45
463.35	9299.83
463.56	9719.66
463.77	9561.97
463.98	9604.97
464.18	9424.75
464.39	9535.34
464.60	9697.13
464.81	9783.15
465.02	9748.33
465.23	10090.34
465.43	9738.09
465.64	9899.88
465.85	9858.92
466.06	9848.68
466.27	10188.64
466.47	10327.91
466.68	10407.78
466.89	10383.20
467.10	10485.60
467.30	10200.93
467.51	10471.26
467.72	10559.33
467.93	10391.39
468.14	10481.50
468.34	10684.25
468.55	10727.26
468.76	10776.41
468.97	10680.16
469.17	10712.92
469.38	10907.48
469.59	11079.51
469.80	10841.95
470.01	11124.57
470.21	10956.63
470.42	11417.43
470.63	11173.72
470.84	11306.84
471.04	11456.34
471.25	11499.34
471.46	11394.90
471.67	11806.54
471.87	11761.48
472.08	11708.24
472.29	11880.27
472.50	11720.53
472.70	11927.37
472.91	11937.61
473.12	12130.12
473.33	12183.37
473.53	12343.11
473.74	12482.37
473.95	12437.31
474.16	12584.77
474.36	12607.30
474.57	12539.71
474.78	12932.92
474.99	12676.93
475.19	12742.46
475.40	13100.86
475.61	13047.61
475.81	13307.70
476.02	13459.25
476.23	13336.37
476.44	13618.99
476.64	13688.62
476.85	13905.71
477.06	13723.44
477.27	13743.92
477.47	13944.62
477.68	14147.37
477.89	14358.31
478.09	14247.72
478.30	14200.62
478.51	14382.88
478.71	14636.83
478.92	14548.77
479.13	14763.81
479.34	15062.81
479.54	14884.64
479.75	14724.90
479.96	15054.62
480.16	15118.11
480.37	15148.82
480.58	15322.90
480.78	15675.15
480.99	15566.61
481.20	15638.29
481.41	15533.84
481.61	15838.99
481.82	16025.36
482.03	15976.20
482.23	16043.79
482.44	16211.72
482.65	16477.96
482.85	16525.06
483.06	16152.33
483.27	16535.30
483.47	16736.00
483.68	16928.51
483.89	16832.26
484.09	17018.62
484.30	17053.44
484.51	17129.21
484.71	17176.31
484.92	17286.90
485.13	17354.49
485.33	17514.23
485.54	17444.60
485.75	17626.87
485.95	17815.28
486.16	18024.17
486.37	17960.69
486.57	18099.95
486.78	17909.49
486.98	18147.05
487.19	18231.02
487.40	18335.46
487.60	18394.86
487.81	18597.60
488.02	18636.52
488.22	18659.04
488.43	18853.60
488.64	19085.02
488.84	19025.63
489.05	19164.89
489.25	18898.66
489.46	19511.00
489.67	19357.40
489.87	19683.03
490.08	19496.66
490.29	19760.85
490.49	20074.19
490.70	19914.45
490.90	20020.94
491.11	20074.19
491.32	20197.07
491.52	20334.28
491.73	20414.15
491.94	20346.57
492.14	20311.75
492.35	20545.22
492.55	20664.00
492.76	21018.30
492.97	20858.56
493.17	20856.51
493.38	20864.71
493.58	21038.78
493.79	21350.07
494.00	21382.84
494.20	21198.52
494.41	21651.13
494.61	21712.56
494.82	21567.16
495.02	21792.44
495.23	21915.31
495.44	22134.45
495.64	22027.95
495.85	21886.64
496.05	22390.44
496.26	21978.80
496.47	22415.02
496.67	22093.49
496.88	22290.09
497.08	22466.22
497.29	22582.95
497.49	22660.77
497.70	22734.50
497.91	23041.70
498.11	22894.24
498.32	23324.32
498.52	22877.86
498.73	23402.14
498.93	23326.36
499.14	23203.49
499.34	23357.08
499.55	23504.54
499.76	23309.98
499.96	23740.05
500.17	23830.16
500.37	23897.75
500.58	23860.88
500.78	23760.53
500.99	24077.97
501.19	24475.27
501.40	24211.09
501.60	24043.15
501.81	24088.21
502.02	24385.16
502.22	24243.85
502.43	24442.51
502.63	24381.07
502.84	24721.03
503.04	24542.86
503.25	24635.02
503.45	24944.26
503.66	24925.83
503.86	24985.22
504.07	25384.57
504.27	24612.49
504.48	25192.06
504.68	25316.99
504.89	25681.53
505.09	25456.25
505.30	25613.95
505.50	25398.91
505.71	25523.83
505.91	25611.90
506.12	25472.64
506.32	25652.86
506.53	25484.92
506.73	26005.11
506.94	25652.86
507.14	25941.62
507.35	25796.21
507.55	26035.83
507.76	25939.57
507.96	25835.13
508.17	26164.85
508.37	26164.85
508.58	26281.58
508.78	26482.28
508.99	26652.27
509.19	26453.61
509.40	26664.55
509.60	26560.11
509.81	26639.98
510.01	26533.48
510.22	26574.44
510.42	26769.00
510.63	27104.87
510.83	26908.26
511.04	26826.34
511.24	26912.36
511.44	27225.70
511.65	27289.18
511.85	27016.80
512.06	27319.90
512.26	27338.33
512.47	27440.73
512.67	27440.73
512.88	27645.53
513.08	26996.32
513.29	27745.88
513.49	27477.60
513.69	27627.10
513.90	27498.08
514.10	27704.92
514.31	27911.77
514.51	27993.68
514.72	28012.12
514.92	27825.75
515.13	28094.04
515.33	28100.18
515.53	28083.80
515.74	28122.71
515.94	28065.36
516.15	28356.18
516.35	28489.29
516.56	28417.61
516.76	28403.28
516.96	28393.04
517.17	28884.55
517.37	28307.02
517.58	28622.41
517.78	28653.13
517.99	28677.71
518.19	28980.81
518.39	28931.65
518.60	29081.16
518.80	28925.51
519.01	29085.25
519.21	29251.14
519.41	29285.95
519.62	29185.60
519.82	29486.65
520.03	29361.73
520.23	29457.98
520.43	29425.22
520.64	29888.06
520.84	29855.29
521.05	29599.29
521.25	30311.99
521.45	30109.24
521.66	30242.35
521.86	30111.28
522.07	29988.41
522.27	30481.97
522.47	30492.21
522.68	30899.75
522.88	30322.23
523.08	30506.54
523.29	30531.12
523.49	30488.11
523.70	30711.34
523.90	30881.32
524.10	31012.39
524.31	31075.88
524.51	30953.00
524.71	31161.89
524.92	31172.13
525.12	31424.03
525.33	31352.35
525.53	31030.82
525.73	32071.19
525.94	31630.88
526.14	31485.47
526.34	31520.29
526.55	31837.72
526.75	31931.93
526.95	32392.72
527.16	31868.44
527.36	32226.84
527.56	32189.97
527.77	32468.50
527.97	32347.67
528.17	32368.15
528.38	32687.63
528.58	32730.64
528.78	32683.53
528.99	32574.99
529.19	33121.80
529.39	33142.28
529.60	33097.22
529.80	33308.16
530.00	33150.47
530.21	33455.62
530.41	33629.69
530.61	33535.49
530.82	33742.33
531.02	33453.57
531.22	34070.01
531.43	33560.06
531.63	34080.25
531.83	34166.26
532.04	34510.32
532.24	34262.52
532.44	34731.50
532.64	34708.97
532.85	34760.17
533.05	34911.72
533.25	35149.29
533.46	34706.93
533.66	35272.17
533.86	35263.97
534.07	35110.38
534.27	35284.45
534.47	35560.93
534.67	35544.55
534.88	35497.44
535.08	35446.24
535.28	35681.76
535.49	35962.33
535.69	36185.56
535.89	35966.43
536.09	35964.38
536.30	36269.53
536.50	36662.74
536.70	36378.07
536.91	36826.57
537.11	36666.83
537.31	36820.43
537.51	36593.11
537.72	36709.84
537.92	37254.60
538.12	37451.20
538.32	37238.22
538.53	37494.21
538.73	37242.31
538.93	37289.42
539.13	37492.16
539.34	37656.00
539.54	37496.26
539.74	38026.68
539.94	37596.61
540.15	37522.88
540.35	37893.57
540.55	38215.10
540.75	38258.10
540.96	38335.93
541.16	38620.59
541.36	38170.04
541.56	38430.13
541.77	38493.62
541.97	38636.98
542.17	38442.42
542.37	38585.78
542.58	38811.06
542.78	38843.82
542.98	39060.91
543.18	39108.01
543.38	39216.55
543.59	39280.04
543.79	39394.73
543.99	39421.35
544.19	39429.54
544.40	39468.45
544.60	39685.54
544.80	39810.46
545.00	39736.74
545.20	39957.92
545.41	39935.39
545.61	39908.77
545.81	40459.67
546.01	40160.67
546.21	40334.74
546.42	40220.06
546.62	40553.88
546.82	40117.66
547.02	40437.14
547.22	40822.16
547.43	40478.10
547.63	40572.31
547.83	40574.36
548.03	40650.13
548.23	40863.12
548.44	40689.04
548.64	41033.10
548.84	40975.76
549.04	41088.40
549.24	40828.30
549.45	41727.36
549.65	41387.40
549.85	41117.07
550.05	41493.89
550.25	41520.52
550.45	42026.37
550.66	41702.79
550.86	41215.37
551.06	42169.72
551.26	41821.57
551.46	41905.54
551.66	41833.86
551.87	41553.29
552.07	41981.31
552.27	41901.44
552.47	42159.48
552.67	42429.82
552.87	42259.84
553.07	42462.58
553.28	42243.45
553.48	42886.51
553.68	42509.69
553.88	42595.70
554.08	42409.34
554.28	42349.95
554.48	42245.50
554.69	42847.60
554.89	42712.44
555.09	42460.54
555.29	42294.65
555.49	42902.90
555.69	43238.76
555.89	42825.07
556.10	43089.26
556.30	42874.23
556.50	43103.60
556.70	43171.18
556.90	43134.32
557.10	43545.96
557.30	43038.06
557.50	43267.44
557.70	43371.88
557.91	43543.91
558.11	43347.31
558.31	43687.27
558.51	43550.06
558.71	43509.10
558.91	43765.09
559.11	43756.90
559.31	43394.41
559.51	43261.29
559.72	43638.12
559.92	43785.57
560.12	43971.94
560.32	43894.11
560.52	43994.46
560.72	44055.90
560.92	43574.63
561.12	44035.42
561.32	44045.66
561.52	43865.44
561.72	44324.19
561.93	44297.56
562.13	44129.63
562.33	43781.48
562.53	44428.63
562.73	44367.20
562.93	44186.97
563.13	44545.37
563.33	44115.29
563.53	44488.03
563.73	44373.34
563.93	44705.11
564.13	45098.32
564.33	44612.95
564.53	44864.85
564.74	44748.12
564.94	44645.72
565.14	44664.15
565.34	44412.25
565.54	44938.58
565.74	44889.43
565.94	45106.51
566.14	44983.63
566.34	44545.37
566.54	45401.42
566.74	44903.76
566.94	44791.12
567.14	45153.62
567.34	45157.71
567.54	45362.51
567.74	45237.58
567.94	45135.18
568.14	45403.47
568.34	45757.77
568.54	45407.56
568.74	45442.38
568.94	45374.80
569.14	45430.09
569.34	45653.32
569.54	45372.75
569.75	45380.94
569.95	45227.34
570.15	45690.18
570.35	45491.53
570.55	46015.81
570.75	45874.50
570.95	45303.12
571.15	45864.26
571.35	45784.39
571.55	46030.15
571.75	45786.44
571.95	46073.15
572.15	45792.58
572.35	45882.69
572.55	45866.31
572.75	46097.73
572.95	46011.71
573.15	46110.02
573.35	45995.33
573.55	46163.26
573.75	46525.75
573.95	46355.77
574.15	46132.54
574.35	46683.45
574.55	46323.01
574.75	46576.95
574.95	46138.69
575.15	46228.80
575.34	46775.61
575.54	46964.02
575.74	46955.83
575.94	46865.72
576.14	46929.20
576.34	46832.95
576.54	47197.49
576.74	46931.25
576.94	46591.29
577.14	47527.21
577.34	47392.04
577.54	47174.96
577.74	47000.88
577.94	47379.76
578.14	47369.52
578.34	47346.99
578.54	46814.52
578.74	47486.25
578.94	47533.35
579.14	47236.40
579.34	47627.56
579.54	47494.44
579.74	47744.30
579.94	48041.25
580.13	47703.34
580.33	47371.57
580.53	48028.96
580.73	47762.73
580.93	47805.73
581.13	47953.19
581.33	48108.83
581.53	48182.56
581.73	48143.65
581.93	48375.07
582.13	48170.27
582.33	48282.91
582.53	48112.93
582.73	48330.01
582.92	48381.21
583.12	48534.81
583.32	48454.94
583.52	48241.95
583.72	48698.65
583.92	48600.35
584.12	48698.65
584.32	49534.22
584.52	48676.12
584.72	48657.69
584.92	48899.35
585.11	48940.31
585.31	48586.01
585.51	49120.53
585.71	48825.62
585.91	49085.72
586.11	49077.52
586.31	48891.16
586.51	49042.71
586.71	49337.62
586.91	49401.10
587.10	49272.08
587.30	48930.07
587.50	49589.52
587.70	49685.77
587.90	49605.90
588.10	49806.60
588.30	49366.29
588.50	49779.98
