SpectraSuite Data File
++++++++++++++++++++++++++++++++++++
Date: Fri Jun 02 14:52:29 CEST 2017
User: INFO_000
Dark Spectrum Present: No
Reference Spectrum Present: No
Number of Sampled Component Spectra: 1
Spectrometers: USB4H00879
Integration Time (usec): 80000 (USB4H00879)
Spectra Averaged: 1 (USB4H00879)
Boxcar Smoothing: 0 (USB4H00879)
Correct for Electrical Dark: No (USB4H00879)
Strobe/Lamp Enabled: No (USB4H00879)
Correct for Detector Non-linearity: No (USB4H00879)
Correct for Stray Light: No (USB4H00879)
Number of Pixels in Processed Spectrum: 3648
>>>>>Begin Processed Spectral Data<<<<<
345.13	1286.12
345.34	1286.12
345.56	1286.12
345.78	1300.46
345.99	1273.84
346.21	1681.38
346.42	1695.72
346.64	1630.18
346.86	1837.03
347.07	1665.00
347.29	1697.77
347.50	1638.38
347.72	1679.33
347.94	1755.11
348.15	1558.50
348.37	1662.95
348.59	1667.05
348.80	1589.22
349.02	1720.29
349.23	1818.60
349.45	1839.08
349.67	1877.99
349.88	1820.64
350.10	1912.80
350.31	1863.65
350.53	1738.73
350.75	1927.14
350.96	1810.40
351.18	1869.80
351.39	1873.89
351.61	1847.27
351.82	1916.90
352.04	1869.80
352.26	1834.98
352.47	1927.14
352.69	1949.67
352.90	1763.30
353.12	1789.92
353.34	1828.84
353.55	1931.23
353.77	1912.80
353.98	1787.88
354.20	1880.04
354.41	1896.42
354.63	1945.57
354.85	1953.76
355.06	1914.85
355.28	1859.56
355.49	1863.65
355.71	1912.80
355.92	1875.94
356.14	1992.67
356.35	1824.74
356.57	1857.51
356.79	2047.97
357.00	1875.94
357.22	1923.04
357.43	1869.80
357.65	1896.42
357.86	1777.64
358.08	1900.52
358.29	1884.13
358.51	2033.63
358.72	2043.87
358.94	1992.67
359.16	1896.42
359.37	1931.23
359.59	1964.00
359.80	2025.44
360.02	1980.39
360.23	1951.71
360.45	1947.62
360.66	1974.24
360.88	1847.27
361.09	1951.71
361.31	1953.76
361.52	2015.20
361.74	2113.50
361.95	2088.93
362.17	2064.35
362.38	2103.26
362.60	1990.63
362.81	1949.67
363.03	1994.72
363.24	2027.49
363.46	2113.50
363.67	2033.63
363.89	1947.62
364.10	2021.35
364.32	1916.90
364.53	2039.78
364.75	1904.61
364.96	2050.02
365.18	2013.15
365.39	2011.11
365.61	1957.86
365.82	2101.22
366.04	1984.48
366.25	1980.39
366.47	2000.87
366.68	1996.77
366.90	1920.99
367.11	2090.98
367.33	2125.79
367.54	2152.42
367.76	1990.63
367.97	2185.18
368.19	1992.67
368.40	2066.40
368.62	2011.11
368.83	1978.34
369.05	2097.12
369.26	1972.19
369.48	2025.44
369.69	2023.39
369.91	2133.98
370.12	2007.01
370.33	2222.05
370.55	1972.19
370.76	2115.55
370.98	2070.50
371.19	2013.15
371.41	2035.68
371.62	2078.69
371.84	2021.35
372.05	2099.17
372.27	2052.06
372.48	2068.45
372.69	2121.70
372.91	2105.31
373.12	2183.13
373.34	2133.98
373.55	2183.13
373.77	2211.81
373.98	2254.81
374.20	2207.71
374.41	2232.29
374.62	2203.61
374.84	2148.32
375.05	2213.85
375.27	2222.05
375.48	2203.61
375.70	2215.90
375.91	2217.95
376.12	2342.88
376.34	2222.05
376.55	2220.00
376.77	2267.10
376.98	2168.80
377.19	2166.75
377.41	2097.12
377.62	2164.70
377.84	2287.58
378.05	2334.68
378.27	2093.02
378.48	2289.63
378.69	2340.83
378.91	2306.01
379.12	2281.44
379.34	2238.43
379.55	2279.39
379.76	2197.47
379.98	2162.66
380.19	2209.76
380.41	2181.09
380.62	2334.68
380.83	2230.24
381.05	2306.01
381.26	2435.03
381.47	2301.92
381.69	2320.35
381.90	2383.84
382.12	2365.40
382.33	2256.86
382.54	2365.40
382.76	2330.59
382.97	2297.82
383.19	2279.39
383.40	2371.55
383.61	2254.81
383.83	2316.25
384.04	2332.64
384.25	2357.21
384.47	2457.56
384.68	2410.46
384.89	2301.92
385.11	2306.01
385.32	2326.49
385.54	2349.02
385.75	2371.55
385.96	2500.57
386.18	2488.28
386.39	2381.79
386.60	2367.45
386.82	2463.71
387.03	2478.04
387.24	2455.51
387.46	2486.23
387.67	2480.09
387.88	2523.10
388.10	2428.89
388.31	2506.71
388.52	2535.39
388.74	2500.57
388.95	2475.99
389.16	2473.95
389.38	2510.81
389.59	2531.29
389.80	2582.49
390.02	2650.07
390.23	2641.88
390.44	2588.63
390.66	2605.02
390.87	2582.49
391.08	2611.16
391.30	2674.65
391.51	2682.84
391.72	2623.45
391.94	2672.60
392.15	2574.30
392.36	2627.54
392.58	2625.50
392.79	2633.69
393.00	2729.94
393.22	2705.37
393.43	2752.47
393.64	2869.20
393.85	2752.47
394.07	2691.03
394.28	2740.18
394.49	2777.05
394.71	2764.76
394.92	2891.73
395.13	2736.09
395.35	2744.28
395.56	2766.81
395.77	2826.20
395.98	2895.83
396.20	2934.74
396.41	2721.75
396.62	2967.51
396.84	2830.29
397.05	2791.38
397.26	2918.36
397.47	2994.13
397.69	2949.08
397.90	3010.51
398.11	2934.74
398.32	2922.45
398.54	2879.44
398.75	2940.88
398.96	3051.47
399.18	3078.10
399.39	3076.05
399.60	3117.01
399.81	2977.75
400.03	3074.00
400.24	3362.76
400.45	3016.66
400.66	3106.77
400.88	3053.52
401.09	3250.13
401.30	3117.01
401.51	3256.27
401.73	3178.45
401.94	3207.12
402.15	3131.34
402.36	3246.03
402.58	3166.16
402.79	3153.87
403.00	3190.74
403.21	3231.69
403.43	3182.54
403.64	3354.57
403.85	3127.25
404.06	3266.51
404.27	3239.89
404.49	3262.41
404.70	3336.14
404.91	3368.91
405.12	3420.11
405.34	3264.46
405.55	3418.06
405.76	3276.75
405.97	3336.14
406.19	3454.92
406.40	3358.67
406.61	3346.38
406.82	3391.44
407.03	3346.38
407.25	3334.09
407.46	3491.79
407.67	3450.83
407.88	3555.27
408.09	3483.59
408.31	3440.59
408.52	3426.25
408.73	3342.28
408.94	3434.44
409.15	3573.71
409.37	3557.32
409.58	3534.79
409.79	3663.82
410.00	3672.01
410.21	3542.99
410.43	3551.18
410.64	3504.07
410.85	3524.55
411.06	3581.90
411.27	3663.82
411.48	3606.47
411.70	3622.86
411.91	3629.00
412.12	3676.10
412.33	3719.11
412.54	3645.38
412.76	3817.41
412.97	3858.37
413.18	3659.72
413.39	3700.68
413.60	3710.92
413.81	3813.32
414.03	3698.63
414.24	3725.26
414.45	4022.21
414.66	3608.52
414.87	3784.65
415.08	3807.17
415.30	3762.12
415.51	3887.04
415.72	3856.33
415.93	3743.69
416.14	3778.50
416.35	3878.85
416.56	3825.61
416.78	3942.34
416.99	3973.06
417.20	3764.17
417.41	3852.23
417.62	3956.68
417.83	4016.07
418.04	3968.96
418.26	4085.70
418.47	3993.54
418.68	3987.40
418.89	3991.49
419.10	4032.45
419.31	3942.34
419.52	4122.56
419.73	4042.69
419.95	4116.42
420.16	4042.69
420.37	4036.55
420.58	4124.61
420.79	3874.76
421.00	4102.08
421.21	4157.38
421.42	4237.25
421.63	4097.99
421.85	4310.97
422.06	4186.05
422.27	4206.53
422.48	4251.58
422.69	4235.20
422.90	4333.50
423.11	4255.68
423.32	4329.41
423.53	4474.81
423.75	4466.62
423.96	4351.93
424.17	4511.68
424.38	4544.44
424.59	4452.28
424.80	4628.41
425.01	4460.48
425.22	4427.71
425.43	4370.37
425.64	4741.05
425.85	4648.89
426.06	4601.79
426.28	4585.40
426.49	4468.67
426.70	4515.77
426.91	4536.25
427.12	4708.28
427.33	4652.98
427.54	4638.65
427.75	4741.05
427.96	4878.26
428.17	4728.76
428.38	4812.73
428.59	4726.71
428.80	4761.53
429.01	4800.44
429.23	4769.72
429.44	5099.44
429.65	4964.28
429.86	4988.85
430.07	4868.02
430.28	4863.93
430.49	4906.93
430.70	5089.20
430.91	5130.16
431.12	5103.54
431.33	5179.31
431.54	5300.14
431.75	5287.86
431.96	5091.25
432.17	5091.25
432.38	5230.51
432.59	5468.08
432.80	5173.17
433.01	5271.47
433.22	5439.40
433.43	5339.05
433.64	5371.82
433.85	5115.83
434.06	5406.64
434.27	5359.53
434.49	5504.94
434.70	5400.49
434.91	5525.42
435.12	5603.24
435.33	5500.84
435.54	5558.19
435.75	5437.36
435.96	5531.56
436.17	5470.12
436.38	5603.24
436.59	5636.01
436.80	5613.48
437.01	5851.05
437.22	5922.73
437.43	5726.12
437.64	5674.92
437.85	5849.00
438.06	5889.96
438.27	5672.87
438.48	5695.40
438.69	5994.40
438.90	5975.97
439.11	5808.04
439.32	5980.07
439.53	5943.21
439.74	5941.16
439.95	6088.61
440.16	5820.33
440.37	6107.04
440.57	5783.46
440.78	6061.99
440.99	6154.15
441.20	5982.12
441.41	5992.36
441.62	6258.59
441.83	6002.60
442.04	6305.70
442.25	6199.20
442.46	6215.59
442.67	6328.22
442.88	6569.88
443.09	6152.10
443.30	6246.30
443.51	6401.95
443.72	6422.43
443.93	6303.65
444.14	6526.88
444.35	6365.09
444.56	6467.49
444.77	6369.18
444.98	6410.14
445.19	6655.90
445.40	6586.27
445.61	6512.54
445.81	6633.37
446.02	6672.28
446.23	6465.44
446.44	6623.13
446.65	6674.33
446.86	6672.28
447.07	6862.74
447.28	6963.09
447.49	6821.78
447.70	6586.27
447.91	6823.83
448.12	6950.81
448.33	6967.19
448.54	6868.89
448.74	6793.11
448.95	6901.65
449.16	6893.46
449.37	7245.71
449.58	6946.71
449.79	7157.65
450.00	7061.40
450.21	7219.09
450.42	7432.08
450.63	7178.13
450.84	7221.14
451.05	7241.62
451.25	7214.99
451.46	7157.65
451.67	7241.62
451.88	7665.55
452.09	7442.32
452.30	7432.08
452.51	7405.46
452.72	7554.96
452.93	7829.38
453.13	7458.70
453.34	7524.24
453.55	7655.31
453.76	7626.64
453.97	7835.53
454.18	7858.06
454.39	7735.18
454.60	7581.58
454.81	7933.83
455.01	7905.16
455.22	7597.96
455.43	7833.48
455.64	8146.82
455.85	8023.94
456.06	8200.07
456.27	7991.17
456.48	8017.80
456.68	8052.61
456.89	8079.24
457.10	8161.16
457.31	8222.59
457.52	8265.60
457.73	8046.47
457.94	8548.22
458.14	8208.26
458.35	8640.38
458.56	8572.80
458.77	8339.33
458.98	8593.28
459.19	8499.07
459.39	8501.12
459.60	8691.58
459.81	8505.21
460.02	8812.41
460.23	8851.32
460.44	8892.28
460.65	8996.73
460.85	9097.08
461.06	8968.06
461.27	8716.16
461.48	9101.17
461.69	9113.46
461.89	8867.70
462.10	9047.93
462.31	8925.05
462.52	9090.93
462.73	9158.52
462.94	9334.64
463.14	9389.94
463.35	9453.42
463.56	9791.34
463.77	9387.89
463.98	9183.09
464.18	9525.10
464.39	9793.39
464.60	9777.00
464.81	9766.76
465.02	9709.42
465.23	10055.53
465.43	9838.44
465.64	9996.14
465.85	9846.63
466.06	9783.15
466.27	10186.60
466.47	10182.50
466.68	10260.32
466.89	10143.59
467.10	10309.47
467.30	10039.14
467.51	10370.91
467.72	10657.63
467.93	10211.17
468.14	10592.09
468.34	10676.06
468.55	10628.96
468.76	10620.77
468.97	10469.22
469.17	10870.62
469.38	10698.59
469.59	11056.98
469.80	10995.54
470.01	11013.98
470.21	11120.47
470.42	11396.95
470.63	11282.26
470.84	11267.92
471.04	11464.53
471.25	11329.36
471.46	11435.86
471.67	11695.95
471.87	11521.87
472.08	11491.15
472.29	12029.77
472.50	11450.19
472.70	11757.39
472.91	11931.47
473.12	12148.55
473.33	11906.89
473.53	12257.09
473.74	12185.41
473.95	12410.69
474.16	12398.40
474.36	12238.66
474.57	12678.97
474.78	12701.50
474.99	12527.42
475.19	12496.71
475.40	12912.44
475.61	13014.84
475.81	13086.52
476.02	13109.05
476.23	13029.18
476.44	13164.34
476.64	13539.12
476.85	13406.00
477.06	13575.98
477.27	13858.60
477.47	13735.73
477.68	13651.76
477.89	13864.75
478.09	13963.05
478.30	14161.70
478.51	14022.44
478.71	14143.27
478.92	14352.16
479.13	14636.83
479.34	14489.38
479.54	14382.88
479.75	14620.45
479.96	14683.94
480.16	14901.02
480.37	15040.28
480.58	14976.80
480.78	15130.39
480.99	15265.56
481.20	15363.86
481.41	15421.20
481.61	15535.89
481.82	15599.38
482.03	15546.13
482.23	15679.25
482.44	15890.19
482.65	16092.94
482.85	16113.42
483.06	16074.51
483.27	16019.21
483.47	16037.64
483.68	16078.60
483.89	16424.71
484.09	16367.37
484.30	16600.83
484.51	17039.10
484.71	16781.06
484.92	16936.70
485.13	16926.46
485.33	16996.09
485.54	16844.54
485.75	17237.75
485.95	17635.06
486.16	17415.93
486.37	17628.92
486.57	17559.28
486.78	17536.76
486.98	17886.96
487.19	17936.11
487.40	18138.86
487.60	18122.48
487.81	18468.58
488.02	18085.61
488.22	18388.71
488.43	18411.24
488.64	18646.76
488.84	18673.38
489.05	18749.15
489.25	18986.72
489.46	19236.57
489.67	19119.84
489.87	19205.85
490.08	19316.44
490.29	19283.67
490.49	19693.27
490.70	19703.51
490.90	19703.51
491.11	19699.41
491.32	19674.84
491.52	19660.50
491.73	19979.98
491.94	20233.93
492.14	20020.94
492.35	20238.03
492.55	20377.29
492.76	20440.78
492.97	20561.61
493.17	20809.41
493.38	20774.60
493.58	21022.40
493.79	21114.56
494.00	20893.38
494.20	20854.47
494.41	21255.87
494.61	21454.52
494.82	21509.82
495.02	21343.93
495.23	21591.73
495.44	21685.94
495.64	21880.50
495.85	22001.33
496.05	22142.64
496.26	22146.73
496.47	22343.34
496.67	22320.81
496.88	22572.71
497.08	22107.82
497.29	22720.17
497.49	22503.08
497.70	22724.26
497.91	23121.57
498.11	22951.59
498.32	22929.06
498.52	23291.55
498.73	23215.77
498.93	23029.41
499.14	23379.61
499.34	23273.12
499.55	23439.00
499.76	23441.05
499.96	23768.73
500.17	23623.32
500.37	23826.07
500.58	24104.59
500.78	24094.35
500.99	24452.75
501.19	24241.81
501.40	24333.96
501.60	24231.57
501.81	24485.51
502.02	24376.97
502.22	24303.25
502.43	24862.34
502.63	24649.35
502.84	24805.00
503.04	24927.88
503.25	25003.65
503.45	25034.37
503.66	25249.41
503.86	25026.18
504.07	25587.32
504.27	25259.65
504.48	25546.36
504.68	25575.03
504.89	25943.67
505.09	25681.53
505.30	25890.42
505.50	25677.43
505.71	26037.87
505.91	25757.30
506.12	26048.11
506.32	26197.62
506.53	26261.10
506.73	26039.92
506.94	26416.75
507.14	26248.82
507.35	26465.90
507.55	26265.20
507.76	26826.34
507.96	26453.61
508.17	26707.56
508.37	26670.70
508.58	26840.68
508.78	26857.06
508.99	27237.98
509.19	27250.27
509.40	26963.56
509.60	27268.70
509.81	27215.46
510.01	26996.32
510.22	27450.97
510.42	27293.28
510.63	27637.34
510.83	27219.55
511.04	27412.06
511.24	27580.00
511.44	27768.41
511.65	27698.78
511.85	27481.69
512.06	27479.64
512.26	28012.12
512.47	27907.67
512.67	28018.26
512.88	27913.81
513.08	27608.67
513.29	28282.45
513.49	28366.42
513.69	28200.53
513.90	28501.58
514.10	28649.03
514.31	28438.09
514.51	28757.58
514.72	28513.87
514.92	28655.18
515.13	28444.24
515.33	28874.31
515.53	28810.82
515.74	28665.42
515.94	28565.07
516.15	28784.20
516.35	28851.78
516.56	29378.11
516.76	28737.10
516.96	28919.37
517.17	29343.30
517.37	29343.30
517.58	29189.70
517.78	29345.34
517.99	29398.59
518.19	29695.55
518.39	29410.88
518.60	29611.58
518.80	29455.93
519.01	29881.91
519.21	29832.76
519.41	29732.41
519.62	29732.41
519.82	30015.03
520.03	30213.68
520.23	29787.71
520.43	30105.14
520.64	30398.00
520.84	30391.86
521.05	30357.04
521.25	30586.41
521.45	30766.63
521.66	30443.06
521.86	30275.12
522.07	30520.88
522.27	30864.94
522.47	30703.15
522.68	31061.54
522.88	30809.64
523.08	31342.11
523.29	31303.20
523.49	31493.66
523.70	31135.27
523.90	31387.17
524.10	31223.33
524.31	31764.00
524.51	31284.77
524.71	32011.80
524.92	31694.36
525.12	31890.97
525.33	31880.73
525.53	32083.48
525.73	31956.50
525.94	32173.59
526.14	32093.72
526.34	32280.08
526.55	32335.38
526.75	32237.08
526.95	32802.32
527.16	32433.68
527.36	32687.63
527.56	32757.26
527.77	32822.80
527.97	32783.88
528.17	32724.49
528.38	33246.72
528.58	32906.76
528.78	33177.09
528.99	33211.91
529.19	33246.72
529.39	33265.16
529.60	33144.33
529.80	33068.55
530.00	33152.52
530.21	33797.63
530.41	33850.88
530.61	33478.15
530.82	33687.04
531.02	33555.97
531.22	34330.10
531.43	34186.74
531.63	34018.81
531.83	34391.54
532.04	34606.58
532.24	34362.87
532.44	35005.93
532.64	34964.97
532.85	34805.23
533.05	34889.20
533.25	34821.61
533.46	34747.89
533.66	35249.64
533.86	34977.26
534.07	34960.87
534.27	35141.10
534.47	35034.60
534.67	35425.76
534.88	35173.86
535.08	35362.28
535.28	35493.35
535.49	35933.66
535.69	35708.38
535.89	35988.95
536.09	35999.19
536.30	35816.93
536.50	36085.21
536.70	36244.95
536.91	36050.39
537.11	36357.59
537.31	36603.35
537.51	36654.54
537.72	36531.67
537.92	36572.63
538.12	37074.38
538.32	36500.95
538.53	37010.89
538.73	36701.65
538.93	36718.03
539.13	36840.91
539.34	36615.63
539.54	37092.81
539.74	37455.30
539.94	36922.83
540.15	37041.61
540.35	37486.02
540.55	37017.04
540.75	37516.74
540.96	37576.13
541.16	37438.92
541.36	37938.62
541.56	37361.09
541.77	37918.14
541.97	38217.14
542.17	38094.27
542.37	37748.16
542.58	37854.65
542.78	38028.73
542.98	38170.04
543.18	38155.71
543.38	38569.40
543.59	38284.73
543.79	38356.41
543.99	38409.65
544.19	38610.35
544.40	38307.26
544.60	39099.82
544.80	38716.85
545.00	38698.42
545.20	39341.48
545.41	39085.48
545.61	38987.18
545.81	39294.38
546.01	39052.72
546.21	39148.97
546.42	38972.85
546.62	39253.42
546.82	39347.62
547.02	39136.68
547.22	39548.32
547.43	39148.97
547.63	39818.66
547.83	39990.69
548.03	39357.86
548.23	39570.85
548.44	39839.14
548.64	39861.66
548.84	39927.20
549.04	39962.01
549.24	40050.08
549.45	40060.32
549.65	39992.73
549.85	40179.10
550.05	40338.84
550.25	40031.65
550.45	40699.28
550.66	40547.73
550.86	40349.08
551.06	40560.02
551.26	40666.52
551.46	40922.51
551.66	40449.43
551.87	40418.71
552.07	40465.81
552.27	40891.79
552.47	40809.87
552.67	41207.18
552.87	40850.83
553.07	41186.70
553.28	40902.03
553.48	41112.97
553.68	41153.93
553.88	41297.29
554.08	41092.49
554.28	41006.48
554.48	41270.67
554.69	41260.43
554.89	41330.06
555.09	41385.35
555.29	41221.52
555.49	41620.87
555.69	41977.22
555.89	41690.50
556.10	41731.46
556.30	41743.75
556.50	41762.18
556.70	41837.95
556.90	41786.75
557.10	42118.53
557.30	41618.82
557.50	42331.51
557.70	42055.04
557.91	42089.85
558.11	42073.47
558.31	42612.09
558.51	42306.94
558.71	42554.74
558.91	42689.91
559.11	42444.15
559.31	42476.92
559.51	42268.03
559.72	42476.92
559.92	42784.12
560.12	42306.94
560.32	43050.35
560.52	42065.28
560.72	42718.58
560.92	43253.10
561.12	42796.40
561.32	43195.76
561.52	42759.54
561.72	43103.60
561.93	42894.71
562.13	43246.96
562.33	43130.22
562.53	43613.54
562.73	42962.29
562.93	43072.88
563.13	43292.01
563.33	43255.15
563.53	43660.65
563.73	43251.05
563.93	43476.33
564.13	43971.94
564.33	44119.39
564.53	43511.14
564.74	43681.13
564.94	43488.62
565.14	43691.37
565.34	43728.23
565.54	44170.59
565.74	44250.46
565.94	44510.55
566.14	44119.39
566.34	44111.20
566.54	44348.76
566.74	43906.40
566.94	44393.82
567.14	44363.10
567.34	44356.96
567.54	44377.43
567.74	44506.46
567.94	44373.34
568.14	44897.62
568.34	44711.25
568.54	44563.80
568.74	44729.69
568.94	44975.44
569.14	45208.91
569.34	45061.46
569.54	44979.54
569.75	44791.12
569.95	45411.66
570.15	45436.23
570.35	45493.58
570.55	45385.04
570.75	45399.37
570.95	45196.62
571.15	45448.52
571.35	45536.59
571.55	45305.16
571.75	45636.94
571.95	46159.17
572.15	45741.38
572.35	45841.73
572.55	45665.61
572.75	45618.50
572.95	45845.83
573.15	45972.80
573.35	45741.38
573.55	45638.98
573.75	46058.82
573.95	46560.57
574.15	45876.55
574.35	46097.73
574.55	46425.40
574.75	46320.96
574.95	46642.49
575.15	46579.00
575.34	46378.30
575.54	46837.05
575.74	46941.49
575.94	46724.41
576.14	46560.57
576.34	47342.89
576.54	47295.79
576.74	46980.40
576.94	46910.77
577.14	47338.80
577.34	47525.16
577.54	47148.34
577.74	47641.90
577.94	47252.78
578.14	47390.00
578.34	47516.97
578.54	47379.76
578.74	47807.78
578.94	48100.64
579.14	47699.24
579.34	47977.76
579.54	48047.39
579.74	48268.58
579.94	48317.73
580.13	48239.90
580.33	48379.17
580.53	48434.46
580.73	48604.44
580.93	48411.93
581.13	48688.41
581.33	48981.27
581.53	48968.98
581.73	48641.31
581.93	49001.75
582.13	49118.48
582.33	49028.37
582.53	49446.16
582.73	49100.05
582.92	49198.35
583.12	49374.48
583.32	48893.21
583.52	49528.08
583.72	49392.91
583.92	49691.91
584.12	49495.31
584.32	49863.94
584.52	49822.98
584.72	49820.94
584.92	49896.71
585.11	49937.67
585.31	49792.26
585.51	50312.45
585.71	49614.09
585.91	50167.04
586.11	50160.90
586.31	49992.97
586.51	50160.90
586.71	50212.10
586.91	50756.86
587.10	50136.32
587.30	50533.63
587.50	50648.32
587.70	50693.37
587.90	50914.55
588.10	50834.68
588.30	50607.36
588.50	50783.48
