SpectraSuite Data File
++++++++++++++++++++++++++++++++++++
Date: Fri Jun 02 14:52:27 CEST 2017
User: INFO_000
Dark Spectrum Present: No
Reference Spectrum Present: No
Number of Sampled Component Spectra: 1
Spectrometers: USB4H00879
Integration Time (usec): 80000 (USB4H00879)
Spectra Averaged: 1 (USB4H00879)
Boxcar Smoothing: 0 (USB4H00879)
Correct for Electrical Dark: No (USB4H00879)
Strobe/Lamp Enabled: No (USB4H00879)
Correct for Detector Non-linearity: No (USB4H00879)
Correct for Stray Light: No (USB4H00879)
Number of Pixels in Processed Spectrum: 3648
>>>>>Begin Processed Spectral Data<<<<<
345.13	1257.45
345.34	1257.45
345.56	1257.45
345.78	1243.12
345.99	1308.65
346.21	1722.34
346.42	1730.53
346.64	1599.46
346.86	1791.97
347.07	1699.81
347.29	1695.72
347.50	1628.14
347.72	1671.14
347.94	1753.06
348.15	1601.51
348.37	1591.27
348.59	1716.20
348.80	1683.43
349.02	1759.21
349.23	1826.79
349.45	1859.56
349.67	1892.32
349.88	1851.36
350.10	1886.18
350.31	1900.52
350.53	1810.40
350.75	1992.67
350.96	1810.40
351.18	1880.04
351.39	1802.21
351.61	1832.93
351.82	1861.60
352.04	1916.90
352.26	1812.45
352.47	1910.75
352.69	1927.14
352.90	1841.12
353.12	1855.46
353.34	1802.21
353.55	1906.66
353.77	1875.94
353.98	1839.08
354.20	1777.64
354.41	1884.13
354.63	2011.11
354.85	2013.15
355.06	1859.56
355.28	1808.36
355.49	1966.05
355.71	1847.27
355.92	1863.65
356.14	1873.89
356.35	1929.19
356.57	1964.00
356.79	1968.10
357.00	1871.84
357.22	1986.53
357.43	1855.46
357.65	2037.73
357.86	1802.21
358.08	1902.56
358.29	1935.33
358.51	2037.73
358.72	2021.35
358.94	1968.10
359.16	1961.95
359.37	1945.57
359.59	1914.85
359.80	1955.81
360.02	2013.15
360.23	1988.58
360.45	2037.73
360.66	2007.01
360.88	1804.26
361.09	1880.04
361.31	2002.91
361.52	1957.86
361.74	2142.18
361.95	2043.87
362.17	1937.38
362.38	2056.16
362.60	2015.20
362.81	2054.11
363.03	1951.71
363.24	1992.67
363.46	2115.55
363.67	2017.25
363.89	1992.67
364.10	2070.50
364.32	1968.10
364.53	2076.64
364.75	1927.14
364.96	2043.87
365.18	2021.35
365.39	1990.63
365.61	2017.25
365.82	2146.27
366.04	1998.82
366.25	1953.76
366.47	2070.50
366.68	2033.63
366.90	2047.97
367.11	2086.88
367.33	2136.03
367.54	2041.82
367.76	1982.43
367.97	2174.94
368.19	2068.45
368.40	2109.41
368.62	1951.71
368.83	1994.72
369.05	2105.31
369.26	2011.11
369.48	2080.74
369.69	2101.22
369.91	2109.41
370.12	1968.10
370.33	2062.30
370.55	2011.11
370.76	2025.44
370.98	2189.28
371.19	2095.07
371.41	2058.21
371.62	2068.45
371.84	2068.45
372.05	2232.29
372.27	2002.91
372.48	2121.70
372.69	2105.31
372.91	2164.70
373.12	2238.43
373.34	2111.46
373.55	2185.18
373.77	2152.42
373.98	2232.29
374.20	2127.84
374.41	2271.20
374.62	2117.60
374.84	2152.42
375.05	2201.57
375.27	2279.39
375.48	2101.22
375.70	2240.48
375.91	2131.94
376.12	2342.88
376.34	2166.75
376.55	2195.42
376.77	2197.47
376.98	2176.99
377.19	2093.02
377.41	2209.76
377.62	2232.29
377.84	2258.91
378.05	2301.92
378.27	2131.94
378.48	2224.09
378.69	2457.56
378.91	2312.16
379.12	2260.96
379.34	2236.38
379.55	2232.29
379.76	2236.38
379.98	2279.39
380.19	2342.88
380.41	2310.11
380.62	2330.59
380.83	2207.71
381.05	2166.75
381.26	2383.84
381.47	2260.96
381.69	2355.16
381.90	2412.51
382.12	2289.63
382.33	2250.72
382.54	2285.53
382.76	2301.92
382.97	2312.16
383.19	2199.52
383.40	2396.12
383.61	2301.92
383.83	2334.68
384.04	2410.46
384.25	2357.21
384.47	2480.09
384.68	2361.31
384.89	2355.16
385.11	2322.40
385.32	2285.53
385.54	2322.40
385.75	2318.30
385.96	2404.32
386.18	2402.27
386.39	2504.67
386.60	2400.22
386.82	2445.27
387.03	2516.95
387.24	2549.72
387.46	2480.09
387.67	2437.08
387.88	2590.68
388.10	2410.46
388.31	2562.01
388.52	2598.87
388.74	2625.50
388.95	2488.28
389.16	2486.23
389.38	2496.47
389.59	2551.77
389.80	2633.69
390.02	2545.63
390.23	2637.78
390.44	2533.34
390.66	2580.44
390.87	2516.95
391.08	2598.87
391.30	2699.22
391.51	2658.26
391.72	2770.90
391.94	2680.79
392.15	2564.06
392.36	2684.89
392.58	2639.83
392.79	2643.93
393.00	2727.89
393.22	2740.18
393.43	2766.81
393.64	2863.06
393.85	2850.77
394.07	2740.18
394.28	2705.37
394.49	2789.33
394.71	2826.20
394.92	2895.83
395.13	2865.11
395.35	2787.29
395.56	2846.68
395.77	2787.29
395.98	2889.68
396.20	2875.35
396.41	2904.02
396.62	3010.51
396.84	2918.36
397.05	2793.43
397.26	2953.17
397.47	2869.20
397.69	2895.83
397.90	3063.76
398.11	2879.44
398.32	2963.41
398.54	2987.99
398.75	2992.08
398.96	2944.98
399.18	3157.97
399.39	2979.79
399.60	3030.99
399.81	3086.29
400.03	2883.54
400.24	3362.76
400.45	3059.67
400.66	3125.20
400.88	2969.55
401.09	3250.13
401.30	3203.02
401.51	3264.46
401.73	3084.24
401.94	3049.43
402.15	3131.34
402.36	3233.74
402.58	3149.78
402.79	3194.83
403.00	3305.42
403.21	3237.84
403.43	3235.79
403.64	3360.72
403.85	3215.31
404.06	3278.80
404.27	3135.44
404.49	3225.55
404.70	3248.08
404.91	3237.84
405.12	3289.04
405.34	3264.46
405.55	3434.44
405.76	3223.50
405.97	3241.93
406.19	3510.22
406.40	3311.57
406.61	3395.53
406.82	3389.39
407.03	3325.90
407.25	3389.39
407.46	3407.82
407.67	3387.34
407.88	3547.08
408.09	3309.52
408.31	3403.72
408.52	3479.50
408.73	3377.10
408.94	3456.97
409.15	3411.92
409.37	3528.65
409.58	3538.89
409.79	3565.51
410.00	3522.51
410.21	3545.03
410.43	3577.80
410.64	3407.82
410.85	3538.89
411.06	3545.03
411.27	3647.43
411.48	3737.54
411.70	3534.79
411.91	3667.91
412.12	3684.30
412.33	3606.47
412.54	3583.95
412.76	3739.59
412.97	3796.93
413.18	3647.43
413.39	3719.11
413.60	3721.16
413.81	3641.29
414.03	3547.08
414.24	3612.62
414.45	3825.61
414.66	3674.06
414.87	3856.33
415.08	3719.11
415.30	3645.38
415.51	3790.79
415.72	3700.68
415.93	3715.02
416.14	3760.07
416.35	3891.14
416.56	3854.28
416.78	3895.24
416.99	3870.66
417.20	3762.12
417.41	3862.47
417.62	3917.76
417.83	3885.00
418.04	3882.95
418.26	3903.43
418.47	3835.85
418.68	4009.92
418.89	4026.31
419.10	4036.55
419.31	4054.98
419.52	4036.55
419.73	4112.32
419.95	4161.47
420.16	3964.87
420.37	4018.11
420.58	4153.28
420.79	3989.44
421.00	4022.21
421.21	4337.60
421.42	4093.89
421.63	4247.49
421.85	4186.05
422.06	4278.21
422.27	4206.53
422.48	4274.11
422.69	4276.16
422.90	4308.93
423.11	4288.45
423.32	4302.78
423.53	4546.49
423.75	4192.19
423.96	4507.58
424.17	4478.91
424.38	4693.94
424.59	4476.86
424.80	4712.38
425.01	4499.39
425.22	4403.13
425.43	4507.58
425.64	4730.81
425.85	4663.22
426.06	4575.16
426.28	4638.65
426.49	4628.41
426.70	4575.16
426.91	4679.61
427.12	4825.01
427.33	4708.28
427.54	4812.73
427.75	4655.03
427.96	4917.17
428.17	4843.45
428.38	4779.96
428.59	4874.17
428.80	4886.45
429.01	4966.32
429.23	4857.78
429.44	5105.59
429.65	4974.52
429.86	5060.53
430.07	5009.33
430.28	5015.48
430.49	5046.20
430.70	5261.23
430.91	5214.13
431.12	5156.79
431.33	5164.98
431.54	5347.25
431.75	5220.27
431.96	5111.73
432.17	5353.39
432.38	5179.31
432.59	5455.79
432.80	5316.53
433.01	5388.21
433.22	5420.97
433.43	5416.88
433.64	5466.03
433.85	5388.21
434.06	5560.24
434.27	5302.19
434.49	5484.46
434.70	5617.58
434.91	5500.84
435.12	5545.90
435.33	5525.42
435.54	5593.00
435.75	5316.53
435.96	5597.10
436.17	5461.93
436.38	5775.27
436.59	5709.74
436.80	5681.07
437.01	5951.40
437.22	5945.25
437.43	5851.05
437.64	5568.43
437.85	5830.57
438.06	5896.10
438.27	5803.94
438.48	5752.74
438.69	6055.84
438.90	6008.74
439.11	5873.57
439.32	6084.52
439.53	5935.01
439.74	6094.76
439.95	6084.52
440.16	5994.40
440.37	6012.84
440.57	5842.85
440.78	6133.67
440.99	6123.43
441.20	6117.28
441.41	6133.67
441.62	6006.69
441.83	5953.45
442.04	6266.78
442.25	6266.78
442.46	6133.67
442.67	6229.92
442.88	6707.10
443.09	6150.05
443.30	6309.79
443.51	6424.48
443.72	6700.95
443.93	6186.91
444.14	6666.14
444.35	6291.36
444.56	6383.52
444.77	6694.81
444.98	6326.18
445.19	6520.73
445.40	6524.83
445.61	6490.01
445.81	6627.23
446.02	6684.57
446.23	6537.12
446.44	6426.53
446.65	6651.80
446.86	6545.31
447.07	6631.32
447.28	6768.54
447.49	6688.67
447.70	6672.28
447.91	6942.61
448.12	6776.73
448.33	6809.50
448.54	6961.05
448.74	6811.54
448.95	6932.37
449.16	6797.21
449.37	7014.29
449.58	6999.96
449.79	7141.27
450.00	6807.45
450.21	7088.02
450.42	7163.79
450.63	7188.37
450.84	7229.33
451.05	7139.22
451.25	7079.83
451.46	7092.12
451.67	7268.24
451.88	7503.76
452.09	7374.74
452.30	7188.37
452.51	7118.74
452.72	7425.93
452.93	7618.44
453.13	7237.52
453.34	7393.17
453.55	7436.17
453.76	7284.62
453.97	7755.66
454.18	7552.91
454.39	7645.07
454.60	7585.68
454.81	7452.56
455.01	7790.47
455.22	7591.82
455.43	7810.95
455.64	7698.31
455.85	7903.11
456.06	7999.37
456.27	7788.43
456.48	7784.33
456.68	7905.16
456.89	7911.30
457.10	8060.80
457.31	7991.17
457.52	8083.33
457.73	8060.80
457.94	8484.73
458.14	7962.50
458.35	8380.29
458.56	8394.62
458.77	8105.86
458.98	8337.28
459.19	8359.81
459.39	8370.05
459.60	8456.06
459.81	8521.60
460.02	8466.30
460.23	8509.31
460.44	8761.21
460.65	8789.88
460.85	8818.55
461.06	8910.71
461.27	8576.89
461.48	9015.16
461.69	9009.01
461.89	8785.79
462.10	9105.27
462.31	8857.46
462.52	8875.90
462.73	9058.17
462.94	9211.76
463.14	9000.82
463.35	9156.47
463.56	9580.40
463.77	9400.18
463.98	9191.28
464.18	9453.42
464.39	9574.25
464.60	9846.63
464.81	9510.77
465.02	9637.74
465.23	9783.15
465.43	9756.52
465.64	9989.99
465.85	9973.61
466.06	9809.77
466.27	10178.40
466.47	10164.07
466.68	10026.86
466.89	10020.71
467.10	10030.95
467.30	10049.38
467.51	10276.71
467.72	10530.66
467.93	10284.90
468.14	10512.22
468.34	10596.19
468.55	10610.53
468.76	10649.44
468.97	10510.18
469.17	10833.75
469.38	10934.11
469.59	11212.63
469.80	10669.92
470.01	10741.60
470.21	10870.62
470.42	11224.92
470.63	11439.95
470.84	11050.84
471.04	11327.32
471.25	11366.23
471.46	11257.68
471.67	11857.74
471.87	11538.26
472.08	11792.20
472.29	11863.88
472.50	11669.33
472.70	11790.16
472.91	11892.55
473.12	12177.22
473.33	12236.61
473.53	12318.53
473.74	12275.52
473.95	12357.44
474.16	12674.88
474.36	12635.97
474.57	12797.76
474.78	12781.37
474.99	12748.61
475.19	12846.91
475.40	13182.77
475.61	13207.35
475.81	13195.06
476.02	13418.29
476.23	13340.47
476.44	13422.39
476.64	13920.04
476.85	13756.21
477.06	13756.21
477.27	14016.30
477.47	14167.85
477.68	13940.52
477.89	14266.15
478.09	14194.47
478.30	14368.55
478.51	14362.40
478.71	14493.47
478.92	14659.36
479.13	14616.35
479.34	14999.32
479.54	14841.63
479.75	14886.68
479.96	15079.19
480.16	15148.82
480.37	15253.27
480.58	15566.61
480.78	15718.16
480.99	15607.57
481.20	15830.80
481.41	16068.36
481.61	15855.37
481.82	16054.03
482.03	16318.22
482.23	15937.29
482.44	16488.20
482.65	16629.51
482.85	16627.46
483.06	16774.91
483.27	16756.48
483.47	16525.06
483.68	16754.43
483.89	16848.64
484.09	16926.46
484.30	17329.91
484.51	17319.67
484.71	17641.20
484.92	17612.53
485.13	17575.67
485.33	17608.44
485.54	17665.78
485.75	17899.25
485.95	18036.46
486.16	18036.46
486.37	18077.42
486.57	18116.33
486.78	18267.88
486.98	18132.72
487.19	18337.51
487.40	18636.52
487.60	18618.08
487.81	18685.67
488.02	18947.81
488.22	18650.85
488.43	19156.70
488.64	18927.33
488.84	19287.77
489.05	19541.72
489.25	19205.85
489.46	19599.06
489.67	19601.11
489.87	19488.47
490.08	19769.04
490.29	19781.33
490.49	20039.37
490.70	20037.33
490.90	20313.80
491.11	20057.81
491.32	20321.99
491.52	20231.88
491.73	20747.97
491.94	20659.91
492.14	20403.91
492.35	20858.56
492.55	21132.99
492.76	21122.75
492.97	21223.10
493.17	21204.67
493.38	21155.52
493.58	21470.90
493.79	21370.55
494.00	21329.59
494.20	21565.11
494.41	21667.51
494.61	21681.85
494.82	21753.52
495.02	21667.51
495.23	22040.24
495.44	22056.62
495.64	22044.34
495.85	22152.88
496.05	22408.87
496.26	22242.99
496.47	22458.03
496.67	22220.46
496.88	22943.39
497.08	22341.29
497.29	22826.66
497.49	22886.05
497.70	22783.65
497.91	22808.23
498.11	23066.27
498.32	23172.77
498.52	23080.61
498.73	23258.78
498.93	23090.85
499.14	23719.57
499.34	23848.60
499.55	23879.32
499.76	23252.64
499.96	23989.91
500.17	23602.84
500.37	23848.60
500.58	23766.68
500.78	23795.35
500.99	23912.08
501.19	24100.50
501.40	24274.57
501.60	24143.50
501.81	24270.48
502.02	24206.99
502.22	24342.16
502.43	24387.21
502.63	24379.02
502.84	24641.16
503.04	24684.17
503.25	24684.17
503.45	24675.98
503.66	24934.02
503.86	24632.97
504.07	25253.50
504.27	25040.51
504.48	25241.21
504.68	25261.69
504.89	25435.77
505.09	25634.42
505.30	25327.23
505.50	25140.86
505.71	25097.86
505.91	25605.75
506.12	25288.32
506.32	25538.17
506.53	25560.70
506.73	25912.95
506.94	25790.07
507.14	26017.40
507.35	25710.20
507.55	25876.09
507.76	25906.80
507.96	26080.88
508.17	26230.38
508.37	26095.22
508.58	26031.73
508.78	26336.88
508.99	26543.72
509.19	26119.79
509.40	26287.73
509.60	26076.79
509.81	26619.50
510.01	26426.99
510.22	26508.91
510.42	26605.16
510.63	26949.22
510.83	26893.93
511.04	26562.15
511.24	26771.05
511.44	26664.55
511.65	26809.96
511.85	26873.45
512.06	26775.14
512.26	26930.79
512.47	27240.03
512.67	27156.07
512.88	27229.79
513.08	26848.87
513.29	27326.05
513.49	27328.10
513.69	27352.67
513.90	27139.68
514.10	27362.91
514.31	27616.86
514.51	27651.67
514.72	27471.45
514.92	27577.95
515.13	27475.55
515.33	27489.88
515.53	27711.07
515.74	27856.47
515.94	27989.59
516.15	27930.20
516.35	28094.04
516.56	28298.83
516.76	27891.29
516.96	28073.56
517.17	28491.34
517.37	28223.06
517.58	28198.48
517.78	28495.44
517.99	28194.39
518.19	28788.30
518.39	28540.49
518.60	28653.13
518.80	28790.34
519.01	28780.10
519.21	28542.54
519.41	29036.10
519.62	28657.23
519.82	28884.55
520.03	29236.80
520.23	29142.60
520.43	29128.26
520.64	29576.76
520.84	29161.03
521.05	29191.75
521.25	29271.62
521.45	29390.40
521.66	29980.21
521.86	29679.16
522.07	29654.59
522.27	30142.00
522.47	29562.43
522.68	30107.19
522.88	30017.08
523.08	30289.46
523.29	30049.85
523.49	30606.89
523.70	30770.73
523.90	30496.30
524.10	30707.24
524.31	30606.89
524.51	30821.93
524.71	30946.86
524.92	30838.31
525.12	31084.07
525.33	30957.10
525.53	31176.23
525.73	31198.76
525.94	31096.36
526.14	31053.35
526.34	31602.21
526.55	31442.46
526.75	31596.06
526.95	32048.66
527.16	31591.97
527.36	31735.32
527.56	31893.02
527.77	32149.01
527.97	32179.73
528.17	31950.36
528.38	32218.64
528.58	31950.36
528.78	32536.08
528.99	32542.22
529.19	32804.36
529.39	32370.19
529.60	33068.55
529.80	32656.91
530.00	33035.78
530.21	32753.16
530.41	33226.24
530.61	32984.58
530.82	33392.13
531.02	33545.73
531.22	33762.81
531.43	33543.68
531.63	33664.51
531.83	34168.31
532.04	34309.62
532.24	33574.40
532.44	34563.57
532.64	34532.85
532.85	34588.14
533.05	34514.42
533.25	34502.13
533.46	34901.48
533.66	34932.20
533.86	34944.49
534.07	35036.65
534.27	34944.49
534.47	35562.98
534.67	35648.99
534.88	34969.07
535.08	35384.80
535.28	35917.28
535.49	35767.77
535.69	36158.94
535.89	36140.50
536.09	35792.35
536.30	36224.47
536.50	36494.80
536.70	36451.80
536.91	36304.34
537.11	36468.18
537.31	36969.93
537.51	36939.21
537.72	36849.10
537.92	37344.71
538.12	37543.36
538.32	37207.50
538.53	37766.59
538.73	37094.86
538.93	37359.05
539.13	37739.97
539.34	37506.50
539.54	37486.02
539.74	37850.56
539.94	37565.89
540.15	37854.65
540.35	38233.53
540.55	38012.35
540.75	38135.23
540.96	38139.32
541.16	38403.51
541.36	38516.15
541.56	38391.22
541.77	38667.70
541.97	38350.26
542.17	38948.27
542.37	38710.71
542.58	39187.88
542.78	39220.65
542.98	38985.13
543.18	39456.17
543.38	39888.29
543.59	39548.32
543.79	39214.51
543.99	39222.70
544.19	39603.62
544.40	39904.67
544.60	39974.30
544.80	39726.50
545.00	40017.31
545.20	40387.99
545.41	40277.40
545.61	40086.94
545.81	40523.16
546.01	39992.73
546.21	40308.12
546.42	40357.27
546.62	40646.04
546.82	40445.33
547.02	40445.33
547.22	40619.41
547.43	40588.69
547.63	41221.52
547.83	41383.30
548.03	40928.66
548.23	41360.78
548.44	40971.66
548.64	41371.02
548.84	41301.39
549.04	41383.30
549.24	41340.30
549.45	41606.53
549.65	41379.21
549.85	41532.81
550.05	42063.23
550.25	41885.06
550.45	42005.89
550.66	41962.88
550.86	41655.68
551.06	42319.23
551.26	42311.03
551.46	41932.16
551.66	41921.92
551.87	42302.84
552.07	42214.78
552.27	42382.71
552.47	42843.51
552.67	42767.73
552.87	42794.36
553.07	42939.76
553.28	42812.79
553.48	43193.71
553.68	42935.66
553.88	43054.45
554.08	43033.97
554.28	43156.85
554.48	42532.22
554.69	42982.77
554.89	43046.26
555.09	43220.33
555.29	42739.06
555.49	43263.34
555.69	43461.99
555.89	42978.67
556.10	43644.26
556.30	43396.46
556.50	43179.37
556.70	43380.07
556.90	43980.13
557.10	43834.72
557.30	43464.04
557.50	43834.72
557.70	43474.28
557.91	44051.81
558.11	43959.65
558.31	44068.19
558.51	43861.35
558.71	43752.80
558.91	44146.01
559.11	44068.19
559.31	44254.56
559.51	43677.03
559.72	44160.35
559.92	44152.16
560.12	43834.72
560.32	44440.92
560.52	43988.32
560.72	44629.34
560.92	44367.20
561.12	44293.47
561.32	44266.84
561.52	44176.73
561.72	44623.19
561.93	44076.38
562.13	44246.36
562.33	43976.03
562.53	44926.29
562.73	44291.42
562.93	44623.19
563.13	44561.75
563.33	44182.88
563.53	44571.99
563.73	44545.37
563.93	44615.00
564.13	45061.46
564.33	44733.78
564.53	45036.88
564.74	45194.57
564.94	44709.21
565.14	44950.87
565.34	44406.11
565.54	45575.50
565.74	45176.14
565.94	45258.06
566.14	44805.46
566.34	45313.36
566.54	45507.91
566.74	45000.02
566.94	45241.68
567.14	45708.61
567.34	45256.01
567.54	45555.02
567.74	45360.46
567.94	45309.26
568.14	45595.98
568.34	45395.28
568.54	45200.72
568.74	45794.63
568.94	45208.91
569.14	45884.74
569.34	45362.51
569.54	45878.60
569.75	45421.90
569.95	45700.42
570.15	45942.08
570.35	45708.61
570.55	45700.42
570.75	45937.99
570.95	45897.03
571.15	45757.77
571.35	45862.21
571.55	45722.95
571.75	45653.32
571.95	46105.92
572.15	45743.43
572.35	46439.74
572.55	46071.10
572.75	46497.08
572.95	46046.53
573.15	45864.26
573.35	45929.80
573.55	45874.50
573.75	46193.98
573.95	46521.66
574.15	45970.75
574.35	46585.15
574.55	46185.79
574.75	45851.97
574.95	46284.09
575.15	45888.84
575.34	46300.48
575.54	46503.23
575.74	46835.00
575.94	46777.65
576.14	46214.46
576.34	46841.14
576.54	46740.79
576.74	46433.60
576.94	46603.58
577.14	46927.16
577.34	46982.45
577.54	46687.54
577.74	46921.01
577.94	46884.15
578.14	47035.70
578.34	47404.33
578.54	46607.67
578.74	46871.86
578.94	47004.98
579.14	47297.84
579.34	46773.56
579.54	47115.57
579.74	47494.44
579.94	47232.30
580.13	47443.24
580.33	47609.13
580.53	47248.69
580.73	47545.64
580.93	47375.66
581.13	47691.05
581.33	47723.82
581.53	47748.39
581.73	47562.03
581.93	47785.25
582.13	47842.60
582.33	47848.74
582.53	47625.51
582.73	47365.42
582.92	47574.31
583.12	48368.93
583.32	48174.37
583.52	47428.91
583.72	48246.05
583.92	47822.12
584.12	48047.39
584.32	48440.60
584.52	47992.10
584.72	48452.89
584.92	48239.90
585.11	48592.15
585.31	48596.25
585.51	48399.65
585.71	48315.68
585.91	48655.64
586.11	48557.34
586.31	48436.51
586.51	48463.13
586.71	48602.39
586.91	48973.08
587.10	48753.94
587.30	48659.74
587.50	48766.23
587.70	49030.42
587.90	48784.66
588.10	48895.25
588.30	48772.38
588.50	49284.37
