SpectraSuite Data File
++++++++++++++++++++++++++++++++++++
Date: Fri Jun 02 14:52:25 CEST 2017
User: INFO_000
Dark Spectrum Present: No
Reference Spectrum Present: No
Number of Sampled Component Spectra: 1
Spectrometers: USB4H00879
Integration Time (usec): 80000 (USB4H00879)
Spectra Averaged: 1 (USB4H00879)
Boxcar Smoothing: 0 (USB4H00879)
Correct for Electrical Dark: No (USB4H00879)
Strobe/Lamp Enabled: No (USB4H00879)
Correct for Detector Non-linearity: No (USB4H00879)
Correct for Stray Light: No (USB4H00879)
Number of Pixels in Processed Spectrum: 3648
>>>>>Begin Processed Spectral Data<<<<<
345.13	1337.32
345.34	1337.32
345.56	1337.32
345.78	1282.03
345.99	1302.51
346.21	1683.43
346.42	1716.20
346.64	1665.00
346.86	1802.21
347.07	1617.90
347.29	1714.15
347.50	1632.23
347.72	1675.24
347.94	1718.25
348.15	1552.36
348.37	1617.90
348.59	1716.20
348.80	1705.96
349.02	1802.21
349.23	1882.08
349.45	1806.31
349.67	1902.56
349.88	1828.84
350.10	1931.23
350.31	1923.04
350.53	1855.46
350.75	1953.76
350.96	1832.93
351.18	1945.57
351.39	1849.32
351.61	1830.88
351.82	1877.99
352.04	1968.10
352.26	1796.07
352.47	1935.33
352.69	1861.60
352.90	1736.68
353.12	1896.42
353.34	1832.93
353.55	1957.86
353.77	1859.56
353.98	1822.69
354.20	1871.84
354.41	1910.75
354.63	1908.71
354.85	2043.87
355.06	1918.95
355.28	1765.35
355.49	1923.04
355.71	1890.28
355.92	1824.74
356.14	1947.62
356.35	1933.28
356.57	1935.33
356.79	1886.18
357.00	1830.88
357.22	1976.29
357.43	1884.13
357.65	1941.47
357.86	1849.32
358.08	1923.04
358.29	1931.23
358.51	1986.53
358.72	1925.09
358.94	1937.38
359.16	1918.95
359.37	1974.24
359.59	1980.39
359.80	2002.91
360.02	1970.15
360.23	1900.52
360.45	1984.48
360.66	1947.62
360.88	1853.41
361.09	1910.75
361.31	2033.63
361.52	1947.62
361.74	2088.93
361.95	2072.54
362.17	1923.04
362.38	2066.40
362.60	2103.26
362.81	1886.18
363.03	2000.87
363.24	1931.23
363.46	2064.35
363.67	1929.19
363.89	2004.96
364.10	2068.45
364.32	1953.76
364.53	2056.16
364.75	1845.22
364.96	2054.11
365.18	2101.22
365.39	1982.43
365.61	2007.01
365.82	2088.93
366.04	2052.06
366.25	1970.15
366.47	2093.02
366.68	2066.40
366.90	1988.58
367.11	2060.26
367.33	2066.40
367.54	2064.35
367.76	2076.64
367.97	2183.13
368.19	1994.72
368.40	2056.16
368.62	2052.06
368.83	2000.87
369.05	2029.54
369.26	2023.39
369.48	1937.38
369.69	2027.49
369.91	2037.73
370.12	1939.43
370.33	2123.74
370.55	2000.87
370.76	2013.15
370.98	2160.61
371.19	2103.26
371.41	2056.16
371.62	2043.87
371.84	2060.26
372.05	2207.71
372.27	2045.92
372.48	2105.31
372.69	2148.32
372.91	2123.74
373.12	2172.89
373.34	2111.46
373.55	2156.51
373.77	2107.36
373.98	2160.61
374.20	2230.24
374.41	2215.90
374.62	2181.09
374.84	2211.81
375.05	2215.90
375.27	2158.56
375.48	2215.90
375.70	2174.94
375.91	2215.90
376.12	2250.72
376.34	2095.07
376.55	2181.09
376.77	2248.67
376.98	2109.41
377.19	2215.90
377.41	2183.13
377.62	2103.26
377.84	2248.67
378.05	2361.31
378.27	2242.53
378.48	2250.72
378.69	2363.36
378.91	2312.16
379.12	2277.34
379.34	2248.67
379.55	2312.16
379.76	2263.01
379.98	2312.16
380.19	2283.49
380.41	2250.72
380.62	2332.64
380.83	2285.53
381.05	2211.81
381.26	2432.99
381.47	2215.90
381.69	2238.43
381.90	2475.99
382.12	2250.72
382.33	2269.15
382.54	2285.53
382.76	2334.68
382.97	2430.94
383.19	2289.63
383.40	2398.17
383.61	2265.05
383.83	2265.05
384.04	2308.06
384.25	2408.41
384.47	2387.93
384.68	2318.30
384.89	2244.57
385.11	2342.88
385.32	2404.32
385.54	2437.08
385.75	2287.58
385.96	2465.75
386.18	2379.74
386.39	2349.02
386.60	2332.64
386.82	2467.80
387.03	2463.71
387.24	2516.95
387.46	2459.61
387.67	2406.36
387.88	2535.39
388.10	2471.90
388.31	2508.76
388.52	2506.71
388.74	2502.62
388.95	2525.15
389.16	2480.09
389.38	2555.86
389.59	2588.63
389.80	2688.98
390.02	2529.24
390.23	2703.32
390.44	2580.44
390.66	2600.92
390.87	2596.82
391.08	2613.21
391.30	2641.88
391.51	2615.26
391.72	2723.80
391.94	2684.89
392.15	2570.20
392.36	2658.26
392.58	2617.30
392.79	2658.26
393.00	2727.89
393.22	2746.33
393.43	2770.90
393.64	2912.21
393.85	2815.96
394.07	2785.24
394.28	2701.27
394.49	2803.67
394.71	2801.62
394.92	2869.20
395.13	2705.37
395.35	2830.29
395.56	2789.33
395.77	2940.88
395.98	2891.73
396.20	2998.23
396.41	2879.44
396.62	2930.64
396.84	2863.06
397.05	2762.71
397.26	2949.08
397.47	2963.41
397.69	2865.11
397.90	3121.10
398.11	3074.00
398.32	3026.90
398.54	2961.36
398.75	2875.35
398.96	3028.95
399.18	3065.81
399.39	2904.02
399.60	3149.78
399.81	2969.55
400.03	2928.60
400.24	3280.85
400.45	2987.99
400.66	3063.76
400.88	3121.10
401.09	3266.51
401.30	3033.04
401.51	3147.73
401.73	3207.12
401.94	3139.54
402.15	3254.22
402.36	3076.05
402.58	3266.51
402.79	3227.60
403.00	3145.68
403.21	3239.89
403.43	3213.26
403.64	3200.98
403.85	3217.36
404.06	3346.38
404.27	3106.77
404.49	3246.03
404.70	3303.37
404.91	3393.48
405.12	3315.66
405.34	3274.70
405.55	3493.83
405.76	3198.93
405.97	3311.57
406.19	3491.79
406.40	3303.37
406.61	3360.72
406.82	3418.06
407.03	3272.65
407.25	3420.11
407.46	3497.93
407.67	3477.45
407.88	3506.12
408.09	3405.77
408.31	3342.28
408.52	3434.44
408.73	3395.53
408.94	3344.33
409.15	3428.30
409.37	3516.36
409.58	3553.23
409.79	3475.40
410.00	3600.33
410.21	3491.79
410.43	3508.17
410.64	3549.13
410.85	3516.36
411.06	3594.19
411.27	3602.38
411.48	3639.24
411.70	3530.70
411.91	3618.76
412.12	3729.35
412.33	3606.47
412.54	3571.66
412.76	3731.40
412.97	3690.44
413.18	3600.33
413.39	3655.62
413.60	3659.72
413.81	3743.69
414.03	3557.32
414.24	3559.37
414.45	3860.42
414.66	3604.42
414.87	3745.73
415.08	3667.91
415.30	3764.17
415.51	3661.77
415.72	3762.12
415.93	3784.65
416.14	3825.61
416.35	3796.93
416.56	3928.00
416.78	3856.33
416.99	3803.08
417.20	3776.45
417.41	3950.53
417.62	3825.61
417.83	3932.10
418.04	3987.40
418.26	4057.03
418.47	3862.47
418.68	3991.49
418.89	3878.85
419.10	4110.27
419.31	3995.59
419.52	4089.79
419.73	4044.74
419.95	4169.66
420.16	3882.95
420.37	4145.09
420.58	4110.27
420.79	4057.03
421.00	4036.55
421.21	4179.90
421.42	4153.28
421.63	4286.40
421.85	4247.49
422.06	4263.87
422.27	4177.86
422.48	4122.56
422.69	4247.49
422.90	4294.59
423.11	4370.37
423.32	4315.07
423.53	4474.81
423.75	4468.67
423.96	4534.20
424.17	4444.09
424.38	4700.09
424.59	4542.39
424.80	4501.44
425.01	4558.78
425.22	4548.54
425.43	4497.34
425.64	4728.76
425.85	4790.20
426.06	4595.64
426.28	4716.47
426.49	4538.30
426.70	4655.03
426.91	4798.39
427.12	4620.22
427.33	4661.18
427.54	4712.38
427.75	4851.64
427.96	4747.19
428.17	4800.44
428.38	4822.97
428.59	4925.36
428.80	4886.45
429.01	4845.49
429.23	4935.60
429.44	5175.22
429.65	5076.91
429.86	5091.25
430.07	4968.37
430.28	4954.04
430.49	5111.73
430.70	5197.74
430.91	5222.32
431.12	5025.72
431.33	5242.80
431.54	5298.10
431.75	5273.52
431.96	5228.46
432.17	5216.18
432.38	5195.70
432.59	5488.56
432.80	5423.02
433.01	5470.12
433.22	5515.18
433.43	5345.20
433.64	5377.97
433.85	5375.92
434.06	5474.22
434.27	5537.71
434.49	5416.88
434.70	5652.39
434.91	5726.12
435.12	5500.84
435.33	5543.85
435.54	5560.24
435.75	5480.36
435.96	5590.95
436.17	5607.34
436.38	5801.90
436.59	5795.75
436.80	5627.82
437.01	5824.42
437.22	5842.85
437.43	5869.48
437.64	5642.15
437.85	5953.45
438.06	5994.40
438.27	5849.00
438.48	5803.94
438.69	6041.51
438.90	5967.78
439.11	5691.31
439.32	5967.78
439.53	5840.81
439.74	6039.46
439.95	6057.89
440.16	6107.04
440.37	6041.51
440.57	5861.29
440.78	6012.84
440.99	6100.90
441.20	6223.78
441.41	6123.43
441.62	6111.14
441.83	5969.83
442.04	6178.72
442.25	6301.60
442.46	6338.46
442.67	6229.92
442.88	6588.32
443.09	6350.75
443.30	6350.75
443.51	6258.59
443.72	6610.84
443.93	6393.76
444.14	6635.42
444.35	6356.90
444.56	6391.71
444.77	6510.49
444.98	6404.00
445.19	6475.68
445.40	6320.03
445.61	6551.45
445.81	6516.64
446.02	6563.74
446.23	6651.80
446.44	6436.77
446.65	6594.46
446.86	6733.72
447.07	6938.52
447.28	6866.84
447.49	6719.39
447.70	6696.86
447.91	6866.84
448.12	6698.91
448.33	6752.15
448.54	6723.48
448.74	6793.11
448.95	6854.55
449.16	6911.89
449.37	7096.21
449.58	6825.88
449.79	7073.68
450.00	6883.22
450.21	7016.34
450.42	7116.69
450.63	7069.59
450.84	7036.82
451.05	7262.10
451.25	6989.72
451.46	7171.99
451.67	7454.61
451.88	7251.86
452.09	7163.79
452.30	7151.51
452.51	7217.04
452.72	7401.36
452.93	7477.13
453.13	7122.84
453.34	7384.98
453.55	7378.83
453.76	7298.96
453.97	7733.13
454.18	7499.66
454.39	7573.39
454.60	7413.65
454.81	7585.68
455.01	7688.07
455.22	7454.61
455.43	7679.88
455.64	7774.09
455.85	7929.74
456.06	8025.99
456.27	7806.86
456.48	7837.58
456.68	7874.44
456.89	8030.09
457.10	7804.81
457.31	8134.53
457.52	7882.63
457.73	8062.85
457.94	8322.94
458.14	8052.61
458.35	8605.56
458.56	8324.99
458.77	8073.09
458.98	8300.42
459.19	8417.15
459.39	8408.96
459.60	8458.11
459.81	8339.33
460.02	8533.89
460.23	8572.80
460.44	8793.98
460.65	8652.67
460.85	8638.33
461.06	8900.47
461.27	8497.02
461.48	8888.18
461.69	9097.08
461.89	8793.98
462.10	8816.51
462.31	8791.93
462.52	8863.61
462.73	9183.09
462.94	9193.33
463.14	9232.24
463.35	9037.69
463.56	9308.02
463.77	9529.20
463.98	9215.86
464.18	9402.22
464.39	9674.60
464.60	9815.91
464.81	9676.65
465.02	9508.72
465.23	10028.90
465.43	9682.80
465.64	9891.69
465.85	9783.15
466.06	9711.47
466.27	10102.63
466.47	10207.08
466.68	10151.78
466.89	10018.66
467.10	10327.91
467.30	10137.45
467.51	10176.36
467.72	10547.04
467.93	10207.08
468.14	10379.11
468.34	10581.85
468.55	10653.53
468.76	10708.83
468.97	10641.25
469.17	10813.28
469.38	10897.24
469.59	10927.96
469.80	10852.19
470.01	11116.37
470.21	11007.83
470.42	11216.72
470.63	11390.80
470.84	11290.45
471.04	11321.17
471.25	11548.50
471.46	11550.54
471.67	11915.08
471.87	11685.71
472.08	11806.54
472.29	11861.84
472.50	11685.71
472.70	11822.92
472.91	11980.62
473.12	12179.27
473.33	12148.55
473.53	12355.40
473.74	12328.77
473.95	12539.71
474.16	12785.47
474.36	12504.90
474.57	12783.42
474.78	12789.56
474.99	12814.14
475.19	12969.79
475.40	13111.10
475.61	13104.95
475.81	13291.32
476.02	13463.35
476.23	13242.17
476.44	13414.20
476.64	13715.25
476.85	13786.93
477.06	13696.82
477.27	14106.41
477.47	14026.54
477.68	14090.02
477.89	14415.65
478.09	14257.96
478.30	14288.68
478.51	14360.36
478.71	14561.06
478.92	14878.49
479.13	14710.56
479.34	14833.44
479.54	15064.86
479.75	15091.48
479.96	14999.32
480.16	15159.06
480.37	15290.13
480.58	15324.95
480.78	15675.15
480.99	15765.26
481.20	15707.92
481.41	15785.74
481.61	16076.55
481.82	15996.68
482.03	16127.75
482.23	15978.25
482.44	16217.86
482.65	16690.95
482.85	16582.40
483.06	16817.92
483.27	16492.29
483.47	16690.95
483.68	16590.59
483.89	17073.92
484.09	16852.73
484.30	17063.68
484.51	17395.45
484.71	17344.25
484.92	17348.34
485.13	17682.16
485.33	17616.63
485.54	17622.77
485.75	18188.01
485.95	18245.35
486.16	17952.49
486.37	18220.78
486.57	18089.71
486.78	18188.01
486.98	18401.00
487.19	18591.46
487.40	18622.18
487.60	18638.56
487.81	18863.84
488.02	18872.03
488.22	18673.38
488.43	19234.52
488.64	19300.06
488.84	19171.04
489.05	19418.84
489.25	19312.35
489.46	19721.94
489.67	19261.15
489.87	19896.02
490.08	19773.14
490.29	19988.18
490.49	20221.64
490.70	20066.00
490.90	20240.08
491.11	20266.70
491.32	20166.35
491.52	20389.58
491.73	20360.91
491.94	20451.02
492.14	20477.64
492.35	20760.26
492.55	20823.75
492.76	21061.31
492.97	21081.79
493.17	20981.44
493.38	21081.79
493.58	21520.06
493.79	21333.69
494.00	21311.16
494.20	21548.73
494.41	21565.11
494.61	21472.95
494.82	22230.70
495.02	21980.85
495.23	22038.19
495.44	22122.16
495.64	22169.26
495.85	22351.53
496.05	22316.72
496.26	22255.28
496.47	22474.41
496.67	22296.24
496.88	22531.75
497.08	22468.27
497.29	22679.21
497.49	22382.25
497.70	22802.08
497.91	22902.43
498.11	23316.12
498.32	22916.77
498.52	23297.69
498.73	23398.04
498.93	23406.23
499.14	23484.06
499.34	23275.16
499.55	23778.97
499.76	23651.99
499.96	23778.97
500.17	23887.51
500.37	23856.79
500.58	23672.47
500.78	23938.71
500.99	23977.62
501.19	24293.01
501.40	24104.59
501.60	24102.54
501.81	24317.58
502.02	24233.61
502.22	24004.24
502.43	24290.96
502.63	24434.32
502.84	24458.89
503.04	24661.64
503.25	24833.67
503.45	24721.03
503.66	24632.97
503.86	24737.41
504.07	25040.51
504.27	25052.80
504.48	25163.39
504.68	25007.75
504.89	25226.88
505.09	25306.75
505.30	25386.62
505.50	24966.79
505.71	25380.48
505.91	25513.59
506.12	25446.01
506.32	25314.94
506.53	25577.08
506.73	25601.66
506.94	26119.79
507.14	25439.87
507.35	25876.09
507.55	25828.98
507.76	25644.66
507.96	25632.38
508.17	25720.44
508.37	25730.68
508.58	26007.16
508.78	26015.35
508.99	26326.64
509.19	26214.00
509.40	26144.37
509.60	26132.08
509.81	26578.54
510.01	26199.66
510.22	26406.51
510.42	26400.37
510.63	26697.32
510.83	26371.69
511.04	26832.49
511.24	26695.27
511.44	26652.27
511.65	26664.55
511.85	26725.99
512.06	26807.91
512.26	26795.62
512.47	26994.28
512.67	26584.68
512.88	27231.84
513.08	26959.46
513.29	27127.39
513.49	27012.71
513.69	27291.23
513.90	27248.22
514.10	27403.87
514.31	27184.74
514.51	27493.98
514.72	27512.41
514.92	27469.40
515.13	27672.15
515.33	27590.24
515.53	27666.01
515.74	27729.50
515.94	27776.60
516.15	27874.90
516.35	27813.46
516.56	28319.31
516.76	27872.85
516.96	27739.74
517.17	27983.44
517.37	27891.29
517.58	27991.64
517.78	27868.76
517.99	28339.79
518.19	28724.81
518.39	28741.19
518.60	28876.36
518.80	28368.46
519.01	28800.58
519.21	28649.03
519.41	28874.31
519.62	29087.30
519.82	29072.96
520.03	28923.46
520.23	28859.98
520.43	29150.79
520.64	29396.54
520.84	29576.76
521.05	29306.43
521.25	29873.72
521.45	29533.76
521.66	29447.74
521.86	29642.30
522.07	29724.22
522.27	29763.13
522.47	29548.09
522.68	30199.35
522.88	29843.00
523.08	30086.71
523.29	30244.40
523.49	30463.54
523.70	30322.23
523.90	30633.52
524.10	30518.83
524.31	30854.70
524.51	30182.96
524.71	30932.52
524.92	30737.96
525.12	31014.44
525.33	30973.48
525.53	31057.45
525.73	31020.58
525.94	31206.95
526.14	31139.36
526.34	31323.68
526.55	31575.58
526.75	31522.34
526.95	32120.34
527.16	31540.77
527.36	32060.95
527.56	31784.48
527.77	32196.12
527.97	32116.25
528.17	32312.85
528.38	32454.16
528.58	32826.89
528.78	32488.98
528.99	32531.98
529.19	32880.14
529.39	32304.66
529.60	32996.87
529.80	32830.99
530.00	32921.10
530.21	33338.88
530.41	33635.84
530.61	33191.43
530.82	33666.56
531.02	33537.54
531.22	33576.45
531.43	33701.37
531.63	34108.92
531.83	34135.54
532.04	34248.18
532.24	33971.71
532.44	34203.13
532.64	34641.39
532.85	34522.61
533.05	34301.43
533.25	34801.13
533.46	34909.68
533.66	35218.92
533.86	34690.54
534.07	35333.60
534.27	35442.15
534.47	35421.67
534.67	35493.35
534.88	35534.31
535.08	35399.14
535.28	35726.81
535.49	35853.79
535.69	36199.90
535.89	36263.38
536.09	36253.14
536.30	36773.33
536.50	36298.20
536.70	36650.45
536.91	36556.24
537.11	36570.58
537.31	36861.39
537.51	37139.91
537.72	37287.37
537.92	37029.32
538.12	37557.70
538.32	37217.74
538.53	37787.07
538.73	37006.80
538.93	37633.47
539.13	37627.33
539.34	37299.65
539.54	37625.28
539.74	38000.06
539.94	37895.61
540.15	37912.00
540.35	38401.46
540.55	38176.19
540.75	38225.34
540.96	38976.94
541.16	38722.99
541.36	38409.65
541.56	38700.47
541.77	39167.40
541.97	39030.19
542.17	39142.83
542.37	39321.00
542.58	39030.19
542.78	39036.33
542.98	39261.61
543.18	39335.34
543.38	39929.25
543.59	39687.59
543.79	39556.52
543.99	39615.91
544.19	39863.71
544.40	39327.14
544.60	39988.64
544.80	40158.62
545.00	40396.18
545.20	40641.94
545.41	40052.12
545.61	40367.51
545.81	40572.31
546.01	41047.44
546.21	40578.45
546.42	40695.19
546.62	40916.37
546.82	40433.05
547.02	40484.25
547.22	40873.36
547.43	41260.43
547.63	41256.33
547.83	41403.78
548.03	40926.61
548.23	41397.64
548.44	41325.96
548.64	41354.63
548.84	41366.92
549.04	41385.35
549.24	41846.15
549.45	41743.75
549.65	41459.08
549.85	41600.39
550.05	41944.45
550.25	41704.84
550.45	42534.26
550.66	42091.90
550.86	41538.95
551.06	42048.89
551.26	42259.84
551.46	42663.28
551.66	42849.65
551.87	42335.61
552.07	42343.80
552.27	42440.06
552.47	42902.90
552.67	42589.56
552.87	42642.81
553.07	42671.48
553.28	42653.05
553.48	42906.99
553.68	42923.38
553.88	43355.50
554.08	43074.93
554.28	42997.10
554.48	42569.08
554.69	43406.70
554.89	43335.02
555.09	43158.89
555.29	43015.54
555.49	43062.64
555.69	43324.78
555.89	43242.86
556.10	43785.57
556.30	43341.16
556.50	43615.59
556.70	43224.43
556.90	43525.48
557.10	43459.94
557.30	43345.26
557.50	43638.12
557.70	43732.32
557.91	43828.58
558.11	43933.03
558.31	44252.51
558.51	43894.11
558.71	44041.57
558.91	44123.49
559.11	43933.03
559.31	43853.15
559.51	43781.48
559.72	44246.36
559.92	44557.66
560.12	43842.92
560.32	44082.53
560.52	44148.06
560.72	44367.20
560.92	44340.57
561.12	44260.70
561.32	44780.88
561.52	43859.30
561.72	44789.08
561.93	44346.72
562.13	44436.83
562.33	44371.29
562.53	45098.32
562.73	44295.52
562.93	44584.28
563.13	44615.00
563.33	44733.78
563.53	44975.44
563.73	44598.62
563.93	44791.12
564.13	45198.67
564.33	44633.43
564.53	44664.15
564.74	45040.98
564.94	44684.63
565.14	44957.01
565.34	44434.78
565.54	45118.80
565.74	45030.74
565.94	44850.52
566.14	45096.27
566.34	44850.52
566.54	45489.48
566.74	44934.48
566.94	45296.97
567.14	45270.35
567.34	44922.19
567.54	45106.51
567.74	45098.32
567.94	45122.90
568.14	45473.10
568.34	45471.05
568.54	45182.29
568.74	45342.03
568.94	45616.46
569.14	45811.01
569.34	45751.62
569.54	45995.33
569.75	45053.26
569.95	45491.53
570.15	45641.03
570.35	45690.18
570.55	45593.93
570.75	45436.23
570.95	45337.93
571.15	45913.41
571.35	45831.49
571.55	46036.29
571.75	46028.10
571.95	45927.75
572.15	45481.29
572.35	45946.18
572.55	45747.53
572.75	45978.95
572.95	45946.18
573.15	46093.63
573.35	45641.03
573.55	45651.27
573.75	46005.57
573.95	46101.82
574.15	46138.69
574.35	46048.58
574.55	45823.30
574.75	46087.49
574.95	46585.15
575.15	46247.23
575.34	46337.34
575.54	46296.38
575.74	46730.55
575.94	46552.38
576.14	46333.24
576.34	46736.69
576.54	46691.64
576.74	46402.88
576.94	46742.84
577.14	46888.24
577.34	46966.07
577.54	46339.39
577.74	46462.27
577.94	46892.34
578.14	46527.80
578.34	47134.00
578.54	46366.01
578.74	46601.53
578.94	46910.77
579.14	46564.67
579.34	46847.29
579.54	46814.52
579.74	47252.78
579.94	46959.92
580.13	46787.89
580.33	46916.92
580.53	46947.64
580.73	47310.13
580.93	47240.50
581.13	47531.31
581.33	47514.92
581.53	47545.64
581.73	47545.64
581.93	47541.55
582.13	47621.42
582.33	47615.27
582.53	47729.96
582.73	47830.31
582.92	48090.40
583.12	47865.13
583.32	47883.56
583.52	47662.38
583.72	47988.00
583.92	47594.79
584.12	47750.44
584.32	48196.90
584.52	48325.92
584.72	48229.66
584.92	48129.31
585.11	48049.44
585.31	48274.72
585.51	48416.03
585.71	48149.79
585.91	48377.12
586.11	48327.97
586.31	48452.89
586.51	48110.88
586.71	48418.08
586.91	48567.58
587.10	48919.83
587.30	49046.80
587.50	48727.32
587.70	48876.82
587.90	48753.94
588.10	49007.89
588.30	48477.47
588.50	49177.87
