SpectraSuite Data File
++++++++++++++++++++++++++++++++++++
Date: Fri Jun 02 14:52:23 CEST 2017
User: INFO_000
Dark Spectrum Present: No
Reference Spectrum Present: No
Number of Sampled Component Spectra: 1
Spectrometers: USB4H00879
Integration Time (usec): 80000 (USB4H00879)
Spectra Averaged: 1 (USB4H00879)
Boxcar Smoothing: 0 (USB4H00879)
Correct for Electrical Dark: No (USB4H00879)
Strobe/Lamp Enabled: No (USB4H00879)
Correct for Detector Non-linearity: No (USB4H00879)
Correct for Stray Light: No (USB4H00879)
Number of Pixels in Processed Spectrum: 3648
>>>>>Begin Processed Spectral Data<<<<<
345.13	1267.69
345.34	1267.69
345.56	1267.69
345.78	1310.70
345.99	1204.21
346.21	1703.91
346.42	1691.62
346.64	1619.94
346.86	1775.59
347.07	1665.00
347.29	1683.43
347.50	1595.37
347.72	1683.43
347.94	1744.87
348.15	1576.94
348.37	1634.28
348.59	1675.24
348.80	1710.05
349.02	1740.77
349.23	1814.50
349.45	1693.67
349.67	1841.12
349.88	1726.44
350.10	1886.18
350.31	1689.57
350.53	1691.62
350.75	1843.17
350.96	1656.81
351.18	1732.58
351.39	1794.02
351.61	1742.82
351.82	1818.60
352.04	1806.31
352.26	1699.81
352.47	1802.21
352.69	1722.34
352.90	1605.61
353.12	1748.97
353.34	1736.68
353.55	1820.64
353.77	1791.97
353.98	1703.91
354.20	1720.29
354.41	1896.42
354.63	1781.73
354.85	1937.38
355.06	1800.16
355.28	1615.85
355.49	1787.88
355.71	1757.16
355.92	1740.77
356.14	1753.06
356.35	1728.49
356.57	1734.63
356.79	1802.21
357.00	1849.32
357.22	1845.22
357.43	1777.64
357.65	1814.50
357.86	1714.15
358.08	1794.02
358.29	1779.68
358.51	1769.44
358.72	1839.08
358.94	1753.06
359.16	1802.21
359.37	1800.16
359.59	1843.17
359.80	1816.55
360.02	1830.88
360.23	1794.02
360.45	1910.75
360.66	1775.59
360.88	1695.72
361.09	1751.01
361.31	1820.64
361.52	1697.77
361.74	1830.88
361.95	1880.04
362.17	1814.50
362.38	1929.19
362.60	1820.64
362.81	1738.73
363.03	1748.97
363.24	1742.82
363.46	1898.47
363.67	1802.21
363.89	1773.54
364.10	1796.07
364.32	1820.64
364.53	1843.17
364.75	1683.43
364.96	1839.08
365.18	1837.03
365.39	1820.64
365.61	1744.87
365.82	1912.80
366.04	1826.79
366.25	1695.72
366.47	1839.08
366.68	1837.03
366.90	1767.40
367.11	1884.13
367.33	1886.18
367.54	1896.42
367.76	1855.46
367.97	1906.66
368.19	1810.40
368.40	1873.89
368.62	1777.64
368.83	1783.78
369.05	1837.03
369.26	1761.25
369.48	1722.34
369.69	1839.08
369.91	1779.68
370.12	1789.92
370.33	1837.03
370.55	1632.23
370.76	1830.88
370.98	1834.98
371.19	1761.25
371.41	1808.36
371.62	1886.18
371.84	1814.50
372.05	1918.95
372.27	1832.93
372.48	1896.42
372.69	1871.84
372.91	1910.75
373.12	1826.79
373.34	1771.49
373.55	1886.18
373.77	1884.13
373.98	1873.89
374.20	1986.53
374.41	1935.33
374.62	1867.75
374.84	1964.00
375.05	1818.60
375.27	1933.28
375.48	1978.34
375.70	1900.52
375.91	2019.30
376.12	2002.91
376.34	1834.98
376.55	1910.75
376.77	1937.38
376.98	1820.64
377.19	1828.84
377.41	1931.23
377.62	1953.76
377.84	2029.54
378.05	2080.74
378.27	2058.21
378.48	2002.91
378.69	2078.69
378.91	2107.36
379.12	1982.43
379.34	1929.19
379.55	1957.86
379.76	2009.06
379.98	1896.42
380.19	1988.58
380.41	2021.35
380.62	1992.67
380.83	2025.44
381.05	1904.61
381.26	2201.57
381.47	1927.14
381.69	1949.67
381.90	2113.50
382.12	1955.81
382.33	1935.33
382.54	1929.19
382.76	2015.20
382.97	2076.64
383.19	1974.24
383.40	2158.56
383.61	2025.44
383.83	1998.82
384.04	2058.21
384.25	2054.11
384.47	2170.85
384.68	2084.83
384.89	2023.39
385.11	2164.70
385.32	2043.87
385.54	2174.94
385.75	1998.82
385.96	2168.80
386.18	2090.98
386.39	2068.45
386.60	2101.22
386.82	2181.09
387.03	2138.08
387.24	2174.94
387.46	2113.50
387.67	2334.68
387.88	2322.40
388.10	2220.00
388.31	2131.94
388.52	2338.78
388.74	2279.39
388.95	2353.12
389.16	2195.42
389.38	2209.76
389.59	2312.16
389.80	2283.49
390.02	2355.16
390.23	2381.79
390.44	2172.89
390.66	2349.02
390.87	2263.01
391.08	2398.17
391.30	2547.67
391.51	2412.51
391.72	2398.17
391.94	2449.37
392.15	2435.03
392.36	2392.03
392.58	2359.26
392.79	2449.37
393.00	2529.24
393.22	2480.09
393.43	2629.59
393.64	2441.18
393.85	2502.62
394.07	2486.23
394.28	2641.88
394.49	2512.86
394.71	2680.79
394.92	2697.17
395.13	2506.71
395.35	2582.49
395.56	2475.99
395.77	2645.98
395.98	2639.83
396.20	2582.49
396.41	2779.09
396.62	2746.33
396.84	2742.23
397.05	2514.91
397.26	2562.01
397.47	2818.00
397.69	2668.50
397.90	2910.16
398.11	2766.81
398.32	2768.85
398.54	2750.42
398.75	2752.47
398.96	2893.78
399.18	2965.46
399.39	2863.06
399.60	3043.28
399.81	2854.87
400.03	2772.95
400.24	3067.86
400.45	2801.62
400.66	2975.70
400.88	2822.10
401.09	3092.43
401.30	2818.00
401.51	3004.37
401.73	3039.19
401.94	2975.70
402.15	3090.38
402.36	3104.72
402.58	3000.27
402.79	3141.58
403.00	3084.24
403.21	3166.16
403.43	3149.78
403.64	3067.86
403.85	3053.52
404.06	3168.21
404.27	3090.38
404.49	3094.48
404.70	3096.53
404.91	3190.74
405.12	3137.49
405.34	3166.16
405.55	3356.62
405.76	3117.01
405.97	3188.69
406.19	3422.16
406.40	3260.37
406.61	3321.81
406.82	3377.10
407.03	3239.89
407.25	3248.08
407.46	3356.62
407.67	3303.37
407.88	3483.59
408.09	3301.33
408.31	3338.19
408.52	3499.98
408.73	3315.66
408.94	3266.51
409.15	3395.53
409.37	3524.55
409.58	3397.58
409.79	3485.64
410.00	3536.84
410.21	3362.76
410.43	3493.83
410.64	3399.63
410.85	3575.75
411.06	3551.18
411.27	3549.13
411.48	3590.09
411.70	3471.31
411.91	3665.86
412.12	3702.73
412.33	3672.01
412.54	3667.91
412.76	3608.52
412.97	3598.28
413.18	3454.92
413.39	3518.41
413.60	3788.74
413.81	3712.97
414.03	3667.91
414.24	3643.34
414.45	3872.71
414.66	3622.86
414.87	3784.65
415.08	3755.97
415.30	3661.77
415.51	3708.87
415.72	3694.54
415.93	3727.30
416.14	3798.98
416.35	3995.59
416.56	3774.41
416.78	3841.99
416.99	3815.37
417.20	3835.85
417.41	3975.11
417.62	3971.01
417.83	3977.16
418.04	3874.76
418.26	3954.63
418.47	3829.70
418.68	4048.83
418.89	4009.92
419.10	4147.14
419.31	4151.23
419.52	4194.24
419.73	4210.62
419.95	4263.87
420.16	4009.92
420.37	4054.98
420.58	4087.75
420.79	3995.59
421.00	4190.14
421.21	4192.19
421.42	4169.66
421.63	4274.11
421.85	4188.10
422.06	4167.62
422.27	4265.92
422.48	4222.91
422.69	4175.81
422.90	4485.05
423.11	4222.91
423.32	4319.17
423.53	4376.51
423.75	4353.98
423.96	4427.71
424.17	4530.11
424.38	4534.20
424.59	4372.41
424.80	4718.52
425.01	4564.92
425.22	4446.14
425.43	4419.52
425.64	4616.12
425.85	4673.46
426.06	4714.42
426.28	4673.46
426.49	4628.41
426.70	4587.45
426.91	4591.55
427.12	4679.61
427.33	4722.62
427.54	4667.32
427.75	4800.44
427.96	4835.25
428.17	4786.10
428.38	4927.41
428.59	4841.40
428.80	4822.97
429.01	4913.08
429.23	4999.09
429.44	5044.15
429.65	5029.81
429.86	5060.53
430.07	4841.40
430.28	4894.65
430.49	4984.76
430.70	5164.98
430.91	5250.99
431.12	5011.38
431.33	5246.90
431.54	5263.28
431.75	5261.23
431.96	5093.30
432.17	5087.15
432.38	5169.07
432.59	5418.93
432.80	5400.49
433.01	5375.92
433.22	5431.21
433.43	5451.69
433.64	5343.15
433.85	5332.91
434.06	5461.93
434.27	5326.77
434.49	5498.80
434.70	5509.04
434.91	5588.91
435.12	5601.19
435.33	5466.03
435.54	5566.38
435.75	5343.15
435.96	5578.67
436.17	5554.09
436.38	5676.97
436.59	5615.53
436.80	5504.94
437.01	5926.82
437.22	5855.14
437.43	5707.69
437.64	5607.34
437.85	5795.75
438.06	5869.48
438.27	5785.51
438.48	5746.60
438.69	6016.93
438.90	5732.26
439.11	5840.81
439.32	6119.33
439.53	5838.76
439.74	5965.73
439.95	6010.79
440.16	5846.95
440.37	6123.43
440.57	5939.11
440.78	6135.71
440.99	6084.52
441.20	6143.91
441.41	6035.36
441.62	6182.82
441.83	6100.90
442.04	6211.49
442.25	6301.60
442.46	6277.02
442.67	6373.28
442.88	6608.80
443.09	6307.74
443.30	6193.06
443.51	6287.26
443.72	6610.84
443.93	6092.71
444.14	6657.95
444.35	6248.35
444.56	6512.54
444.77	6444.96
444.98	6453.15
445.19	6490.01
445.40	6449.05
445.61	6549.40
445.81	6604.70
446.02	6625.18
446.23	6500.25
446.44	6401.95
446.65	6627.23
446.86	6639.51
447.07	6770.58
447.28	6856.60
447.49	6872.98
447.70	6770.58
447.91	6672.28
448.12	6807.45
448.33	7018.39
448.54	6965.14
448.74	6764.44
448.95	6991.77
449.16	6664.09
449.37	7182.23
449.58	6842.26
449.79	7219.09
450.00	6760.34
450.21	6877.08
450.42	7288.72
450.63	7081.88
450.84	7108.50
451.05	7131.03
451.25	7167.89
451.46	6963.09
451.67	7337.87
451.88	7192.47
452.09	7147.41
452.30	7090.07
452.51	7333.78
452.72	7317.39
452.93	7602.06
453.13	7210.90
453.34	7321.49
453.55	7509.90
453.76	7497.61
453.97	7643.02
454.18	7473.04
454.39	7583.63
454.60	7509.90
454.81	7524.24
455.01	7817.10
455.22	7591.82
455.43	7647.12
455.64	7905.16
455.85	8032.13
456.06	8163.20
456.27	7911.30
456.48	7942.02
456.68	7917.45
456.89	8150.92
457.10	8058.76
457.31	8044.42
457.52	8046.47
457.73	8097.67
457.94	8386.43
458.14	8097.67
458.35	8408.96
458.56	8384.38
458.77	8316.80
458.98	8406.91
459.19	8365.95
459.39	8490.88
459.60	8595.32
459.81	8484.73
460.02	8681.34
460.23	8714.11
460.44	9002.87
460.65	8583.04
460.85	8890.23
461.06	8927.10
461.27	8638.33
461.48	9004.92
461.69	9084.79
461.89	8687.48
462.10	9035.64
462.31	8957.82
462.52	8843.13
462.73	9131.89
462.94	9256.82
463.14	9230.20
463.35	9187.19
463.56	9566.06
463.77	9414.51
463.98	9420.66
464.18	9383.79
464.39	9660.27
464.60	9854.83
464.81	9697.13
465.02	9686.89
465.23	9981.80
465.43	9559.92
465.64	10209.12
465.85	9989.99
466.06	9865.07
466.27	10241.89
466.47	10110.82
466.68	10080.10
466.89	10149.73
467.10	10477.41
467.30	10209.12
467.51	10436.45
467.72	10735.45
467.93	10454.88
468.14	10512.22
468.34	10721.12
468.55	10786.65
468.76	10741.60
468.97	10694.49
469.17	10876.76
469.38	11081.56
469.59	11112.28
469.80	10919.77
470.01	11038.55
470.21	11224.92
470.42	11355.99
470.63	11433.81
470.84	11306.84
471.04	11599.70
471.25	11548.50
471.46	11292.50
471.67	11818.83
471.87	11704.14
472.08	11900.75
472.29	11960.14
472.50	11841.36
472.70	11851.60
472.91	11960.14
473.12	12189.51
473.33	12209.99
473.53	12375.88
473.74	12259.14
473.95	12451.65
474.16	12564.29
474.36	12646.21
474.57	12709.69
474.78	12873.53
474.99	12996.41
475.19	13000.51
475.40	13291.32
475.61	13225.78
475.81	13420.34
476.02	13498.16
476.23	13508.40
476.44	13360.95
476.64	13786.93
476.85	13844.27
477.06	13637.42
477.27	14038.83
477.47	14081.83
477.68	14069.55
477.89	14239.53
478.09	14108.46
478.30	14313.25
478.51	14425.89
478.71	14565.15
478.92	14769.95
479.13	14739.23
479.34	14823.20
479.54	14845.73
479.75	14774.05
479.96	15068.95
480.16	14970.65
480.37	15179.54
480.58	15101.72
480.78	15546.13
480.99	15249.18
481.20	15609.62
481.41	15724.30
481.61	15628.05
481.82	15861.52
482.03	16017.16
482.23	15968.01
482.44	16367.37
482.65	16398.09
482.85	16307.98
483.06	16641.79
483.27	16418.57
483.47	16342.79
483.68	16527.11
483.89	16658.18
484.09	16703.23
484.30	16920.32
484.51	17125.11
484.71	17192.70
484.92	16848.64
485.13	17364.73
485.33	17321.72
485.54	17082.11
485.75	17565.43
485.95	17463.03
486.16	17737.46
486.37	17745.65
486.57	17663.73
486.78	17891.06
486.98	18196.20
487.19	18083.56
487.40	18124.52
487.60	18052.84
487.81	18511.59
488.02	18042.60
488.22	18546.40
488.43	18544.36
488.64	18810.59
488.84	18912.99
489.05	19109.60
489.25	18921.18
489.46	19029.73
489.67	19156.70
489.87	19543.77
490.08	19410.65
490.29	19504.85
490.49	19869.39
490.70	19795.67
490.90	19924.69
491.11	19826.39
491.32	19990.22
491.52	20027.09
491.73	19973.84
491.94	20227.79
492.14	20260.55
492.35	20563.65
492.55	20514.50
492.76	20856.51
492.97	20739.78
493.17	20692.68
493.38	20752.07
493.58	20911.81
493.79	21069.50
494.00	21311.16
494.20	21214.91
494.41	21255.87
494.61	21454.52
494.82	21569.21
495.02	21601.97
495.23	21556.92
495.44	21554.87
495.64	22015.66
495.85	21862.07
496.05	21997.23
496.26	22109.87
496.47	22515.37
496.67	22306.48
496.88	22601.38
497.08	22054.58
497.29	22558.38
497.49	22273.71
497.70	22777.51
497.91	22818.47
498.11	22703.78
498.32	23219.87
498.52	23146.14
498.73	23158.43
498.93	23287.45
499.14	23170.72
499.34	23230.11
499.55	23539.35
499.76	23393.95
499.96	23602.84
500.17	23727.77
500.37	23697.05
500.58	23740.05
500.78	24084.11
500.99	23994.00
501.19	24282.77
501.40	24112.78
501.60	23979.67
501.81	24503.95
502.02	23955.09
502.22	24356.49
502.43	24635.02
502.63	24512.14
502.84	25011.84
503.04	24637.06
503.25	25001.60
503.45	24587.91
503.66	25040.51
503.86	24966.79
504.07	25169.54
504.27	25167.49
504.48	25511.55
504.68	25486.97
504.89	25495.16
505.09	25695.86
505.30	25017.99
505.50	25605.75
505.71	25652.86
505.91	25876.09
506.12	25654.90
506.32	25663.10
506.53	26101.36
506.73	26033.78
506.94	26048.11
507.14	25960.05
507.35	26375.79
507.55	26318.45
507.76	26283.63
507.96	26187.38
508.17	26787.43
508.37	26191.47
508.58	26523.24
508.78	26584.68
508.99	26556.01
509.19	26627.69
509.40	26615.40
509.60	27084.39
509.81	26779.24
510.01	26760.81
510.22	26840.68
510.42	26998.37
510.63	27025.00
510.83	26822.25
511.04	27219.55
511.24	27414.11
511.44	27002.47
511.65	27391.58
511.85	27479.64
512.06	27448.93
512.26	27362.91
512.47	27448.93
512.67	27827.80
512.88	27369.05
513.08	27104.87
513.29	27727.45
513.49	27747.93
513.69	27733.59
513.90	27977.30
514.10	27967.06
514.31	27702.87
514.51	27854.42
514.72	27993.68
514.92	28085.84
515.13	28012.12
515.33	28167.76
515.53	28204.63
515.74	28098.13
515.94	28126.80
516.15	28597.84
516.35	28438.09
516.56	28909.13
516.76	28335.70
516.96	28472.91
517.17	28694.09
517.37	28364.37
517.58	28655.18
517.78	28870.22
517.99	28509.77
518.19	29097.54
518.39	28829.26
518.60	29275.71
518.80	29046.34
519.01	29056.58
519.21	29474.37
519.41	29419.07
519.62	29115.97
519.82	29570.62
520.03	29443.65
520.23	29552.19
520.43	29310.53
520.64	29886.01
520.84	29789.75
521.05	29720.12
521.25	30008.89
521.45	29705.79
521.66	29855.29
521.86	29873.72
522.07	29771.32
522.27	30170.68
522.47	30354.99
522.68	30150.20
522.88	30404.14
523.08	30346.80
523.29	30543.41
523.49	30697.00
523.70	30807.59
523.90	30748.20
524.10	30832.17
524.31	30664.24
524.51	30717.48
524.71	31012.39
524.92	31231.52
525.12	31469.09
525.33	31204.90
525.53	31495.71
525.73	31620.64
525.94	31594.01
526.14	31471.14
526.34	31659.55
526.55	31804.95
526.75	32087.57
526.95	32364.05
527.16	31968.79
527.36	32040.47
527.56	32255.51
527.77	32806.41
527.97	32144.92
528.17	32349.71
528.38	32384.53
528.58	32654.86
528.78	33056.26
528.99	32638.48
529.19	32896.52
529.39	32503.31
529.60	33013.26
529.80	32966.15
530.00	33037.83
530.21	33705.47
530.41	33519.10
530.61	33537.54
530.82	33496.58
531.02	33592.83
531.22	33811.96
531.43	34131.45
531.63	34123.26
531.83	34606.58
532.04	34674.16
532.24	34219.51
532.44	34393.59
532.64	34696.69
532.85	34887.15
533.05	34528.75
533.25	34768.37
533.46	34946.54
533.66	35137.00
533.86	34938.35
534.07	35528.16
534.27	35122.66
534.47	35651.04
534.67	35491.30
534.88	35669.47
535.08	35569.12
535.28	36046.30
535.49	36003.29
535.69	36541.91
535.89	35900.89
536.09	35921.37
536.30	36380.12
536.50	36263.38
536.70	36556.24
536.91	36494.80
537.11	36877.77
537.31	36597.20
537.51	37127.63
537.72	37082.57
537.92	37531.08
538.12	37506.50
538.32	37115.34
538.53	37520.84
538.73	37385.67
538.93	37264.84
539.13	37490.12
539.34	37332.42
539.54	37563.84
539.74	38100.41
539.94	37989.82
540.15	37516.74
540.35	38430.13
540.55	38303.16
540.75	38198.71
540.96	38354.36
541.16	38653.36
541.36	38288.82
541.56	38536.63
541.77	38915.50
541.97	38933.93
542.17	38546.87
542.37	39118.25
542.58	39085.48
542.78	38966.70
542.98	39200.17
543.18	39128.49
543.38	39648.68
543.59	39589.28
543.79	39462.31
543.99	39554.47
544.19	39574.95
544.40	39789.98
544.60	39806.37
544.80	39949.73
545.00	40025.50
545.20	40336.79
545.41	39857.57
545.61	40033.69
545.81	40404.38
546.01	40527.25
546.21	40164.76
546.42	40301.98
546.62	40138.14
546.82	39959.97
547.02	40562.07
547.22	40465.81
547.43	40326.55
547.63	40590.74
547.83	40779.15
548.03	40867.22
548.23	41252.23
548.44	40613.27
548.64	41039.25
548.84	40912.27
549.04	41106.83
549.24	41295.24
549.45	41645.44
549.65	41291.15
549.85	41170.32
550.05	41731.46
550.25	41221.52
550.45	42161.53
550.66	41901.44
550.86	41346.44
551.06	41715.08
551.26	42030.46
551.46	42182.01
551.66	41960.83
551.87	41547.14
552.07	41844.10
552.27	41930.11
552.47	41983.36
552.67	42216.83
552.87	42063.23
553.07	41944.45
553.28	42173.82
553.48	42292.60
553.68	42061.18
553.88	42438.01
554.08	42468.73
554.28	42325.37
554.48	42333.56
554.69	42550.65
554.89	42161.53
555.09	42468.73
555.29	42505.59
555.49	42757.49
555.69	42894.71
555.89	42694.00
556.10	42923.38
556.30	42427.77
556.50	42882.42
556.70	42493.30
556.90	43023.73
557.10	42894.71
557.30	42675.57
557.50	43152.75
557.70	43154.80
557.91	43068.78
558.11	42440.06
558.31	43533.67
558.51	42982.77
558.71	43044.21
558.91	43421.03
559.11	43111.79
559.31	43130.22
559.51	43158.89
559.72	42759.54
559.92	43341.16
560.12	43269.48
560.32	43423.08
560.52	43119.98
560.72	43298.16
560.92	43322.73
561.12	43076.97
561.32	44266.84
561.52	43449.70
561.72	43623.78
561.93	43302.25
562.13	43787.62
562.33	43183.47
562.53	43887.97
562.73	43576.68
562.93	43963.75
563.13	43758.95
563.33	43513.19
563.53	43754.85
563.73	43437.42
563.93	43949.41
564.13	44125.53
564.33	44012.90
564.53	43627.88
564.74	44186.97
564.94	43713.89
565.14	44125.53
565.34	43900.26
565.54	44268.89
565.74	44166.49
565.94	44414.30
566.14	43920.74
566.34	44039.52
566.54	44363.10
566.74	44113.25
566.94	44158.30
567.14	44266.84
567.34	44461.40
567.54	44467.55
567.74	44576.09
567.94	44377.43
568.14	44524.89
568.34	44811.60
568.54	44416.35
568.74	44864.85
568.94	44608.86
569.14	44938.58
569.34	44492.12
569.54	44934.48
569.75	44465.50
569.95	44803.41
570.15	45217.10
570.35	44938.58
570.55	44803.41
570.75	45122.90
570.95	45307.21
571.15	45464.91
571.35	44907.86
571.55	45401.42
571.75	45327.69
571.95	45311.31
572.15	45137.23
572.35	45284.68
572.55	45477.19
572.75	45411.66
572.95	45522.25
573.15	45720.90
573.35	45688.13
573.55	45585.74
573.75	45638.98
573.95	45563.21
574.15	45530.44
574.35	46230.85
574.55	46054.72
574.75	45942.08
574.95	45638.98
575.15	45890.88
575.34	46005.57
575.54	46259.52
575.74	45993.28
575.94	46273.85
576.14	46009.67
576.34	46400.83
576.54	46574.91
576.74	47033.65
576.94	46585.15
577.14	46822.71
577.34	47088.95
577.54	46675.26
577.74	46900.53
577.94	46818.61
578.14	46579.00
578.34	47134.00
578.54	46443.84
578.74	47220.02
578.94	47211.82
579.14	47000.88
579.34	47226.16
579.54	47340.85
579.74	47699.24
579.94	47480.11
580.13	47269.17
580.33	47535.40
580.53	47756.58
580.73	48100.64
580.93	47945.00
581.13	47516.97
581.33	48305.44
581.53	48233.76
581.73	48225.57
581.93	47961.38
582.13	48407.84
582.33	48426.27
582.53	48315.68
582.73	48280.86
582.92	48608.54
583.12	48755.99
583.32	48831.77
583.52	48514.33
583.72	48993.56
583.92	48538.91
584.12	48760.09
584.32	49067.28
584.52	49378.57
584.72	48680.22
584.92	49177.87
585.11	49677.58
585.31	49061.14
585.51	49300.75
585.71	48979.22
585.91	49593.61
586.11	49743.11
586.31	49593.61
586.51	49366.29
586.71	49534.22
586.91	49624.33
587.10	49642.76
587.30	49882.37
587.50	50261.25
587.70	50146.56
587.90	50029.83
588.10	50386.18
588.30	50240.77
588.50	50083.08
