SpectraSuite Data File
++++++++++++++++++++++++++++++++++++
Date: Fri Jun 02 14:52:24 CEST 2017
User: INFO_000
Dark Spectrum Present: No
Reference Spectrum Present: No
Number of Sampled Component Spectra: 1
Spectrometers: USB4H00879
Integration Time (usec): 80000 (USB4H00879)
Spectra Averaged: 1 (USB4H00879)
Boxcar Smoothing: 0 (USB4H00879)
Correct for Electrical Dark: No (USB4H00879)
Strobe/Lamp Enabled: No (USB4H00879)
Correct for Detector Non-linearity: No (USB4H00879)
Correct for Stray Light: No (USB4H00879)
Number of Pixels in Processed Spectrum: 3648
>>>>>Begin Processed Spectral Data<<<<<
345.13	1314.80
345.34	1314.80
345.56	1314.80
345.78	1310.70
345.99	1288.17
346.21	1751.01
346.42	1652.71
346.64	1626.09
346.86	1789.92
347.07	1683.43
347.29	1720.29
347.50	1638.38
347.72	1630.18
347.94	1773.54
348.15	1583.08
348.37	1642.47
348.59	1775.59
348.80	1621.99
349.02	1716.20
349.23	1873.89
349.45	1820.64
349.67	1855.46
349.88	1875.94
350.10	1976.29
350.31	1791.97
350.53	1763.30
350.75	1947.62
350.96	1734.63
351.18	1884.13
351.39	1826.79
351.61	1785.83
351.82	1871.84
352.04	1871.84
352.26	1818.60
352.47	1863.65
352.69	1843.17
352.90	1794.02
353.12	1859.56
353.34	1824.74
353.55	1949.67
353.77	1867.75
353.98	1902.56
354.20	1785.83
354.41	1898.47
354.63	1884.13
354.85	1986.53
355.06	1912.80
355.28	1822.69
355.49	1896.42
355.71	2002.91
355.92	1912.80
356.14	1861.60
356.35	1875.94
356.57	1824.74
356.79	1927.14
357.00	1791.97
357.22	1945.57
357.43	1810.40
357.65	1968.10
357.86	1824.74
358.08	1955.81
358.29	1943.52
358.51	1832.93
358.72	1923.04
358.94	1951.71
359.16	1863.65
359.37	1900.52
359.59	1931.23
359.80	1935.33
360.02	1920.99
360.23	1980.39
360.45	1970.15
360.66	1941.47
360.88	1880.04
361.09	1984.48
361.31	2025.44
361.52	1947.62
361.74	2086.88
361.95	2064.35
362.17	1900.52
362.38	2097.12
362.60	2000.87
362.81	1945.57
363.03	1923.04
363.24	2021.35
363.46	2023.39
363.67	2002.91
363.89	1998.82
364.10	2043.87
364.32	2011.11
364.53	2086.88
364.75	1925.09
364.96	1929.19
365.18	2129.89
365.39	1970.15
365.61	2000.87
365.82	2142.18
366.04	2017.25
366.25	1914.85
366.47	2093.02
366.68	2043.87
366.90	1964.00
367.11	2056.16
367.33	2072.54
367.54	2105.31
367.76	2047.97
367.97	2002.91
368.19	2060.26
368.40	2146.27
368.62	2037.73
368.83	1949.67
369.05	2041.82
369.26	2023.39
369.48	2037.73
369.69	1968.10
369.91	2025.44
370.12	2133.98
370.33	2189.28
370.55	2054.11
370.76	2052.06
370.98	2176.99
371.19	2019.30
371.41	2039.78
371.62	2088.93
371.84	2052.06
372.05	2185.18
372.27	2076.64
372.48	2076.64
372.69	2054.11
372.91	2168.80
373.12	2150.37
373.34	2047.97
373.55	2123.74
373.77	2185.18
373.98	2062.30
374.20	2164.70
374.41	2263.01
374.62	2103.26
374.84	2136.03
375.05	2160.61
375.27	2168.80
375.48	2199.52
375.70	2113.50
375.91	2199.52
376.12	2258.91
376.34	2189.28
376.55	2244.57
376.77	2248.67
376.98	2133.98
377.19	2191.33
377.41	2207.71
377.62	2203.61
377.84	2234.33
378.05	2328.54
378.27	2232.29
378.48	2281.44
378.69	2336.73
378.91	2334.68
379.12	2349.02
379.34	2176.99
379.55	2308.06
379.76	2217.95
379.98	2260.96
380.19	2316.25
380.41	2318.30
380.62	2246.62
380.83	2263.01
381.05	2174.94
381.26	2465.75
381.47	2238.43
381.69	2240.48
381.90	2525.15
382.12	2291.68
382.33	2351.07
382.54	2306.01
382.76	2330.59
382.97	2316.25
383.19	2230.24
383.40	2426.84
383.61	2369.50
383.83	2277.34
384.04	2353.12
384.25	2310.11
384.47	2430.94
384.68	2404.32
384.89	2414.56
385.11	2336.73
385.32	2389.98
385.54	2404.32
385.75	2344.92
385.96	2480.09
386.18	2478.04
386.39	2480.09
386.60	2379.74
386.82	2451.42
387.03	2355.16
387.24	2445.27
387.46	2396.12
387.67	2475.99
387.88	2633.69
388.10	2519.00
388.31	2461.66
388.52	2605.02
388.74	2535.39
388.95	2455.51
389.16	2578.39
389.38	2430.94
389.59	2566.10
389.80	2635.74
390.02	2557.91
390.23	2711.51
390.44	2600.92
390.66	2521.05
390.87	2492.38
391.08	2609.11
391.30	2715.61
391.51	2639.83
391.72	2625.50
391.94	2584.54
392.15	2574.30
392.36	2615.26
392.58	2564.06
392.79	2686.94
393.00	2670.55
393.22	2691.03
393.43	2744.28
393.64	2723.80
393.85	2818.00
394.07	2762.71
394.28	2713.56
394.49	2834.39
394.71	2752.47
394.92	2863.06
395.13	2699.22
395.35	2754.52
395.56	2697.17
395.77	2731.99
395.98	2764.76
396.20	2906.07
396.41	2822.10
396.62	2957.27
396.84	2928.60
397.05	2809.81
397.26	2916.31
397.47	2899.92
397.69	2852.82
397.90	3100.62
398.11	2944.98
398.32	2854.87
398.54	2924.50
398.75	3010.51
398.96	2987.99
399.18	3125.20
399.39	3028.95
399.60	3045.33
399.81	2985.94
400.03	3016.66
400.24	3323.85
400.45	2934.74
400.66	3096.53
400.88	3071.95
401.09	3276.75
401.30	3151.82
401.51	3262.41
401.73	3262.41
401.94	3069.91
402.15	3194.83
402.36	3155.92
402.58	3221.45
402.79	3270.61
403.00	3078.10
403.21	3311.57
403.43	3278.80
403.64	3334.09
403.85	3184.59
404.06	3375.05
404.27	3092.43
404.49	3217.36
404.70	3213.26
404.91	3346.38
405.12	3364.81
405.34	3389.39
405.55	3385.29
405.76	3391.44
405.97	3237.84
406.19	3516.36
406.40	3225.55
406.61	3381.20
406.82	3360.72
407.03	3389.39
407.25	3268.56
407.46	3377.10
407.67	3395.53
407.88	3456.97
408.09	3352.52
408.31	3413.96
408.52	3362.76
408.73	3473.36
408.94	3416.01
409.15	3444.68
409.37	3557.32
409.58	3633.10
409.79	3508.17
410.00	3624.90
410.21	3588.04
410.43	3499.98
410.64	3532.75
410.85	3526.60
411.06	3588.04
411.27	3743.69
411.48	3555.27
411.70	3665.86
411.91	3659.72
412.12	3657.67
412.33	3645.38
412.54	3686.34
412.76	3696.58
412.97	3747.78
413.18	3637.19
413.39	3702.73
413.60	3643.34
413.81	3719.11
414.03	3706.82
414.24	3672.01
414.45	3788.74
414.66	3622.86
414.87	3719.11
415.08	3708.87
415.30	3776.45
415.51	3844.04
415.72	3911.62
415.93	3827.65
416.14	3753.93
416.35	3893.19
416.56	3897.28
416.78	3817.41
416.99	3872.71
417.20	3893.19
417.41	3944.39
417.62	3911.62
417.83	4046.79
418.04	4034.50
418.26	3917.76
418.47	3919.81
418.68	3991.49
418.89	4050.88
419.10	4237.25
419.31	4050.88
419.52	4052.93
419.73	4108.23
419.95	4106.18
420.16	4063.17
420.37	4095.94
420.58	4130.75
420.79	3868.61
421.00	4140.99
421.21	4255.68
421.42	4190.14
421.63	4120.51
421.85	4177.86
422.06	4239.30
422.27	4159.42
422.48	4247.49
422.69	4294.59
422.90	4300.73
423.11	4411.32
423.32	4366.27
423.53	4556.73
423.75	4247.49
423.96	4442.04
424.17	4437.95
424.38	4509.63
424.59	4456.38
424.80	4550.59
425.01	4558.78
425.22	4427.71
425.43	4491.20
425.64	4640.70
425.85	4732.86
426.06	4485.05
426.28	4665.27
426.49	4507.58
426.70	4601.79
426.91	4544.44
427.12	4618.17
427.33	4667.32
427.54	4710.33
427.75	4739.00
427.96	4825.01
428.17	4681.66
428.38	4906.93
428.59	4951.99
428.80	4843.45
429.01	4984.76
429.23	4874.17
429.44	5062.58
429.65	4960.18
429.86	4966.32
430.07	5005.24
430.28	4915.12
430.49	4933.56
430.70	5054.39
430.91	5115.83
431.12	4845.49
431.33	5140.40
431.54	5179.31
431.75	5150.64
431.96	5218.22
432.17	5130.16
432.38	5195.70
432.59	5394.35
432.80	5423.02
433.01	5402.54
433.22	5373.87
433.43	5318.57
433.64	5246.90
433.85	5271.47
434.06	5484.46
434.27	5441.45
434.49	5463.98
434.70	5724.07
434.91	5414.83
435.12	5541.80
435.33	5593.00
435.54	5550.00
435.75	5461.93
435.96	5531.56
436.17	5416.88
436.38	5648.30
436.59	5783.46
436.80	5550.00
437.01	5812.14
437.22	5949.35
437.43	5758.89
437.64	5640.11
437.85	5762.98
438.06	5869.48
438.27	5713.83
438.48	5756.84
438.69	5949.35
438.90	5910.44
439.11	5846.95
439.32	6021.03
439.53	6090.66
439.74	6064.04
439.95	6016.93
440.16	6018.98
440.37	6039.46
440.57	5908.39
440.78	6231.97
440.99	6254.50
441.20	6125.47
441.41	5965.73
441.62	6205.35
441.83	6055.84
442.04	6258.59
442.25	6244.26
442.46	6117.28
442.67	6424.48
442.88	6690.71
443.09	6109.09
443.30	6274.98
443.51	6340.51
443.72	6549.40
443.93	6338.46
444.14	6565.79
444.35	6262.69
444.56	6434.72
444.77	6434.72
444.98	6438.81
445.19	6551.45
445.40	6504.35
445.61	6420.38
445.81	6700.95
446.02	6709.15
446.23	6659.99
446.44	6639.51
446.65	6705.05
446.86	6750.10
447.07	6741.91
447.28	6778.78
447.49	6928.28
447.70	6772.63
447.91	6821.78
448.12	6743.96
448.33	7016.34
448.54	6905.75
448.74	6856.60
448.95	7141.27
449.16	6846.36
449.37	7085.97
449.58	6959.00
449.79	6975.38
450.00	6922.13
450.21	7102.36
450.42	7286.67
450.63	7247.76
450.84	7229.33
451.05	7057.30
451.25	7122.84
451.46	7040.92
451.67	7258.00
451.88	7374.74
452.09	7397.26
452.30	7368.59
452.51	7128.98
452.72	7303.06
452.93	7747.47
453.13	7405.46
453.34	7468.94
453.55	7339.92
453.76	7456.65
453.97	7708.55
454.18	7683.98
454.39	7622.54
454.60	7735.18
454.81	7765.90
455.01	7839.62
455.22	7600.01
455.43	7919.50
455.64	7991.17
455.85	8054.66
456.06	8200.07
456.27	7942.02
456.48	7921.54
456.68	7884.68
456.89	8116.10
457.10	8091.52
457.31	8048.52
457.52	8109.96
457.73	8245.12
457.94	8179.59
458.14	8052.61
458.35	8509.31
458.56	8288.13
458.77	8212.35
458.98	8482.69
459.19	8333.18
459.39	8605.56
459.60	8630.14
459.81	8460.16
460.02	8736.63
460.23	8742.78
460.44	8738.68
460.65	8867.70
460.85	8861.56
461.06	8882.04
461.27	8603.52
461.48	8949.62
461.69	9056.12
461.89	8628.09
462.10	8957.82
462.31	8753.02
462.52	8945.53
462.73	9072.50
462.94	9467.76
463.14	9181.04
463.35	9080.69
463.56	9686.89
463.77	9377.65
463.98	9189.24
464.18	9226.10
464.39	9541.49
464.60	9645.93
464.81	9633.64
465.02	9455.47
465.23	9647.98
465.43	9840.49
465.64	9985.90
465.85	9949.03
466.06	9690.99
466.27	10233.70
466.47	9973.61
466.68	10080.10
466.89	10137.45
467.10	9934.70
467.30	9744.24
467.51	10442.59
467.72	10297.19
467.93	10014.57
468.14	10309.47
468.34	10461.02
468.55	10479.46
468.76	10555.23
468.97	10438.50
469.17	10706.78
469.38	10792.80
469.59	11079.51
469.80	10729.31
470.01	10995.54
470.21	10878.81
470.42	11075.42
470.63	11269.97
470.84	11102.04
471.04	11186.01
471.25	11302.74
471.46	11423.57
471.67	11515.73
471.87	11534.16
472.08	11605.84
472.29	11851.60
472.50	11597.65
472.70	11712.33
472.91	11730.76
473.12	11978.57
473.33	12050.25
473.53	12322.63
473.74	12224.33
473.95	12300.10
474.16	12367.68
474.36	12363.59
474.57	12717.89
474.78	12853.05
474.99	12660.54
475.19	12498.75
475.40	12969.79
475.61	13080.38
475.81	13137.72
476.02	13252.41
476.23	13096.76
476.44	13440.82
476.64	13299.51
476.85	13582.13
477.06	13653.81
477.27	13872.94
477.47	13926.19
477.68	13682.48
477.89	14241.57
478.09	14085.93
478.30	14085.93
478.51	14298.92
478.71	14317.35
478.92	14450.47
479.13	14481.19
479.34	14898.97
479.54	14874.40
479.75	14749.47
479.96	14696.22
480.16	15066.91
480.37	15099.67
480.58	15329.05
480.78	15367.96
480.99	15558.42
481.20	15699.73
481.41	15546.13
481.61	15691.54
481.82	15957.77
482.03	15714.06
482.23	16084.75
482.44	16393.99
482.65	16307.98
482.85	16295.69
483.06	16242.44
483.27	16729.86
483.47	16717.57
483.68	16606.98
483.89	16912.13
484.09	16903.93
484.30	16944.89
484.51	17243.90
484.71	17055.48
484.92	17372.92
485.13	17493.75
485.33	17696.50
485.54	17569.52
485.75	17780.46
485.95	17719.03
486.16	17997.55
486.37	18130.67
486.57	18192.11
486.78	17934.06
486.98	18126.57
487.19	18446.05
487.40	18659.04
487.60	18333.42
487.81	18792.16
488.02	18669.28
488.22	18712.29
488.43	18972.38
488.64	18966.24
488.84	18978.53
489.05	19334.87
489.25	19441.37
489.46	19486.42
489.67	19547.86
489.87	19781.33
490.08	19791.57
490.29	19941.07
490.49	20078.29
490.70	20123.34
490.90	20215.50
491.11	20125.39
491.32	20139.72
491.52	20414.15
491.73	20301.51
491.94	20557.51
492.14	20319.95
492.35	20944.58
492.55	21051.07
492.76	21020.35
492.97	21102.27
493.17	21262.01
493.38	21180.09
493.58	21718.71
493.79	21558.97
494.00	21597.88
494.20	21235.39
494.41	21542.58
494.61	21757.62
494.82	22013.62
495.02	21640.89
495.23	22017.71
495.44	22263.47
495.64	22421.16
495.85	22218.41
496.05	22480.55
496.26	22261.42
496.47	22490.79
496.67	22464.17
496.88	22910.63
497.08	22599.34
497.29	22937.25
497.49	22552.23
497.70	22961.83
497.91	23088.80
498.11	23283.36
498.32	23226.01
498.52	23154.33
498.73	23725.72
498.93	23406.23
499.14	23439.00
499.34	23555.74
499.55	23686.81
499.76	23553.69
499.96	23848.60
500.17	23709.33
500.37	23795.35
500.58	24067.73
500.78	24088.21
500.99	24168.08
501.19	24585.86
501.40	24278.67
501.60	23955.09
501.81	24430.22
502.02	24493.71
502.22	24360.59
502.43	24444.56
502.63	24805.00
502.84	24831.62
503.04	24385.16
503.25	24952.45
503.45	24911.49
503.66	24907.40
503.86	25083.52
504.07	25187.97
504.27	25048.71
504.48	25439.87
504.68	25450.11
504.89	25394.81
505.09	25390.72
505.30	25372.28
505.50	25417.34
505.71	25577.08
505.91	25298.56
506.12	25585.27
506.32	25534.07
506.53	25775.73
506.73	25532.03
506.94	26125.94
507.14	25796.21
507.35	25816.69
507.55	26025.59
507.76	25753.21
507.96	26097.27
508.17	26089.07
508.37	26320.49
508.58	25927.28
508.78	26226.29
508.99	26566.25
509.19	26218.10
509.40	26351.21
509.60	26451.56
509.81	26498.67
510.01	26404.46
510.22	26719.85
510.42	26664.55
510.63	26728.04
510.83	26658.41
511.04	26750.57
511.24	27094.63
511.44	26857.06
511.65	26873.45
511.85	26934.88
512.06	27065.96
512.26	27045.48
512.47	27115.11
512.67	27143.78
512.88	27133.54
513.08	26877.54
513.29	27493.98
513.49	27176.55
513.69	27252.32
513.90	27430.49
514.10	27625.05
514.31	27747.93
514.51	27508.32
514.72	27547.23
514.92	27668.06
515.13	27479.64
515.33	27676.25
515.53	27926.10
515.74	27870.81
515.94	27975.25
516.15	28063.32
516.35	27702.87
516.56	28005.97
516.76	27821.66
516.96	28134.99
517.17	28429.90
517.37	28261.97
517.58	28626.51
517.78	28276.30
517.99	28151.38
518.19	28550.73
518.39	28513.87
518.60	28649.03
518.80	28493.39
519.01	28636.75
519.21	28718.67
519.41	29017.67
519.62	28722.76
519.82	29322.82
520.03	29537.85
520.23	29464.13
520.43	28915.27
520.64	29470.27
520.84	29435.45
521.05	29412.93
521.25	29425.22
521.45	29836.86
521.66	29689.40
521.86	29417.02
522.07	29679.16
522.27	29892.15
522.47	29722.17
522.68	29961.78
522.88	29929.02
523.08	30244.40
523.29	29978.17
523.49	30234.16
523.70	30037.56
523.90	30535.21
524.10	30488.11
524.31	30807.59
524.51	30461.49
524.71	31188.52
524.92	30725.68
525.12	31039.01
525.33	30815.79
525.53	31141.41
525.73	31213.09
525.94	31122.98
526.14	31282.72
526.34	31516.19
526.55	31544.86
526.75	31749.66
526.95	31856.15
527.16	31774.24
527.36	31770.14
527.56	32099.86
527.77	31884.83
527.97	32161.30
528.17	31923.74
528.38	32601.61
528.58	32511.50
528.78	32439.82
528.99	32505.36
529.19	32683.53
529.39	32495.12
529.60	33054.22
529.80	32861.71
530.00	32884.23
530.21	33066.50
530.41	33125.89
530.61	33132.04
530.82	32804.36
531.02	33410.56
531.22	33570.30
531.43	33609.22
531.63	34248.18
531.83	34022.90
532.04	34178.55
532.24	34176.50
532.44	34110.97
532.64	34280.95
532.85	34635.25
533.05	34483.70
533.25	34801.13
533.46	34432.50
533.66	35200.49
533.86	34862.57
534.07	35343.84
534.27	35108.33
534.47	35163.62
534.67	35347.94
534.88	35472.87
535.08	35716.58
535.28	35790.30
535.49	35700.19
535.69	36019.67
535.89	36054.49
536.09	36031.96
536.30	36230.62
536.50	36128.22
536.70	36634.06
536.91	36574.67
537.11	36687.31
537.31	36656.59
537.51	36672.98
537.72	37184.97
537.92	37283.27
538.12	37588.42
538.32	37230.02
538.53	37494.21
538.73	36998.60
538.93	37559.75
539.13	37752.26
539.34	37569.99
539.54	37336.52
539.74	37834.17
539.94	37768.64
540.15	37955.00
540.35	38219.19
540.55	37998.01
540.75	38622.64
540.96	38448.57
541.16	38841.78
541.36	38798.77
541.56	38694.32
541.77	38999.47
541.97	38659.51
542.17	38897.07
542.37	38847.92
542.58	38940.08
542.78	38868.40
542.98	39261.61
543.18	39384.49
543.38	39835.04
543.59	39519.65
543.79	39476.65
543.99	39280.04
544.19	39871.90
544.40	39832.99
544.60	39830.94
544.80	39746.98
545.00	40244.63
545.20	39945.63
545.41	40236.44
545.61	40164.76
545.81	40459.67
546.01	40723.86
546.21	40553.88
546.42	40611.22
546.62	40600.98
546.82	40271.26
547.02	41311.63
547.22	40580.50
547.43	40881.55
547.63	40910.22
547.83	41129.36
548.03	40752.53
548.23	41239.95
548.44	41227.66
548.64	41084.30
548.84	41135.50
549.04	41659.78
549.24	41543.05
549.45	41809.28
549.65	41420.17
549.85	41567.62
550.05	41940.35
550.25	41663.88
550.45	42483.06
550.66	42030.46
550.86	41954.69
551.06	42276.22
551.26	42222.97
551.46	42603.89
551.66	42194.30
551.87	42126.72
552.07	42337.66
552.27	42136.96
552.47	42341.75
552.67	42513.78
552.87	42288.51
553.07	42632.57
553.28	42575.22
553.48	42728.82
553.68	42931.57
553.88	42978.67
554.08	42843.51
554.28	42906.99
554.48	42831.22
554.69	43136.37
554.89	42929.52
555.09	43343.21
555.29	43119.98
555.49	43554.15
555.69	43218.28
555.89	43496.81
556.10	43203.95
556.30	43318.64
556.50	43345.26
556.70	43052.40
556.90	43435.37
557.10	43265.39
557.30	43345.26
557.50	43937.12
557.70	43881.83
557.91	43722.08
558.11	43459.94
558.31	43933.03
558.51	43363.69
558.71	43154.80
558.91	43775.33
559.11	43564.39
559.31	43734.37
559.51	43787.62
559.72	43832.68
559.92	43744.61
560.12	44221.79
560.32	44031.33
560.52	44002.66
560.72	44193.12
560.92	44137.82
561.12	43930.98
561.32	44391.77
561.52	44186.97
561.72	44713.30
561.93	44422.49
562.13	44029.28
562.33	44326.24
562.53	44905.81
562.73	44305.76
562.93	44088.67
563.13	44768.60
563.33	44647.77
563.53	44715.35
563.73	44295.52
563.93	44774.74
564.13	44739.93
564.33	44160.35
564.53	44381.53
564.74	44737.88
564.94	44627.29
565.14	44524.89
565.34	44402.01
565.54	44533.08
565.74	44402.01
565.94	45151.57
566.14	44434.78
566.34	44717.40
566.54	45448.52
566.74	44504.41
566.94	44723.54
567.14	44944.72
567.34	44627.29
567.54	45065.55
567.74	45315.40
567.94	44584.28
568.14	44967.25
568.34	45407.56
568.54	44787.03
568.74	45081.94
568.94	44862.80
569.14	45141.33
569.34	45305.16
569.54	44905.81
569.75	44850.52
569.95	44957.01
570.15	45487.43
570.35	45397.32
570.55	45258.06
570.75	44922.19
570.95	45581.64
571.15	45579.59
571.35	45487.43
571.55	45684.04
571.75	45423.95
571.95	45647.18
572.15	45403.47
572.35	45477.19
572.55	45516.11
572.75	45274.45
572.95	45483.34
573.15	45944.13
573.35	45579.59
573.55	44922.19
573.75	45909.32
573.95	45847.88
574.15	45600.07
574.35	45770.05
574.55	45385.04
574.75	45585.74
574.95	45774.15
575.15	45972.80
575.34	45890.88
575.54	45991.23
575.74	46107.97
575.94	45907.27
576.14	46071.10
576.34	46173.50
576.54	46554.43
576.74	46269.76
576.94	46093.63
577.14	46366.01
577.34	46615.86
577.54	45870.40
577.74	46564.67
577.94	46155.07
578.14	46634.30
578.34	46970.16
578.54	46089.54
578.74	46540.09
578.94	46839.09
579.14	46155.07
579.34	46871.86
579.54	46980.40
579.74	46996.79
579.94	47033.65
580.13	47179.06
580.33	46849.33
580.53	46593.34
580.73	46878.00
580.93	46773.56
581.13	47181.10
581.33	47326.51
581.53	47543.59
581.73	47369.52
581.93	47504.68
582.13	47418.67
582.33	47400.24
582.53	47308.08
582.73	47502.64
582.92	47715.62
583.12	47895.85
583.32	47570.22
583.52	47617.32
583.72	48121.12
583.92	47498.54
584.12	48037.16
584.32	48160.03
584.52	47732.01
584.72	47750.44
584.92	48084.26
585.11	48092.45
585.31	48082.21
585.51	48164.13
585.71	47629.61
585.91	48387.36
586.11	48149.79
586.31	48319.77
586.51	48067.87
586.71	48039.20
586.91	48805.14
587.10	48657.69
587.30	48858.39
587.50	48647.45
587.70	48602.39
587.90	48794.90
588.10	48649.50
588.30	48923.93
588.50	49106.19
