SpectraSuite Data File
++++++++++++++++++++++++++++++++++++
Date: Fri Jun 02 14:52:22 CEST 2017
User: INFO_000
Dark Spectrum Present: No
Reference Spectrum Present: No
Number of Sampled Component Spectra: 1
Spectrometers: USB4H00879
Integration Time (usec): 80000 (USB4H00879)
Spectra Averaged: 1 (USB4H00879)
Boxcar Smoothing: 0 (USB4H00879)
Correct for Electrical Dark: No (USB4H00879)
Strobe/Lamp Enabled: No (USB4H00879)
Correct for Detector Non-linearity: No (USB4H00879)
Correct for Stray Light: No (USB4H00879)
Number of Pixels in Processed Spectrum: 3648
>>>>>Begin Processed Spectral Data<<<<<
345.13	1290.22
345.34	1290.22
345.56	1290.22
345.78	1273.84
345.99	1282.03
346.21	1755.11
346.42	1697.77
346.64	1642.47
346.86	1789.92
347.07	1691.62
347.29	1744.87
347.50	1634.28
347.72	1660.90
347.94	1785.83
348.15	1509.35
348.37	1691.62
348.59	1640.42
348.80	1654.76
349.02	1673.19
349.23	1789.92
349.45	1726.44
349.67	1841.12
349.88	1640.42
350.10	1789.92
350.31	1767.40
350.53	1640.42
350.75	1757.16
350.96	1675.24
351.18	1689.57
351.39	1681.38
351.61	1621.99
351.82	1732.58
352.04	1730.53
352.26	1658.85
352.47	1665.00
352.69	1757.16
352.90	1613.80
353.12	1720.29
353.34	1640.42
353.55	1728.49
353.77	1773.54
353.98	1673.19
354.20	1716.20
354.41	1691.62
354.63	1826.79
354.85	1875.94
355.06	1695.72
355.28	1605.61
355.49	1673.19
355.71	1699.81
355.92	1699.81
356.14	1740.77
356.35	1732.58
356.57	1687.53
356.79	1785.83
357.00	1695.72
357.22	1736.68
357.43	1613.80
357.65	1751.01
357.86	1755.11
358.08	1712.10
358.29	1736.68
358.51	1701.86
358.72	1685.48
358.94	1708.01
359.16	1710.05
359.37	1712.10
359.59	1783.78
359.80	1806.31
360.02	1638.38
360.23	1757.16
360.45	1791.97
360.66	1615.85
360.88	1667.05
361.09	1722.34
361.31	1703.91
361.52	1693.67
361.74	1791.97
361.95	1808.36
362.17	1720.29
362.38	1828.84
362.60	1699.81
362.81	1701.86
363.03	1671.14
363.24	1632.23
363.46	1789.92
363.67	1814.50
363.89	1687.53
364.10	1667.05
364.32	1685.48
364.53	1806.31
364.75	1624.04
364.96	1742.82
365.18	1726.44
365.39	1642.47
365.61	1636.33
365.82	1775.59
366.04	1685.48
366.25	1595.37
366.47	1787.88
366.68	1718.25
366.90	1660.90
367.11	1720.29
367.33	1769.44
367.54	1775.59
367.76	1656.81
367.97	1705.96
368.19	1712.10
368.40	1765.35
368.62	1630.18
368.83	1617.90
369.05	1712.10
369.26	1667.05
369.48	1642.47
369.69	1701.86
369.91	1710.05
370.12	1662.95
370.33	1791.97
370.55	1720.29
370.76	1726.44
370.98	1732.58
371.19	1697.77
371.41	1679.33
371.62	1730.53
371.84	1636.33
372.05	1806.31
372.27	1753.06
372.48	1746.92
372.69	1777.64
372.91	1689.57
373.12	1691.62
373.34	1626.09
373.55	1726.44
373.77	1724.39
373.98	1667.05
374.20	1742.82
374.41	1816.55
374.62	1646.57
374.84	1728.49
375.05	1646.57
375.27	1705.96
375.48	1648.61
375.70	1796.07
375.91	1753.06
376.12	1794.02
376.34	1669.09
376.55	1658.85
376.77	1718.25
376.98	1662.95
377.19	1650.66
377.41	1683.43
377.62	1710.05
377.84	1806.31
378.05	1748.97
378.27	1687.53
378.48	1804.26
378.69	1906.66
378.91	1755.11
379.12	1683.43
379.34	1712.10
379.55	1740.77
379.76	1720.29
379.98	1744.87
380.19	1679.33
380.41	1630.18
380.62	1703.91
380.83	1646.57
381.05	1687.53
381.26	1779.68
381.47	1662.95
381.69	1658.85
381.90	1767.40
382.12	1740.77
382.33	1746.92
382.54	1626.09
382.76	1720.29
382.97	1755.11
383.19	1621.99
383.40	1665.00
383.61	1650.66
383.83	1642.47
384.04	1619.94
384.25	1675.24
384.47	1679.33
384.68	1722.34
384.89	1662.95
385.11	1630.18
385.32	1681.38
385.54	1679.33
385.75	1660.90
385.96	1753.06
386.18	1712.10
386.39	1714.15
386.60	1689.57
386.82	1728.49
387.03	1621.99
387.24	1716.20
387.46	1703.91
387.67	1748.97
387.88	1714.15
388.10	1660.90
388.31	1652.71
388.52	1771.49
388.74	1728.49
388.95	1689.57
389.16	1699.81
389.38	1609.70
389.59	1748.97
389.80	1787.88
390.02	1732.58
390.23	1753.06
390.44	1634.28
390.66	1703.91
390.87	1601.51
391.08	1734.63
391.30	1769.44
391.51	1798.12
391.72	1683.43
391.94	1708.01
392.15	1691.62
392.36	1695.72
392.58	1621.99
392.79	1724.39
393.00	1767.40
393.22	1771.49
393.43	1705.96
393.64	1734.63
393.85	1687.53
394.07	1654.76
394.28	1695.72
394.49	1687.53
394.71	1699.81
394.92	1802.21
395.13	1615.85
395.35	1636.33
395.56	1617.90
395.77	1771.49
395.98	1697.77
396.20	1824.74
396.41	1699.81
396.62	1693.67
396.84	1662.95
397.05	1730.53
397.26	1742.82
397.47	1724.39
397.69	1626.09
397.90	1877.99
398.11	1787.88
398.32	1675.24
398.54	1613.80
398.75	1699.81
398.96	1691.62
399.18	1785.83
399.39	1671.14
399.60	1691.62
399.81	1730.53
400.03	1589.22
400.24	2000.87
400.45	1671.14
400.66	1685.48
400.88	1632.23
401.09	1800.16
401.30	1679.33
401.51	1814.50
401.73	1681.38
401.94	1785.83
402.15	1665.00
402.36	1712.10
402.58	1742.82
402.79	1740.77
403.00	1662.95
403.21	1755.11
403.43	1761.25
403.64	1740.77
403.85	1689.57
404.06	1843.17
404.27	1601.51
404.49	1710.05
404.70	1683.43
404.91	1683.43
405.12	1705.96
405.34	1757.16
405.55	1806.31
405.76	1648.61
405.97	1646.57
406.19	1789.92
406.40	1626.09
406.61	1710.05
406.82	1712.10
407.03	1691.62
407.25	1667.05
407.46	1828.84
407.67	1722.34
407.88	1748.97
408.09	1669.09
408.31	1679.33
408.52	1673.19
408.73	1615.85
408.94	1642.47
409.15	1761.25
409.37	1699.81
409.58	1751.01
409.79	1726.44
410.00	1812.45
410.21	1687.53
410.43	1722.34
410.64	1753.06
410.85	1785.83
411.06	1724.39
411.27	1785.83
411.48	1820.64
411.70	1742.82
411.91	1646.57
412.12	1765.35
412.33	1748.97
412.54	1722.34
412.76	1748.97
412.97	1880.04
413.18	1681.38
413.39	1722.34
413.60	1673.19
413.81	1685.48
414.03	1617.90
414.24	1634.28
414.45	1800.16
414.66	1646.57
414.87	1720.29
415.08	1611.75
415.30	1712.10
415.51	1732.58
415.72	1683.43
415.93	1728.49
416.14	1794.02
416.35	1773.54
416.56	1701.86
416.78	1677.29
416.99	1687.53
417.20	1783.78
417.41	1748.97
417.62	1705.96
417.83	1748.97
418.04	1626.09
418.26	1654.76
418.47	1679.33
418.68	1724.39
418.89	1748.97
419.10	1785.83
419.31	1681.38
419.52	1755.11
419.73	1671.14
419.95	1769.44
420.16	1687.53
420.37	1685.48
420.58	1757.16
420.79	1558.50
421.00	1593.32
421.21	1722.34
421.42	1644.52
421.63	1769.44
421.85	1648.61
422.06	1599.46
422.27	1615.85
422.48	1671.14
422.69	1671.14
422.90	1601.51
423.11	1628.14
423.32	1779.68
423.53	1740.77
423.75	1669.09
423.96	1751.01
424.17	1777.64
424.38	1771.49
424.59	1646.57
424.80	1671.14
425.01	1744.87
425.22	1564.65
425.43	1732.58
425.64	1710.05
425.85	1716.20
426.06	1779.68
426.28	1720.29
426.49	1624.04
426.70	1611.75
426.91	1722.34
427.12	1761.25
427.33	1636.33
427.54	1695.72
427.75	1722.34
427.96	1757.16
428.17	1781.73
428.38	1669.09
428.59	1810.40
428.80	1685.48
429.01	1697.77
429.23	1669.09
429.44	1609.70
429.65	1771.49
429.86	1712.10
430.07	1716.20
430.28	1648.61
430.49	1728.49
430.70	1734.63
430.91	1845.22
431.12	1642.47
431.33	1712.10
431.54	1839.08
431.75	1681.38
431.96	1710.05
432.17	1757.16
432.38	1732.58
432.59	1804.26
432.80	1830.88
433.01	1716.20
433.22	1646.57
433.43	1705.96
433.64	1714.15
433.85	1759.21
434.06	1648.61
434.27	1621.99
434.49	1671.14
434.70	1675.24
434.91	1759.21
435.12	1640.42
435.33	1757.16
435.54	1695.72
435.75	1630.18
435.96	1656.81
436.17	1654.76
436.38	1705.96
436.59	1710.05
436.80	1685.48
437.01	1802.21
437.22	1781.73
437.43	1650.66
437.64	1617.90
437.85	1679.33
438.06	1791.97
438.27	1681.38
438.48	1689.57
438.69	1724.39
438.90	1656.81
439.11	1679.33
439.32	1828.84
439.53	1648.61
439.74	1662.95
439.95	1669.09
440.16	1650.66
440.37	1687.53
440.57	1632.23
440.78	1685.48
440.99	1712.10
441.20	1697.77
441.41	1554.41
441.62	1621.99
441.83	1677.29
442.04	1589.22
442.25	1728.49
442.46	1613.80
442.67	1626.09
442.88	1892.32
443.09	1724.39
443.30	1675.24
443.51	1675.24
443.72	1789.92
443.93	1689.57
444.14	1753.06
444.35	1699.81
444.56	1718.25
444.77	1646.57
444.98	1716.20
445.19	1675.24
445.40	1675.24
445.61	1568.74
445.81	1675.24
446.02	1785.83
446.23	1683.43
446.44	1599.46
446.65	1654.76
446.86	1742.82
447.07	1802.21
447.28	1703.91
447.49	1755.11
447.70	1679.33
447.91	1710.05
448.12	1693.67
448.33	1726.44
448.54	1595.37
448.74	1652.71
448.95	1624.04
449.16	1701.86
449.37	1708.01
449.58	1695.72
449.79	1710.05
450.00	1740.77
450.21	1712.10
450.42	1732.58
450.63	1650.66
450.84	1621.99
451.05	1771.49
451.25	1646.57
451.46	1708.01
451.67	1796.07
451.88	1732.58
452.09	1753.06
452.30	1626.09
452.51	1716.20
452.72	1724.39
452.93	1828.84
453.13	1644.52
453.34	1710.05
453.55	1656.81
453.76	1683.43
453.97	1570.79
454.18	1648.61
454.39	1740.77
454.60	1708.01
454.81	1763.30
455.01	1699.81
455.22	1597.42
455.43	1718.25
455.64	1691.62
455.85	1677.29
456.06	1763.30
456.27	1765.35
456.48	1589.22
456.68	1718.25
456.89	1708.01
457.10	1662.95
457.31	1687.53
457.52	1746.92
457.73	1705.96
457.94	1734.63
458.14	1562.60
458.35	1759.21
458.56	1644.52
458.77	1732.58
458.98	1630.18
459.19	1710.05
459.39	1708.01
459.60	1724.39
459.81	1640.42
460.02	1632.23
460.23	1656.81
460.44	1646.57
460.65	1646.57
460.85	1638.38
461.06	1595.37
461.27	1705.96
461.48	1621.99
461.69	1624.04
461.89	1609.70
462.10	1687.53
462.31	1642.47
462.52	1646.57
462.73	1667.05
462.94	1685.48
463.14	1679.33
463.35	1683.43
463.56	1814.50
463.77	1710.05
463.98	1638.38
464.18	1665.00
464.39	1638.38
464.60	1773.54
464.81	1585.13
465.02	1716.20
465.23	1691.62
465.43	1744.87
465.64	1675.24
465.85	1642.47
466.06	1689.57
466.27	1689.57
466.47	1693.67
466.68	1812.45
466.89	1619.94
467.10	1574.89
467.30	1716.20
467.51	1714.15
467.72	1658.85
467.93	1605.61
468.14	1761.25
468.34	1722.34
468.55	1658.85
468.76	1796.07
468.97	1710.05
469.17	1822.69
469.38	1849.32
469.59	1724.39
469.80	1798.12
470.01	1697.77
470.21	1601.51
470.42	1716.20
470.63	1730.53
470.84	1888.23
471.04	1708.01
471.25	1839.08
471.46	1742.82
471.67	1775.59
471.87	1607.66
472.08	1648.61
472.29	1714.15
472.50	1751.01
472.70	1716.20
472.91	1564.65
473.12	1589.22
473.33	1650.66
473.53	1691.62
473.74	1609.70
473.95	1716.20
474.16	1589.22
474.36	1736.68
474.57	1736.68
474.78	1683.43
474.99	1845.22
475.19	1703.91
475.40	1667.05
475.61	1714.15
475.81	1748.97
476.02	1642.47
476.23	1716.20
476.44	1675.24
476.64	1648.61
476.85	1673.19
477.06	1644.52
477.27	1679.33
477.47	1808.36
477.68	1679.33
477.89	1685.48
478.09	1781.73
478.30	1691.62
478.51	1652.71
478.71	1671.14
478.92	1695.72
479.13	1691.62
479.34	1654.76
479.54	1789.92
479.75	1640.42
479.96	1748.97
480.16	1683.43
480.37	1638.38
480.58	1732.58
480.78	1806.31
480.99	1607.66
481.20	1673.19
481.41	1755.11
481.61	1726.44
481.82	1816.55
482.03	1667.05
482.23	1703.91
482.44	1720.29
482.65	1828.84
482.85	1794.02
483.06	1712.10
483.27	1701.86
483.47	1771.49
483.68	1679.33
483.89	1595.37
484.09	1798.12
484.30	1738.73
484.51	1814.50
484.71	1589.22
484.92	1624.04
485.13	1697.77
485.33	1744.87
485.54	1669.09
485.75	1738.73
485.95	1757.16
486.16	1726.44
486.37	1708.01
486.57	1593.32
486.78	1712.10
486.98	1665.00
487.19	1648.61
487.40	1816.55
487.60	1722.34
487.81	1605.61
488.02	1611.75
488.22	1699.81
488.43	1773.54
488.64	1619.94
488.84	1617.90
489.05	1781.73
489.25	1712.10
489.46	1738.73
489.67	1636.33
489.87	1718.25
490.08	1767.40
490.29	1628.14
490.49	1773.54
490.70	1765.35
490.90	1699.81
491.11	1695.72
491.32	1699.81
491.52	1630.18
491.73	1726.44
491.94	1730.53
492.14	1724.39
492.35	1646.57
492.55	1767.40
492.76	1621.99
492.97	1609.70
493.17	1705.96
493.38	1826.79
493.58	1781.73
493.79	1738.73
494.00	1687.53
494.20	1605.61
494.41	1732.58
494.61	1753.06
494.82	1708.01
495.02	1621.99
495.23	1748.97
495.44	1689.57
495.64	1751.01
495.85	1634.28
496.05	1732.58
496.26	1720.29
496.47	1628.14
496.67	1699.81
496.88	1798.12
497.08	1677.29
497.29	1693.67
497.49	1822.69
497.70	1675.24
497.91	1638.38
498.11	1810.40
498.32	1615.85
498.52	1761.25
498.73	1691.62
498.93	1785.83
499.14	1771.49
499.34	1753.06
499.55	1748.97
499.76	1644.52
499.96	1744.87
500.17	1632.23
500.37	1748.97
500.58	1710.05
500.78	1718.25
500.99	1648.61
501.19	1642.47
501.40	1757.16
501.60	1566.70
501.81	1671.14
502.02	1710.05
502.22	1722.34
502.43	1732.58
502.63	1861.60
502.84	1765.35
503.04	1775.59
503.25	1656.81
503.45	1685.48
503.66	1601.51
503.86	1687.53
504.07	1773.54
504.27	1624.04
504.48	1677.29
504.68	1646.57
504.89	1777.64
505.09	1642.47
505.30	1681.38
505.50	1654.76
505.71	1695.72
505.91	1699.81
506.12	1703.91
506.32	1730.53
506.53	1576.94
506.73	1716.20
506.94	1687.53
507.14	1683.43
507.35	1730.53
507.55	1560.55
507.76	1718.25
507.96	1654.76
508.17	1763.30
508.37	1630.18
508.58	1751.01
508.78	1742.82
508.99	1841.12
509.19	1785.83
509.40	1677.29
509.60	1585.13
509.81	1738.73
510.01	1699.81
510.22	1689.57
510.42	1779.68
510.63	1759.21
510.83	1669.09
511.04	1703.91
511.24	1708.01
511.44	1718.25
511.65	1681.38
511.85	1734.63
512.06	1761.25
512.26	1718.25
512.47	1773.54
512.67	1642.47
512.88	1773.54
513.08	1687.53
513.29	1742.82
513.49	1626.09
513.69	1742.82
513.90	1642.47
514.10	1816.55
514.31	1687.53
514.51	1712.10
514.72	1767.40
514.92	1748.97
515.13	1802.21
515.33	1634.28
515.53	1644.52
515.74	1705.96
515.94	1654.76
516.15	1783.78
516.35	1638.38
516.56	1599.46
516.76	1654.76
516.96	1624.04
517.17	1730.53
517.37	1705.96
517.58	1597.42
517.78	1673.19
517.99	1712.10
518.19	1855.46
518.39	1810.40
518.60	1806.31
518.80	1583.08
519.01	1757.16
519.21	1716.20
519.41	1751.01
519.62	1626.09
519.82	1765.35
520.03	1763.30
520.23	1730.53
520.43	1634.28
520.64	1751.01
520.84	1863.65
521.05	1650.66
521.25	1716.20
521.45	1703.91
521.66	1691.62
521.86	1712.10
522.07	1705.96
522.27	1693.67
522.47	1660.90
522.68	1683.43
522.88	1667.05
523.08	1806.31
523.29	1660.90
523.49	1679.33
523.70	1634.28
523.90	1679.33
524.10	1673.19
524.31	1673.19
524.51	1624.04
524.71	1789.92
524.92	1732.58
525.12	1605.61
525.33	1650.66
525.53	1759.21
525.73	1746.92
525.94	1591.27
526.14	1630.18
526.34	1740.77
526.55	1673.19
526.75	1691.62
526.95	1757.16
527.16	1650.66
527.36	1697.77
527.56	1730.53
527.77	1640.42
527.97	1705.96
528.17	1753.06
528.38	1722.34
528.58	1722.34
528.78	1673.19
528.99	1658.85
529.19	1718.25
529.39	1634.28
529.60	1605.61
529.80	1677.29
530.00	1652.71
530.21	1689.57
530.41	1769.44
530.61	1722.34
530.82	1689.57
531.02	1722.34
531.22	1716.20
531.43	1648.61
531.63	1708.01
531.83	1757.16
532.04	1714.15
532.24	1697.77
532.44	1740.77
532.64	1730.53
532.85	1681.38
533.05	1636.33
533.25	1621.99
533.46	1763.30
533.66	1769.44
533.86	1585.13
534.07	1763.30
534.27	1687.53
534.47	1753.06
534.67	1679.33
534.88	1658.85
535.08	1751.01
535.28	1761.25
535.49	1585.13
535.69	1736.68
535.89	1732.58
536.09	1648.61
536.30	1695.72
536.50	1669.09
536.70	1794.02
536.91	1720.29
537.11	1693.67
537.31	1681.38
537.51	1699.81
537.72	1732.58
537.92	1775.59
538.12	1755.11
538.32	1722.34
538.53	1712.10
538.73	1656.81
538.93	1673.19
539.13	1662.95
539.34	1732.58
539.54	1550.31
539.74	1753.06
539.94	1685.48
540.15	1769.44
540.35	1742.82
540.55	1617.90
540.75	1597.42
540.96	1683.43
541.16	1677.29
541.36	1617.90
541.56	1710.05
541.77	1816.55
541.97	1722.34
542.17	1632.23
542.37	1828.84
542.58	1712.10
542.78	1662.95
542.98	1681.38
543.18	1646.57
543.38	1728.49
543.59	1662.95
543.79	1671.14
543.99	1705.96
544.19	1656.81
544.40	1718.25
544.60	1626.09
544.80	1685.48
545.00	1642.47
545.20	1703.91
545.41	1613.80
545.61	1679.33
545.81	1689.57
546.01	1665.00
546.21	1693.67
546.42	1734.63
546.62	1763.30
546.82	1617.90
547.02	1705.96
547.22	1683.43
547.43	1783.78
547.63	1716.20
547.83	1617.90
548.03	1634.28
548.23	1728.49
548.44	1656.81
548.64	1693.67
548.84	1757.16
549.04	1638.38
549.24	1794.02
549.45	1830.88
549.65	1722.34
549.85	1724.39
550.05	1753.06
550.25	1585.13
550.45	1814.50
550.66	1716.20
550.86	1656.81
551.06	1621.99
551.26	1646.57
551.46	1691.62
551.66	1650.66
551.87	1773.54
552.07	1720.29
552.27	1646.57
552.47	1687.53
552.67	1642.47
552.87	1722.34
553.07	1644.52
553.28	1730.53
553.48	1708.01
553.68	1658.85
553.88	1751.01
554.08	1654.76
554.28	1630.18
554.48	1675.24
554.69	1681.38
554.89	1798.12
555.09	1615.85
555.29	1626.09
555.49	1685.48
555.69	1701.86
555.89	1738.73
556.10	1654.76
556.30	1609.70
556.50	1705.96
556.70	1695.72
556.90	1677.29
557.10	1712.10
557.30	1708.01
557.50	1621.99
557.70	1613.80
557.91	1669.09
558.11	1669.09
558.31	1705.96
558.51	1746.92
558.71	1671.14
558.91	1742.82
559.11	1687.53
559.31	1585.13
559.51	1636.33
559.72	1705.96
559.92	1716.20
560.12	1660.90
560.32	1705.96
560.52	1761.25
560.72	1675.24
560.92	1753.06
561.12	1703.91
561.32	1736.68
561.52	1708.01
561.72	1820.64
561.93	1746.92
562.13	1701.86
562.33	1656.81
562.53	1732.58
562.73	1705.96
562.93	1669.09
563.13	1751.01
563.33	1740.77
563.53	1789.92
563.73	1734.63
563.93	1863.65
564.13	1728.49
564.33	1730.53
564.53	1724.39
564.74	1671.14
564.94	1748.97
565.14	1697.77
565.34	1757.16
565.54	1679.33
565.74	1636.33
565.94	1667.05
566.14	1673.19
566.34	1728.49
566.54	1679.33
566.74	1740.77
566.94	1736.68
567.14	1673.19
567.34	1716.20
567.54	1699.81
567.74	1673.19
567.94	1671.14
568.14	1640.42
568.34	1820.64
568.54	1720.29
568.74	1699.81
568.94	1701.86
569.14	1771.49
569.34	1705.96
569.54	1609.70
569.75	1679.33
569.95	1763.30
570.15	1773.54
570.35	1644.52
570.55	1636.33
570.75	1738.73
570.95	1701.86
571.15	1753.06
571.35	1732.58
571.55	1654.76
571.75	1683.43
571.95	1650.66
572.15	1662.95
572.35	1693.67
572.55	1714.15
572.75	1689.57
572.95	1675.24
573.15	1652.71
573.35	1728.49
573.55	1714.15
573.75	1710.05
573.95	1884.13
574.15	1712.10
574.35	1646.57
574.55	1613.80
574.75	1673.19
574.95	1699.81
575.15	1695.72
575.34	1703.91
575.54	1732.58
575.74	1619.94
575.94	1722.34
576.14	1667.05
576.34	1662.95
576.54	1667.05
576.74	1738.73
576.94	1595.37
577.14	1689.57
577.34	1722.34
577.54	1644.52
577.74	1697.77
577.94	1695.72
578.14	1652.71
578.34	1740.77
578.54	1673.19
578.74	1726.44
578.94	1699.81
579.14	1712.10
579.34	1607.66
579.54	1722.34
579.74	1667.05
579.94	1699.81
580.13	1798.12
580.33	1640.42
580.53	1662.95
580.73	1667.05
580.93	1681.38
581.13	1648.61
581.33	1732.58
581.53	1601.51
581.73	1691.62
581.93	1665.00
582.13	1773.54
582.33	1691.62
582.53	1607.66
582.73	1744.87
582.92	1648.61
583.12	1734.63
583.32	1581.03
583.52	1660.90
583.72	1765.35
583.92	1703.91
584.12	1685.48
584.32	1712.10
584.52	1581.03
584.72	1640.42
584.92	1695.72
585.11	1730.53
585.31	1742.82
585.51	1630.18
585.71	1753.06
585.91	1757.16
586.11	1732.58
586.31	1722.34
586.51	1675.24
586.71	1710.05
586.91	1755.11
587.10	1755.11
587.30	1751.01
587.50	1746.92
587.70	1581.03
587.90	1718.25
588.10	1611.75
588.30	1708.01
588.50	1646.57
588.69	1642.47
588.89	1650.66
589.09	1716.20
589.29	1671.14
589.49	1683.43
589.69	1714.15
589.89	1665.00
590.08	1673.19
590.28	1726.44
590.48	1783.78
590.68	1685.48
590.88	1722.34
591.08	1722.34
591.28	1677.29
591.47	1701.86
591.67	1585.13
591.87	1701.86
592.07	1828.84
592.27	1556.46
592.47	1613.80
592.67	1861.60
592.86	1679.33
593.06	1689.57
593.26	1712.10
593.46	1722.34
593.66	1550.31
593.86	1695.72
594.05	1773.54
594.25	1607.66
594.45	1636.33
594.65	1800.16
594.85	1718.25
595.05	1679.33
595.24	1644.52
595.44	1708.01
595.64	1601.51
595.84	1718.25
596.04	1697.77
