SpectraSuite Data File
++++++++++++++++++++++++++++++++++++
Date: Fri Jun 02 14:52:29 CEST 2017
User: INFO_000
Dark Spectrum Present: No
Reference Spectrum Present: No
Number of Sampled Component Spectra: 1
Spectrometers: USB4H00879
Integration Time (usec): 80000 (USB4H00879)
Spectra Averaged: 1 (USB4H00879)
Boxcar Smoothing: 0 (USB4H00879)
Correct for Electrical Dark: No (USB4H00879)
Strobe/Lamp Enabled: No (USB4H00879)
Correct for Detector Non-linearity: No (USB4H00879)
Correct for Stray Light: No (USB4H00879)
Number of Pixels in Processed Spectrum: 3648
>>>>>Begin Processed Spectral Data<<<<<
345.13	1241.07
345.34	1241.07
345.56	1241.07
345.78	1200.11
345.99	1290.22
346.21	1673.19
346.42	1722.34
346.64	1576.94
346.86	1806.31
347.07	1648.61
347.29	1718.25
347.50	1607.66
347.72	1679.33
347.94	1669.09
348.15	1570.79
348.37	1628.14
348.59	1763.30
348.80	1626.09
349.02	1816.55
349.23	1826.79
349.45	1863.65
349.67	1865.70
349.88	1785.83
350.10	2043.87
350.31	1761.25
350.53	1832.93
350.75	1912.80
350.96	1789.92
351.18	1912.80
351.39	1826.79
351.61	1734.63
351.82	1873.89
352.04	1959.91
352.26	1800.16
352.47	1843.17
352.69	1869.80
352.90	1722.34
353.12	1871.84
353.34	1906.66
353.55	1884.13
353.77	1908.71
353.98	1783.78
354.20	1847.27
354.41	1970.15
354.63	1925.09
354.85	2127.84
355.06	1904.61
355.28	1826.79
355.49	1949.67
355.71	1949.67
355.92	1902.56
356.14	1898.47
356.35	1843.17
356.57	1871.84
356.79	1943.52
357.00	1896.42
357.22	1957.86
357.43	1830.88
357.65	1988.58
357.86	1837.03
358.08	1929.19
358.29	1925.09
358.51	1953.76
358.72	1894.37
358.94	1912.80
359.16	1994.72
359.37	1861.60
359.59	1986.53
359.80	1953.76
360.02	1916.90
360.23	1978.34
360.45	1986.53
360.66	2023.39
360.88	1937.38
361.09	1894.37
361.31	1986.53
361.52	1990.63
361.74	2111.46
361.95	2072.54
362.17	1920.99
362.38	2052.06
362.60	2082.78
362.81	2033.63
363.03	1906.66
363.24	2019.30
363.46	2095.07
363.67	1990.63
363.89	1935.33
364.10	1982.43
364.32	1951.71
364.53	2043.87
364.75	1961.95
364.96	2019.30
365.18	2045.92
365.39	1978.34
365.61	1910.75
365.82	2140.13
366.04	1994.72
366.25	1927.14
366.47	2060.26
366.68	2043.87
366.90	1984.48
367.11	2129.89
367.33	2064.35
367.54	1998.82
367.76	1980.39
367.97	2125.79
368.19	2064.35
368.40	2146.27
368.62	2023.39
368.83	2064.35
369.05	2105.31
369.26	1939.43
369.48	1988.58
369.69	2017.25
369.91	2070.50
370.12	2004.96
370.33	2168.80
370.55	2021.35
370.76	2050.02
370.98	2136.03
371.19	2043.87
371.41	2103.26
371.62	2039.78
371.84	2043.87
372.05	2158.56
372.27	2078.69
372.48	2078.69
372.69	2144.22
372.91	2213.85
373.12	2168.80
373.34	2074.59
373.55	2140.13
373.77	2217.95
373.98	2121.70
374.20	2111.46
374.41	2312.16
374.62	2166.75
374.84	2187.23
375.05	2170.85
375.27	2125.79
375.48	2252.77
375.70	2207.71
375.91	2242.53
376.12	2271.20
376.34	2205.66
376.55	2201.57
376.77	2224.09
376.98	2105.31
377.19	2131.94
377.41	2197.47
377.62	2166.75
377.84	2373.60
378.05	2336.73
378.27	2215.90
378.48	2396.12
378.69	2357.21
378.91	2379.74
379.12	2189.28
379.34	2265.05
379.55	2330.59
379.76	2324.44
379.98	2271.20
380.19	2312.16
380.41	2224.09
380.62	2275.29
380.83	2260.96
381.05	2238.43
381.26	2428.89
381.47	2187.23
381.69	2244.57
381.90	2410.46
382.12	2369.50
382.33	2312.16
382.54	2342.88
382.76	2295.77
382.97	2361.31
383.19	2256.86
383.40	2342.88
383.61	2349.02
383.83	2320.35
384.04	2379.74
384.25	2361.31
384.47	2342.88
384.68	2340.83
384.89	2314.20
385.11	2367.45
385.32	2363.36
385.54	2318.30
385.75	2387.93
385.96	2437.08
386.18	2385.88
386.39	2404.32
386.60	2475.99
386.82	2412.51
387.03	2408.41
387.24	2566.10
387.46	2533.34
387.67	2506.71
387.88	2523.10
388.10	2500.57
388.31	2467.80
388.52	2512.86
388.74	2582.49
388.95	2463.71
389.16	2555.86
389.38	2389.98
389.59	2598.87
389.80	2602.97
390.02	2566.10
390.23	2639.83
390.44	2533.34
390.66	2467.80
390.87	2580.44
391.08	2641.88
391.30	2775.00
391.51	2666.46
391.72	2664.41
391.94	2623.45
392.15	2566.10
392.36	2713.56
392.58	2674.65
392.79	2650.07
393.00	2705.37
393.22	2762.71
393.43	2762.71
393.64	2850.77
393.85	2783.19
394.07	2656.22
394.28	2627.54
394.49	2840.53
394.71	2803.67
394.92	2895.83
395.13	2787.29
395.35	2754.52
395.56	2813.91
395.77	2809.81
395.98	2887.64
396.20	2869.20
396.41	2983.89
396.62	2942.93
396.84	2901.97
397.05	2879.44
397.26	2959.31
397.47	3024.85
397.69	2844.63
397.90	3055.57
398.11	2983.89
398.32	2951.12
398.54	2969.55
398.75	2883.54
398.96	2908.12
399.18	3057.62
399.39	3047.38
399.60	3010.51
399.81	2985.94
400.03	3041.23
400.24	3266.51
400.45	2990.03
400.66	3145.68
400.88	2994.13
401.09	3205.07
401.30	3035.09
401.51	3198.93
401.73	3147.73
401.94	3188.69
402.15	3030.99
402.36	3180.50
402.58	3186.64
402.79	3280.85
403.00	3344.33
403.21	3207.12
403.43	3434.44
403.64	3360.72
403.85	3229.65
404.06	3346.38
404.27	3196.88
404.49	3297.23
404.70	3252.17
404.91	3319.76
405.12	3207.12
405.34	3411.92
405.55	3411.92
405.76	3266.51
405.97	3293.13
406.19	3526.60
406.40	3301.33
406.61	3401.68
406.82	3422.16
407.03	3385.29
407.25	3303.37
407.46	3471.31
407.67	3528.65
407.88	3573.71
408.09	3434.44
408.31	3446.73
408.52	3428.30
408.73	3446.73
408.94	3360.72
409.15	3520.46
409.37	3510.22
409.58	3629.00
409.79	3641.29
410.00	3657.67
410.21	3497.93
410.43	3561.42
410.64	3481.55
410.85	3659.72
411.06	3581.90
411.27	3684.30
411.48	3694.54
411.70	3639.24
411.91	3680.20
412.12	3704.78
412.33	3698.63
412.54	3553.23
412.76	3839.94
412.97	3721.16
413.18	3610.57
413.39	3690.44
413.60	3661.77
413.81	3700.68
414.03	3688.39
414.24	3762.12
414.45	3880.90
414.66	3653.58
414.87	3831.75
415.08	3786.69
415.30	3751.88
415.51	3874.76
415.72	3751.88
415.93	3915.72
416.14	3936.20
416.35	3827.65
416.56	3938.24
416.78	3923.91
416.99	3960.77
417.20	3870.66
417.41	3979.20
417.62	3987.40
417.83	3995.59
418.04	3991.49
418.26	4007.87
418.47	3985.35
418.68	4153.28
418.89	4126.66
419.10	4118.47
419.31	4009.92
419.52	4050.88
419.73	4026.31
419.95	4165.57
420.16	3907.52
420.37	4065.22
420.58	4079.55
420.79	4044.74
421.00	3991.49
421.21	4159.42
421.42	4030.40
421.63	4163.52
421.85	4089.79
422.06	4196.29
422.27	4353.98
422.48	4233.15
422.69	4245.44
422.90	4337.60
423.11	4263.87
423.32	4317.12
423.53	4300.73
423.75	4435.90
423.96	4505.53
424.17	4399.04
424.38	4427.71
424.59	4345.79
424.80	4605.88
425.01	4489.15
425.22	4409.28
425.43	4413.37
425.64	4632.51
425.85	4648.89
426.06	4509.63
426.28	4519.87
426.49	4483.00
426.70	4597.69
426.91	4677.56
427.12	4528.06
427.33	4665.27
427.54	4636.60
427.75	4622.27
427.96	4872.12
428.17	4706.23
428.38	4933.56
428.59	4872.12
428.80	4833.21
429.01	4937.65
429.23	4820.92
429.44	5083.06
429.65	5029.81
429.86	4943.80
430.07	4921.27
430.28	4773.82
430.49	4966.32
430.70	5179.31
430.91	5064.63
431.12	4992.95
431.33	5091.25
431.54	5156.79
431.75	5236.66
431.96	5095.35
432.17	5191.60
432.38	5179.31
432.59	5373.87
432.80	5289.90
433.01	5439.40
433.22	5373.87
433.43	5306.29
433.64	5345.20
433.85	5156.79
434.06	5435.31
434.27	5406.64
434.49	5398.45
434.70	5545.90
434.91	5484.46
435.12	5511.08
435.33	5488.56
435.54	5539.76
435.75	5447.60
435.96	5492.65
436.17	5347.25
436.38	5619.63
436.59	5746.60
436.80	5535.66
437.01	5797.80
437.22	5822.38
437.43	5777.32
437.64	5492.65
437.85	5756.84
438.06	5746.60
438.27	5797.80
438.48	5732.26
438.69	5914.53
438.90	5916.58
439.11	5805.99
439.32	5924.77
439.53	5777.32
439.74	5871.53
439.95	6012.84
440.16	5914.53
440.37	5971.88
440.57	5810.09
440.78	6115.23
440.99	6055.84
441.20	6076.32
441.41	5951.40
441.62	6143.91
441.83	5992.36
442.04	6262.69
442.25	6297.50
442.46	5953.45
442.67	6305.70
442.88	6639.51
443.09	6254.50
443.30	6180.77
443.51	6348.70
443.72	6481.82
443.93	6225.82
444.14	6541.21
444.35	6295.46
444.56	6350.75
444.77	6373.28
444.98	6498.20
445.19	6578.08
445.40	6500.25
445.61	6571.93
445.81	6801.30
446.02	6668.19
446.23	6696.86
446.44	6471.58
446.65	6657.95
446.86	6698.91
447.07	6762.39
447.28	6739.87
447.49	6881.18
447.70	6735.77
447.91	6868.89
448.12	6899.61
448.33	6932.37
448.54	7083.92
448.74	6862.74
448.95	7008.15
449.16	6832.02
449.37	7268.24
449.58	6942.61
449.79	7204.75
450.00	6901.65
450.21	7268.24
450.42	7155.60
450.63	7262.10
450.84	7135.12
451.05	7354.26
451.25	7065.49
451.46	7223.19
451.67	7438.22
451.88	7319.44
452.09	7282.58
452.30	7075.73
452.51	7292.82
452.72	7440.27
452.93	7628.68
453.13	7438.22
453.34	7384.98
453.55	7530.38
453.76	7698.31
453.97	8007.56
454.18	7673.74
454.39	7942.02
454.60	7960.45
454.81	7778.19
455.01	8007.56
455.22	7774.09
455.43	7917.45
455.64	8056.71
455.85	8267.65
456.06	8157.06
456.27	7954.31
456.48	8005.51
456.68	8187.78
456.89	8294.27
457.10	8130.44
457.31	8243.07
457.52	8116.10
457.73	8324.99
457.94	8548.22
458.14	8089.48
458.35	8691.58
458.56	8437.63
458.77	8488.83
458.98	8449.92
459.19	8605.56
459.39	8548.22
459.60	8742.78
459.81	8611.71
460.02	8681.34
460.23	8720.25
460.44	8904.57
460.65	8920.95
460.85	8800.12
461.06	9023.35
461.27	8775.55
461.48	9097.08
461.69	9144.18
461.89	8961.91
462.10	9056.12
462.31	8927.10
462.52	9054.07
462.73	9383.79
462.94	9398.13
463.14	9449.33
463.35	9226.10
463.56	9690.99
463.77	9576.30
463.98	9379.70
464.18	9619.31
464.39	9668.46
464.60	9697.13
464.81	9879.40
465.02	9699.18
465.23	10022.76
465.43	9787.24
465.64	10235.75
465.85	10004.33
466.06	9899.88
466.27	10383.20
466.47	10329.95
466.68	10264.42
466.89	10153.83
467.10	10481.50
467.30	9973.61
467.51	10452.83
467.72	10825.56
467.93	10264.42
468.14	10518.37
468.34	10663.77
468.55	10741.60
468.76	10719.07
468.97	10614.62
469.17	11056.98
469.38	10964.82
469.59	11077.46
469.80	10817.37
470.01	11095.89
470.21	10970.97
470.42	11020.12
470.63	11335.51
470.84	11091.80
471.04	11226.96
471.25	11698.00
471.46	11278.16
471.67	11759.44
471.87	11530.06
472.08	11626.32
472.29	11687.76
472.50	11657.04
472.70	11611.98
472.91	11775.82
473.12	11964.23
473.33	11921.23
473.53	12085.06
473.74	12103.50
473.95	12347.20
474.16	12285.76
474.36	12398.40
474.57	12609.34
474.78	12816.19
474.99	12721.98
475.19	12746.56
475.40	13107.00
475.61	13276.98
475.81	13180.73
476.02	13248.31
476.23	13002.55
476.44	13418.29
476.64	13363.00
476.85	13780.78
477.06	13535.03
477.27	13795.12
477.47	13668.14
477.68	13770.54
477.89	14073.64
478.09	14034.73
478.30	14094.12
478.51	14100.26
478.71	14366.50
478.92	14442.28
479.13	14296.87
479.34	14735.14
479.54	14661.41
479.75	14536.48
479.96	14563.11
480.16	14862.11
480.37	14630.69
480.58	15097.63
480.78	15206.17
480.99	15286.04
481.20	15322.90
481.41	15394.58
481.61	15642.39
481.82	15750.93
482.03	15511.32
482.23	15757.07
482.44	15884.05
482.65	15996.68
482.85	16160.52
483.06	15765.26
483.27	16131.85
483.47	16320.26
483.68	16287.50
483.89	16477.96
484.09	16375.56
484.30	16310.02
484.51	16764.67
484.71	16828.16
484.92	16854.78
485.13	17084.16
485.33	17088.25
485.54	17030.91
485.75	17180.41
485.95	17377.01
486.16	17325.82
486.37	17616.63
486.57	17665.78
486.78	17604.34
486.98	17751.79
487.19	17811.18
487.40	17899.25
487.60	17952.49
487.81	18329.32
488.02	18292.46
488.22	18007.79
488.43	18398.95
488.64	18364.14
488.84	18484.97
489.05	18738.91
489.25	18775.78
489.46	18824.93
489.67	18790.11
489.87	19144.41
490.08	19224.28
490.29	19214.04
490.49	19607.25
490.70	19744.47
490.90	19488.47
491.11	19801.81
491.32	19844.82
491.52	19930.83
491.73	20158.16
491.94	20139.72
492.14	19945.17
492.35	20481.74
492.55	20436.68
492.76	20373.19
492.97	20858.56
493.17	20764.36
493.38	20416.20
493.58	21208.76
493.79	21026.50
494.00	21065.41
494.20	21388.99
494.41	21124.80
494.61	21319.35
494.82	21339.83
495.02	21417.66
495.23	21290.68
495.44	21354.17
495.64	21964.46
495.85	21900.98
496.05	21980.85
496.26	21925.55
496.47	22185.65
496.67	22195.89
496.88	22427.31
497.08	22058.67
497.29	22464.17
497.49	22404.78
497.70	22595.24
497.91	22912.67
498.11	22914.72
498.32	23064.22
498.52	23021.22
498.73	23391.90
498.93	23117.47
499.14	23297.69
499.34	23154.33
499.55	23633.56
499.76	23594.65
499.96	23660.18
500.17	23750.29
500.37	23588.50
500.58	23711.38
500.78	23725.72
500.99	24026.77
501.19	24116.88
501.40	24129.17
501.60	23844.50
501.81	24256.14
502.02	24286.86
502.22	24135.31
502.43	24516.23
502.63	24944.26
502.84	24825.48
503.04	24993.41
503.25	25089.67
503.45	24964.74
503.66	24886.92
503.86	24997.51
504.07	25273.98
504.27	25212.54
504.48	25552.51
504.68	25450.11
504.89	25878.13
505.09	25708.15
505.30	25546.36
505.50	25589.37
505.71	25677.43
505.91	25960.05
506.12	26029.68
506.32	26017.40
506.53	26148.46
506.73	26109.55
506.94	26224.24
507.14	26156.66
507.35	26406.51
507.55	26537.58
507.76	26648.17
507.96	26449.52
508.17	26578.54
508.37	26889.83
508.58	26750.57
508.78	26830.44
508.99	27205.22
509.19	27151.97
509.40	27231.84
509.60	26932.84
509.81	27342.43
510.01	27092.58
510.22	27403.87
510.42	27276.90
510.63	27317.86
510.83	27287.14
511.04	27645.53
511.24	27606.62
511.44	27772.50
511.65	27586.14
511.85	27670.11
512.06	28048.98
512.26	27887.19
512.47	28159.57
512.67	28229.20
512.88	28098.13
513.08	27772.50
513.29	28388.94
513.49	28091.99
513.69	28364.37
513.90	28546.64
514.10	28479.05
514.31	28210.77
514.51	28366.42
514.72	28982.85
514.92	28503.63
515.13	28800.58
515.33	29019.72
515.53	28782.15
515.74	28841.54
515.94	28941.89
516.15	29136.45
516.35	28855.88
516.56	28941.89
516.76	29279.81
516.96	29161.03
517.17	29152.84
517.37	29150.79
517.58	29351.49
517.78	29500.99
517.99	29505.09
518.19	29978.17
518.39	29996.60
518.60	29937.21
518.80	29720.12
519.01	29744.70
519.21	29943.35
519.41	30129.72
519.62	30074.42
519.82	30314.03
520.03	30191.16
520.23	30314.03
520.43	30223.92
520.64	30260.79
520.84	30365.23
521.05	30148.15
521.25	30651.95
521.45	31022.63
521.66	30809.64
521.86	30934.57
522.07	30901.80
522.27	30969.38
522.47	30856.75
522.68	31196.71
522.88	30551.60
523.08	31209.00
523.29	31446.56
523.49	31325.73
523.70	31301.15
523.90	31526.43
524.10	31686.17
524.31	31622.69
524.51	31764.00
524.71	32056.85
524.92	31944.22
525.12	32175.64
525.33	31817.24
525.53	32130.58
525.73	32306.71
525.94	32327.19
526.14	32304.66
526.34	32474.64
526.55	32601.61
526.75	32300.56
526.95	32755.21
527.16	32480.78
527.36	32615.95
527.56	32871.95
527.77	33011.21
527.97	32947.72
528.17	33179.14
528.38	33113.61
528.58	32953.87
528.78	33347.08
528.99	33158.66
529.19	33635.84
529.39	33125.89
529.60	33445.38
529.80	33531.39
530.00	33449.47
530.21	34147.83
530.41	33926.65
530.61	33601.02
530.82	33803.77
531.02	33854.97
531.22	33822.20
531.43	33863.16
531.63	34346.48
531.83	34616.82
532.04	34762.22
532.24	34457.07
532.44	34792.94
532.64	34629.10
532.85	34958.83
533.05	34774.51
533.25	34889.20
533.46	35059.18
533.66	35427.81
533.86	34995.69
534.07	35501.54
534.27	35096.04
534.47	35644.90
534.67	35411.43
534.88	35294.69
535.08	35540.45
535.28	35446.24
535.49	35886.56
535.69	36222.42
535.89	36009.43
536.09	36292.05
536.30	36115.93
536.50	36414.93
536.70	36345.30
536.91	36421.08
537.11	36554.19
537.31	36300.25
537.51	36832.72
537.72	37025.23
537.92	36752.85
538.12	36904.40
538.32	36445.65
538.53	36769.23
538.73	37039.56
538.93	36939.21
539.13	36728.27
539.34	37191.11
539.54	37238.22
539.74	37379.53
539.94	37694.91
540.15	37342.66
540.35	37492.16
540.55	37637.57
540.75	37662.15
540.96	37576.13
541.16	37840.32
541.36	37651.91
541.56	38049.21
541.77	38536.63
541.97	37866.94
542.17	37916.09
542.37	38135.23
542.58	38475.19
542.78	38223.29
542.98	38155.71
543.18	38583.73
543.38	38659.51
543.59	38606.26
543.79	38458.81
543.99	38624.69
544.19	38854.06
544.40	38608.31
544.60	39003.56
544.80	38380.98
545.00	38759.86
545.20	39269.80
545.41	39050.67
545.61	39052.72
545.81	39306.66
546.01	39372.20
546.21	39122.35
546.42	38921.65
546.62	39540.13
546.82	39142.83
547.02	39482.79
547.22	39656.87
547.43	39292.33
547.63	39431.59
547.83	39738.79
548.03	39218.60
548.23	40060.32
548.44	39935.39
548.64	39882.14
548.84	40068.51
549.04	39861.66
549.24	40240.54
549.45	39630.24
549.65	40017.31
549.85	40383.90
550.05	40146.33
550.25	40387.99
550.45	40666.52
550.66	40553.88
550.86	40121.76
551.06	40418.71
551.26	40236.44
551.46	40547.73
551.66	40766.87
551.87	40377.75
552.07	40797.59
552.27	40828.30
552.47	40893.84
552.67	40942.99
552.87	40689.04
553.07	40895.89
553.28	41080.21
553.48	41422.22
553.68	41104.78
553.88	41516.42
554.08	41389.45
554.28	41270.67
554.48	41340.30
554.69	41252.23
554.89	41307.53
555.09	41467.27
555.29	41004.43
555.49	41606.53
555.69	41119.12
555.89	41411.98
556.10	41688.45
556.30	41526.66
556.50	41837.95
556.70	41825.67
556.90	41739.65
557.10	41915.78
557.30	41512.33
557.50	42235.26
557.70	42044.80
557.91	42204.54
558.11	42347.90
558.31	42331.51
558.51	42124.67
558.71	42370.43
558.91	42370.43
559.11	42071.42
559.31	42358.14
559.51	42038.65
559.72	42724.72
559.92	42558.84
560.12	42315.13
560.32	42831.22
560.52	42673.52
560.72	42530.17
560.92	42771.83
561.12	42806.64
561.32	43287.92
561.52	42761.59
561.72	43228.52
561.93	42657.14
562.13	42767.73
562.33	42628.47
562.53	43535.72
562.73	42999.15
562.93	42923.38
563.13	43562.34
563.33	43193.71
563.53	43193.71
563.73	43277.68
563.93	43595.11
564.13	43951.46
564.33	43541.86
564.53	43629.93
564.74	43691.37
564.94	43443.56
565.14	43541.86
565.34	43967.84
565.54	43935.07
565.74	44008.80
565.94	43914.59
566.14	43947.36
566.34	43818.34
566.54	44115.29
566.74	43746.66
566.94	44459.35
567.14	44574.04
567.34	44021.09
567.54	44348.76
567.74	44172.64
567.94	43703.65
568.14	44674.39
568.34	44545.37
568.54	44598.62
568.74	44836.18
568.94	44733.78
569.14	44901.71
569.34	44840.28
569.54	44891.48
569.75	44391.77
569.95	44750.17
570.15	45137.23
570.35	44770.64
570.55	44969.30
570.75	45018.45
570.95	45272.40
571.15	45686.09
571.35	45307.21
571.55	45440.33
571.75	45131.09
571.95	45643.08
572.15	45372.75
572.35	45591.88
572.55	45849.92
572.75	45643.08
572.95	45819.20
573.15	46056.77
573.35	45980.99
573.55	45360.46
573.75	46103.87
573.95	46110.02
574.15	45600.07
574.35	45933.89
574.55	46114.11
574.75	46054.72
574.95	46349.63
575.15	46146.88
575.34	46423.36
575.54	46579.00
575.74	46708.02
575.94	46937.40
576.14	46984.50
576.34	46912.82
576.54	47105.33
576.74	46951.73
576.94	47078.71
577.14	47213.87
577.34	47482.16
577.54	46982.45
577.74	47228.21
577.94	47308.08
578.14	47727.91
578.34	47783.21
578.54	47148.34
578.74	47453.48
578.94	47803.69
579.14	47934.76
579.34	47805.73
579.54	48047.39
579.74	48538.91
579.94	48149.79
580.13	48338.21
580.33	47838.50
580.53	48200.99
580.73	48143.65
580.93	48393.50
581.13	48039.20
581.33	48469.28
581.53	48731.42
581.73	48925.97
581.93	48549.15
582.13	48549.15
582.33	48764.18
582.53	48598.30
582.73	49267.98
582.92	49231.12
583.12	49462.54
583.32	49200.40
583.52	49091.86
583.72	49126.67
583.92	49112.34
584.12	49489.16
584.32	49808.65
584.52	49329.42
584.72	49392.91
584.92	49890.57
585.11	50570.49
585.31	49775.88
585.51	50009.35
585.71	49431.82
585.91	50087.17
586.11	49816.84
586.31	50148.61
586.51	49941.77
586.71	50226.43
586.91	50533.63
587.10	50537.72
587.30	50767.10
587.50	50453.76
587.70	50642.17
587.90	50566.40
588.10	50511.10
588.30	50627.84
588.50	51125.49
