SpectraSuite Data File
++++++++++++++++++++++++++++++++++++
Date: Fri Jun 02 14:52:30 CEST 2017
User: INFO_000
Dark Spectrum Present: No
Reference Spectrum Present: No
Number of Sampled Component Spectra: 1
Spectrometers: USB4H00879
Integration Time (usec): 80000 (USB4H00879)
Spectra Averaged: 1 (USB4H00879)
Boxcar Smoothing: 0 (USB4H00879)
Correct for Electrical Dark: No (USB4H00879)
Strobe/Lamp Enabled: No (USB4H00879)
Correct for Detector Non-linearity: No (USB4H00879)
Correct for Stray Light: No (USB4H00879)
Number of Pixels in Processed Spectrum: 3648
>>>>>Begin Processed Spectral Data<<<<<
345.13	1267.69
345.34	1267.69
345.56	1267.69
345.78	1255.40
345.99	1269.74
346.21	1720.29
346.42	1656.81
346.64	1660.90
346.86	1832.93
347.07	1683.43
347.29	1714.15
347.50	1581.03
347.72	1611.75
347.94	1820.64
348.15	1560.55
348.37	1593.32
348.59	1689.57
348.80	1599.46
349.02	1773.54
349.23	1863.65
349.45	1902.56
349.67	1777.64
349.88	1779.68
350.10	2019.30
350.31	1863.65
350.53	1814.50
350.75	1982.43
350.96	1834.98
351.18	1830.88
351.39	1871.84
351.61	1824.74
351.82	1845.22
352.04	1839.08
352.26	1814.50
352.47	1877.99
352.69	1929.19
352.90	1798.12
353.12	1880.04
353.34	1882.08
353.55	2021.35
353.77	1945.57
353.98	1877.99
354.20	1916.90
354.41	1916.90
354.63	1935.33
354.85	2009.06
355.06	1873.89
355.28	1839.08
355.49	1957.86
355.71	1906.66
355.92	1912.80
356.14	1957.86
356.35	1849.32
356.57	1906.66
356.79	1904.61
357.00	1886.18
357.22	2056.16
357.43	1847.27
357.65	2025.44
357.86	1820.64
358.08	1941.47
358.29	1929.19
358.51	1957.86
358.72	1892.32
358.94	1937.38
359.16	1904.61
359.37	1869.80
359.59	1929.19
359.80	2000.87
360.02	2029.54
360.23	2068.45
360.45	1925.09
360.66	1873.89
360.88	1791.97
361.09	1982.43
361.31	2066.40
361.52	1943.52
361.74	2078.69
361.95	2109.41
362.17	1953.76
362.38	2142.18
362.60	2019.30
362.81	1959.91
363.03	1933.28
363.24	1994.72
363.46	2058.21
363.67	2084.83
363.89	1988.58
364.10	1986.53
364.32	2025.44
364.53	2017.25
364.75	1970.15
364.96	2070.50
365.18	2035.68
365.39	2023.39
365.61	1880.04
365.82	2125.79
366.04	1990.63
366.25	1953.76
366.47	2002.91
366.68	2021.35
366.90	2015.20
367.11	2017.25
367.33	2101.22
367.54	2086.88
367.76	2011.11
367.97	2101.22
368.19	2015.20
368.40	2142.18
368.62	2011.11
368.83	1937.38
369.05	2107.36
369.26	1959.91
369.48	2060.26
369.69	1966.05
369.91	2035.68
370.12	1961.95
370.33	2093.02
370.55	1966.05
370.76	2027.49
370.98	2109.41
371.19	2076.64
371.41	2025.44
371.62	2084.83
371.84	2009.06
372.05	2217.95
372.27	1976.29
372.48	2099.17
372.69	2023.39
372.91	2088.93
373.12	2117.60
373.34	2035.68
373.55	2115.55
373.77	2217.95
373.98	2140.13
374.20	2133.98
374.41	2131.94
374.62	2162.66
374.84	2142.18
375.05	2121.70
375.27	2195.42
375.48	2148.32
375.70	2172.89
375.91	2191.33
376.12	2314.20
376.34	2115.55
376.55	2226.14
376.77	2207.71
376.98	2088.93
377.19	2160.61
377.41	2146.27
377.62	2252.77
377.84	2332.64
378.05	2303.96
378.27	2154.46
378.48	2285.53
378.69	2369.50
378.91	2252.77
379.12	2263.01
379.34	2179.04
379.55	2248.67
379.76	2297.82
379.98	2232.29
380.19	2224.09
380.41	2240.48
380.62	2353.12
380.83	2232.29
381.05	2230.24
381.26	2369.50
381.47	2203.61
381.69	2314.20
381.90	2379.74
382.12	2258.91
382.33	2281.44
382.54	2344.92
382.76	2342.88
382.97	2322.40
383.19	2283.49
383.40	2379.74
383.61	2359.26
383.83	2267.10
384.04	2332.64
384.25	2406.36
384.47	2453.47
384.68	2410.46
384.89	2387.93
385.11	2330.59
385.32	2332.64
385.54	2379.74
385.75	2371.55
385.96	2473.95
386.18	2432.99
386.39	2349.02
386.60	2338.78
386.82	2389.98
387.03	2369.50
387.24	2443.23
387.46	2443.23
387.67	2428.89
387.88	2486.23
388.10	2480.09
388.31	2426.84
388.52	2637.78
388.74	2492.38
388.95	2535.39
389.16	2475.99
389.38	2453.47
389.59	2688.98
389.80	2619.35
390.02	2584.54
390.23	2621.40
390.44	2484.19
390.66	2654.17
390.87	2535.39
391.08	2580.44
391.30	2586.58
391.51	2648.02
391.72	2670.55
391.94	2662.36
392.15	2654.17
392.36	2580.44
392.58	2648.02
392.79	2688.98
393.00	2674.65
393.22	2738.13
393.43	2775.00
393.64	2779.09
393.85	2772.95
394.07	2680.79
394.28	2684.89
394.49	2746.33
394.71	2789.33
394.92	2811.86
395.13	2736.09
395.35	2686.94
395.56	2762.71
395.77	2787.29
395.98	2883.54
396.20	2959.31
396.41	2772.95
396.62	2883.54
396.84	2803.67
397.05	2824.15
397.26	2869.20
397.47	2994.13
397.69	2740.18
397.90	3065.81
398.11	2912.21
398.32	2844.63
398.54	2924.50
398.75	2901.97
398.96	2967.51
399.18	3063.76
399.39	2932.69
399.60	2942.93
399.81	2938.84
400.03	2987.99
400.24	3243.98
400.45	2969.55
400.66	3061.71
400.88	2930.64
401.09	3178.45
401.30	3071.95
401.51	3067.86
401.73	3104.72
401.94	3182.54
402.15	3131.34
402.36	3121.10
402.58	3166.16
402.79	3172.30
403.00	3184.59
403.21	3196.88
403.43	3166.16
403.64	3203.02
403.85	3125.20
404.06	3223.50
404.27	3151.82
404.49	3221.45
404.70	3192.78
404.91	3282.89
405.12	3282.89
405.34	3233.74
405.55	3379.15
405.76	3168.21
405.97	3209.17
406.19	3338.19
406.40	3305.42
406.61	3301.33
406.82	3358.67
407.03	3200.98
407.25	3235.79
407.46	3420.11
407.67	3336.14
407.88	3563.47
408.09	3375.05
408.31	3311.57
408.52	3383.24
408.73	3438.54
408.94	3270.61
409.15	3442.64
409.37	3485.64
409.58	3456.97
409.79	3446.73
410.00	3528.65
410.21	3430.35
410.43	3377.10
410.64	3469.26
410.85	3557.32
411.06	3536.84
411.27	3461.07
411.48	3571.66
411.70	3499.98
411.91	3524.55
412.12	3706.82
412.33	3514.31
412.54	3606.47
412.76	3581.90
412.97	3618.76
413.18	3479.50
413.39	3717.06
413.60	3629.00
413.81	3563.47
414.03	3680.20
414.24	3606.47
414.45	3755.97
414.66	3520.46
414.87	3819.46
415.08	3774.41
415.30	3727.30
415.51	3618.76
415.72	3631.05
415.93	3629.00
416.14	3813.32
416.35	3758.02
416.56	3794.89
416.78	3850.18
416.99	3762.12
417.20	3829.70
417.41	3872.71
417.62	3899.33
417.83	3893.19
418.04	3829.70
418.26	3870.66
418.47	3876.80
418.68	3952.58
418.89	4028.35
419.10	4097.99
419.31	4052.93
419.52	3882.95
419.73	3952.58
419.95	3975.11
420.16	4048.83
420.37	3960.77
420.58	3989.44
420.79	3823.56
421.00	4057.03
421.21	4054.98
421.42	3936.20
421.63	4030.40
421.85	4079.55
422.06	4190.14
422.27	4210.62
422.48	4122.56
422.69	4042.69
422.90	4196.29
423.11	4241.34
423.32	4321.21
423.53	4382.65
423.75	4308.93
423.96	4376.51
424.17	4394.94
424.38	4495.29
424.59	4394.94
424.80	4528.06
425.01	4380.61
425.22	4339.65
425.43	4448.19
425.64	4616.12
425.85	4542.39
426.06	4583.35
426.28	4511.68
426.49	4583.35
426.70	4425.66
426.91	4489.15
427.12	4849.59
427.33	4650.94
427.54	4667.32
427.75	4644.79
427.96	4921.27
428.17	4607.93
428.38	4716.47
428.59	4806.58
428.80	4710.33
429.01	4777.91
429.23	4812.73
429.44	4978.61
429.65	4888.50
429.86	4908.98
430.07	4763.58
430.28	4927.41
430.49	4982.71
430.70	4960.18
430.91	5158.83
431.12	5058.48
431.33	5197.74
431.54	5095.35
431.75	5062.58
431.96	5134.26
432.17	5203.89
432.38	5031.86
432.59	5294.00
432.80	5341.10
433.01	5310.38
433.22	5222.32
433.43	5261.23
433.64	5300.14
433.85	5228.46
434.06	5429.17
434.27	5279.66
434.49	5420.97
434.70	5486.51
434.91	5480.36
435.12	5461.93
435.33	5388.21
435.54	5459.88
435.75	5367.73
435.96	5380.01
436.17	5461.93
436.38	5722.02
436.59	5668.78
436.80	5447.60
437.01	5717.93
437.22	5818.28
437.43	5738.41
437.64	5515.18
437.85	5881.77
438.06	5795.75
438.27	5701.54
438.48	5765.03
438.69	5799.85
438.90	5795.75
439.11	5709.74
439.32	5982.12
439.53	5789.61
439.74	5920.68
439.95	5949.35
440.16	5889.96
440.37	5840.81
440.57	5838.76
440.78	5908.39
440.99	6107.04
441.20	6135.71
441.41	6004.64
441.62	6025.12
441.83	6029.22
442.04	6078.37
442.25	6018.98
442.46	6174.63
442.67	6285.22
442.88	6590.36
443.09	5971.88
443.30	6047.65
443.51	6234.02
443.72	6426.53
443.93	6115.23
444.14	6412.19
444.35	6123.43
444.56	6338.46
444.77	6487.96
444.98	6336.42
445.19	6588.32
445.40	6440.86
445.61	6360.99
445.81	6590.36
446.02	6524.83
446.23	6514.59
446.44	6317.98
446.65	6469.53
446.86	6487.96
447.07	6727.58
447.28	6694.81
447.49	6700.95
447.70	6672.28
447.91	6666.14
448.12	6897.56
448.33	6924.18
448.54	6725.53
448.74	6576.03
448.95	6850.46
449.16	6770.58
449.37	7096.21
449.58	6852.50
449.79	7067.54
450.00	6616.99
450.21	6907.80
450.42	6905.75
450.63	6852.50
450.84	6975.38
451.05	6975.38
451.25	7010.20
451.46	6864.79
451.67	7229.33
451.88	7169.94
452.09	7145.36
452.30	7110.55
452.51	7196.56
452.72	7354.26
452.93	7606.16
453.13	7165.84
453.34	7188.37
453.55	7360.40
453.76	7305.10
453.97	7550.86
454.18	7329.68
454.39	7526.29
454.60	7456.65
454.81	7487.37
455.01	7675.79
455.22	7430.03
455.43	7518.09
455.64	7616.40
455.85	7653.26
456.06	7870.34
456.27	7595.92
456.48	7712.65
456.68	7798.66
456.89	7899.02
457.10	7853.96
457.31	7980.93
457.52	8109.96
457.73	7933.83
457.94	8177.54
458.14	7921.54
458.35	8222.59
458.56	8077.19
458.77	8171.40
458.98	8251.27
459.19	8259.46
459.39	8054.66
459.60	8535.93
459.81	8316.80
460.02	8365.95
460.23	8402.82
460.44	8525.69
460.65	8454.02
460.85	8503.17
461.06	8605.56
461.27	8257.41
461.48	8863.61
461.69	8753.02
461.89	8580.99
462.10	8869.75
462.31	8537.98
462.52	8609.66
462.73	8642.43
462.94	8966.01
463.14	8918.90
463.35	8955.77
463.56	9471.86
463.77	9189.24
463.98	9174.90
464.18	9195.38
464.39	9144.18
464.60	9412.46
464.81	9473.90
465.02	9322.35
465.23	9650.03
465.43	9414.51
465.64	9574.25
465.85	9635.69
466.06	9545.58
466.27	9774.95
466.47	9535.34
466.68	9815.91
466.89	9760.62
467.10	9920.36
467.30	9633.64
467.51	9830.25
467.72	10418.02
467.93	9893.74
468.14	10112.87
468.34	10311.52
468.55	10198.88
468.76	10360.67
468.97	10164.07
469.17	10479.46
469.38	10385.25
469.59	10790.75
469.80	10506.08
470.01	10479.46
470.21	10526.56
470.42	10979.16
470.63	11108.18
470.84	10641.25
471.04	11022.17
471.25	11161.43
471.46	11034.46
471.67	11233.11
471.87	11171.67
472.08	11417.43
472.29	11646.80
472.50	11052.89
472.70	11382.61
472.91	11530.06
473.12	11661.13
473.33	11722.57
473.53	11847.50
473.74	11743.05
473.95	11999.05
474.16	12166.98
474.36	11904.84
474.57	12080.97
474.78	12293.96
474.99	12279.62
475.19	12379.97
475.40	12486.47
475.61	12586.82
475.81	12736.32
476.02	12851.00
476.23	12898.11
476.44	12666.69
476.64	13111.10
476.85	13319.99
477.06	13236.02
477.27	13315.89
477.47	13422.39
477.68	13387.57
477.89	13725.49
478.09	13483.83
478.30	13750.06
478.51	13719.34
478.71	13879.08
478.92	14094.12
479.13	14290.73
479.34	14286.63
479.54	13883.18
479.75	14325.54
479.96	14386.98
480.16	14632.74
480.37	14610.21
480.58	14567.20
480.78	14855.97
480.99	15019.80
481.20	15054.62
481.41	15179.54
481.61	15329.05
481.82	15283.99
482.03	15193.88
482.23	15415.06
482.44	15671.06
482.65	15951.63
482.85	16002.83
483.06	15857.42
483.27	15914.77
483.47	16037.64
483.68	16150.28
483.89	16262.92
484.09	16279.30
484.30	16805.63
484.51	16502.53
484.71	16901.89
484.92	16805.63
485.13	16836.35
485.33	16936.70
485.54	16797.44
485.75	17032.96
485.95	17233.66
486.16	17190.65
486.37	17723.12
486.57	17329.91
486.78	17473.27
486.98	17624.82
487.19	17882.86
487.40	17585.91
487.60	17907.44
487.81	17917.68
488.02	18081.52
488.22	18202.35
488.43	18259.69
488.64	18339.56
488.84	18652.90
489.05	18632.42
489.25	18626.28
489.46	18912.99
489.67	18839.26
489.87	19142.36
490.08	19060.45
490.29	19082.97
490.49	19478.23
490.70	19648.21
490.90	19474.13
491.11	19549.91
491.32	19367.64
491.52	19728.08
491.73	19820.24
491.94	19863.25
492.14	19875.54
492.35	20072.14
492.55	20201.16
492.76	20551.37
492.97	20338.38
493.17	20473.54
493.38	20842.18
493.58	20942.53
493.79	20950.72
494.00	20606.66
494.20	20840.13
494.41	21022.40
494.61	21178.04
494.82	21327.55
495.02	21122.75
495.23	21462.71
495.44	21429.94
495.64	21761.72
495.85	21941.94
496.05	21644.98
496.26	21563.06
496.47	22066.86
496.67	21917.36
496.88	22253.23
497.08	21921.46
497.29	22179.50
497.49	22163.12
497.70	22464.17
497.91	22396.59
498.11	22754.98
498.32	22941.35
498.52	22638.25
498.73	23119.52
498.93	22724.26
499.14	23146.14
499.34	23013.02
499.55	23338.65
499.76	23133.86
499.96	23516.83
500.17	23318.17
500.37	23473.82
500.58	23525.02
500.78	23606.94
500.99	23856.79
501.19	23785.11
501.40	23944.85
501.60	23760.53
501.81	23914.13
502.02	24223.37
502.22	24026.77
502.43	24100.50
502.63	24557.19
502.84	24401.55
503.04	24508.04
503.25	24757.89
503.45	24475.27
503.66	24671.88
503.86	24567.43
504.07	24880.77
504.27	24970.88
504.48	25337.47
504.68	24761.99
504.89	25087.62
505.09	25259.65
505.30	25185.92
505.50	25216.64
505.71	25462.40
505.91	25523.83
506.12	25550.46
506.32	25372.28
506.53	25255.55
506.73	25499.26
506.94	25525.88
507.14	25675.38
507.35	25802.36
507.55	25849.46
507.76	25935.48
507.96	25773.69
508.17	25915.00
508.37	26001.01
508.58	25910.90
508.78	26109.55
508.99	26519.15
509.19	26486.38
509.40	26140.27
509.60	26244.72
509.81	26379.89
510.01	26244.72
510.22	26422.89
510.42	26537.58
510.63	26549.87
510.83	26691.18
511.04	26547.82
511.24	26691.18
511.44	26863.21
511.65	26797.67
511.85	26732.14
512.06	26912.36
512.26	26992.23
512.47	27158.11
512.67	26957.41
512.88	27246.18
513.08	26926.69
513.29	27289.18
513.49	27332.19
513.69	27100.77
513.90	27358.81
514.10	27340.38
514.31	27473.50
514.51	27502.17
514.72	27287.14
514.92	27666.01
515.13	27604.57
515.33	27680.35
515.53	27405.92
515.74	27721.30
515.94	27989.59
516.15	28016.21
516.35	27448.93
516.56	28028.50
516.76	28067.41
516.96	28239.44
517.17	28077.65
517.37	28094.04
517.58	28298.83
517.78	28102.23
517.99	28190.29
518.19	28167.76
518.39	28513.87
518.60	28628.56
518.80	28366.42
519.01	28503.63
519.21	28411.47
519.41	28603.98
519.62	28532.30
519.82	28991.05
520.03	28931.65
520.23	28999.24
520.43	28900.94
520.64	29386.30
520.84	29216.32
521.05	29128.26
521.25	29269.57
521.45	29218.37
521.66	29169.22
521.86	29527.61
522.07	29062.72
522.27	29265.47
522.47	29331.01
522.68	29711.93
522.88	29527.61
523.08	30076.47
523.29	29648.44
523.49	29904.44
523.70	30121.52
523.90	30080.56
524.10	29947.45
524.31	30041.65
524.51	29922.87
524.71	30764.59
524.92	30283.31
525.12	30623.28
525.33	30504.49
525.53	30582.32
525.73	30768.68
525.94	30434.86
526.14	30629.42
526.34	30860.84
526.55	30885.42
526.75	30551.60
526.95	31237.67
527.16	31020.58
527.36	31321.63
527.56	31395.36
527.77	31456.80
527.97	31206.95
528.17	31460.90
528.38	31671.84
528.58	31557.15
528.78	31743.52
528.99	31907.35
529.19	32011.80
529.39	31417.89
529.60	32046.62
529.80	31647.26
530.00	31942.17
530.21	32151.06
530.41	32142.87
530.61	32228.88
530.82	32507.41
531.02	32095.77
531.22	32724.49
531.43	32470.54
531.63	32904.71
531.83	32783.88
532.04	32990.73
532.24	32607.76
532.44	33277.44
532.64	33572.35
532.85	33590.78
533.05	33357.32
533.25	33324.55
533.46	33138.18
533.66	33824.25
533.86	33654.27
534.07	33836.54
534.27	33797.63
534.47	33902.07
534.67	34172.41
534.88	33760.76
535.08	34131.45
535.28	34178.55
535.49	34475.51
535.69	34747.89
535.89	35016.17
536.09	34809.32
536.30	34803.18
536.50	35071.46
536.70	35327.46
536.91	35087.85
537.11	34881.00
537.31	34749.93
537.51	34946.54
537.72	35263.97
537.92	35771.87
538.12	35544.55
538.32	35706.34
538.53	35708.38
538.73	35464.67
538.93	35562.98
539.13	35681.76
539.34	35849.69
539.54	35685.86
539.74	35993.05
539.94	36072.92
540.15	35765.73
540.35	36296.15
540.55	35966.43
540.75	36347.35
540.96	36234.71
541.16	36726.22
541.36	36361.69
541.56	36599.25
541.77	36634.06
541.97	36564.43
542.17	36853.20
542.37	36955.60
542.58	36931.02
542.78	37150.15
542.98	37012.94
543.18	37258.70
543.38	37633.47
543.59	37178.82
543.79	37359.05
543.99	37623.23
544.19	37682.62
544.40	37418.44
544.60	37852.61
544.80	37950.91
545.00	37500.36
545.20	38167.99
545.41	37938.62
545.61	38237.62
545.81	38200.76
546.01	38192.57
546.21	38311.35
546.42	38049.21
546.62	38606.26
546.82	38667.70
547.02	38520.24
547.22	38626.74
547.43	38714.80
547.63	38471.09
547.83	38903.21
548.03	38827.44
548.23	38958.51
548.44	39153.07
548.64	38987.18
548.84	39204.27
549.04	39247.27
549.24	38864.30
549.45	39560.61
549.65	39089.58
549.85	39163.31
550.05	39560.61
550.25	39286.18
550.45	40326.55
550.66	39810.46
550.86	39622.05
551.06	39876.00
551.26	40172.96
551.46	40189.34
551.66	39992.73
551.87	39851.42
552.07	40146.33
552.27	39882.14
552.47	40301.98
552.67	40428.95
552.87	40355.22
553.07	40207.77
553.28	40502.68
553.48	40437.14
553.68	40672.66
553.88	40785.30
554.08	40768.91
554.28	40938.90
554.48	40744.34
554.69	40986.00
554.89	40992.14
555.09	40975.76
555.29	40568.21
555.49	41262.47
555.69	41381.26
555.89	40711.57
556.10	41504.13
556.30	41039.25
556.50	41315.72
556.70	41074.06
556.90	41442.70
557.10	41311.63
557.30	41352.58
557.50	41756.03
557.70	41772.42
557.91	41743.75
558.11	42030.46
558.31	42423.67
558.51	41479.56
558.71	42124.67
558.91	42202.49
559.11	41885.06
559.31	42155.39
559.51	42218.88
559.72	42153.34
559.92	42286.46
560.12	42452.34
560.32	42159.48
560.52	42308.99
560.72	42311.03
560.92	42632.57
561.12	42759.54
561.32	43074.93
561.52	42526.07
561.72	43050.35
561.93	42358.14
562.13	42247.55
562.33	42835.31
562.53	43009.39
562.73	42808.69
562.93	43142.51
563.13	42530.17
563.33	43281.77
563.53	43240.81
563.73	43107.69
563.93	43408.75
564.13	43722.08
564.33	43523.43
564.53	43578.73
564.74	43427.18
564.94	43439.47
565.14	43828.58
565.34	43337.07
565.54	44137.82
565.74	43971.94
565.94	43969.89
566.14	43814.24
566.34	43961.70
566.54	44127.58
566.74	43425.13
566.94	44197.21
567.14	43998.56
567.34	44033.38
567.54	44295.52
567.74	43722.08
567.94	43928.93
568.14	44512.60
568.34	44674.39
568.54	44475.74
568.74	44426.59
568.94	44631.38
569.14	44813.65
569.34	44725.59
569.54	44420.44
569.75	44608.86
569.95	44559.70
570.15	45376.84
570.35	44784.98
570.55	44459.35
570.75	45176.14
570.95	44914.00
571.15	45421.90
571.35	44492.12
571.55	45450.57
571.75	45100.37
571.95	45219.15
572.15	45575.50
572.35	45413.71
572.55	45667.66
572.75	45110.61
572.95	45458.76
573.15	46056.77
573.35	45602.12
573.55	45505.87
573.75	45661.51
573.95	45673.80
574.15	45856.07
574.35	45950.27
574.55	45628.74
574.75	45929.80
574.95	46042.43
575.15	45749.57
575.34	46036.29
575.54	46216.51
575.74	46200.13
575.94	46533.95
576.14	46335.29
576.34	46978.36
576.54	46843.19
576.74	46695.74
576.94	46683.45
577.14	46945.59
577.34	46832.95
577.54	46538.04
577.74	47099.19
577.94	46718.26
578.14	46884.15
578.34	47113.52
578.54	46445.88
578.74	46517.56
578.94	47596.84
579.14	46927.16
579.34	47125.81
579.54	47185.20
579.74	47801.64
579.94	47428.91
580.13	47699.24
580.33	47275.31
580.53	47695.14
580.73	47623.47
580.93	47912.23
581.13	47416.62
581.33	48104.74
581.53	48508.19
581.73	48420.13
581.93	48299.30
582.13	48381.21
582.33	48139.55
582.53	48272.67
582.73	48469.28
582.92	48579.87
583.12	48411.93
583.32	48215.33
583.52	48538.91
583.72	48796.95
583.92	48334.11
584.12	48700.70
584.32	49110.29
584.52	48862.49
584.72	48829.72
584.92	48985.36
585.11	49394.96
585.31	48805.14
585.51	49343.76
585.71	49098.00
585.91	49222.93
586.11	48936.21
586.31	49102.10
586.51	49276.18
586.71	49622.28
586.91	49468.69
587.10	49509.64
587.30	49583.37
587.50	49620.23
587.70	49362.19
587.90	49198.35
588.10	49626.38
588.30	49779.98
588.50	49472.78
588.69	49712.39
