SpectraSuite Data File
++++++++++++++++++++++++++++++++++++
Date: Fri Jun 02 14:52:27 CEST 2017
User: INFO_000
Dark Spectrum Present: No
Reference Spectrum Present: No
Number of Sampled Component Spectra: 1
Spectrometers: USB4H00879
Integration Time (usec): 80000 (USB4H00879)
Spectra Averaged: 1 (USB4H00879)
Boxcar Smoothing: 0 (USB4H00879)
Correct for Electrical Dark: No (USB4H00879)
Strobe/Lamp Enabled: No (USB4H00879)
Correct for Detector Non-linearity: No (USB4H00879)
Correct for Stray Light: No (USB4H00879)
Number of Pixels in Processed Spectrum: 3648
>>>>>Begin Processed Spectral Data<<<<<
345.13	1302.51
345.34	1302.51
345.56	1302.51
345.78	1290.22
345.99	1320.94
346.21	1667.05
346.42	1685.48
346.64	1609.70
346.86	1816.55
347.07	1642.47
347.29	1738.73
347.50	1607.66
347.72	1685.48
347.94	1695.72
348.15	1650.66
348.37	1601.51
348.59	1656.81
348.80	1671.14
349.02	1710.05
349.23	1888.23
349.45	1837.03
349.67	1873.89
349.88	1859.56
350.10	1918.95
350.31	1886.18
350.53	1773.54
350.75	1896.42
350.96	1806.31
351.18	1832.93
351.39	1873.89
351.61	1787.88
351.82	1918.95
352.04	1855.46
352.26	1798.12
352.47	1861.60
352.69	1855.46
352.90	1810.40
353.12	1890.28
353.34	1777.64
353.55	1945.57
353.77	1880.04
353.98	1855.46
354.20	1916.90
354.41	1953.76
354.63	1966.05
354.85	1961.95
355.06	1914.85
355.28	1851.36
355.49	1873.89
355.71	1890.28
355.92	1830.88
356.14	1925.09
356.35	1886.18
356.57	1871.84
356.79	2009.06
357.00	1914.85
357.22	1943.52
357.43	1875.94
357.65	1937.38
357.86	1877.99
358.08	1941.47
358.29	1920.99
358.51	2029.54
358.72	2002.91
358.94	1961.95
359.16	1961.95
359.37	1951.71
359.59	1943.52
359.80	2007.01
360.02	1976.29
360.23	2074.59
360.45	2066.40
360.66	1970.15
360.88	1953.76
361.09	1951.71
361.31	2050.02
361.52	1951.71
361.74	2119.65
361.95	2201.57
362.17	1968.10
362.38	2078.69
362.60	2031.58
362.81	2029.54
363.03	1904.61
363.24	2039.78
363.46	2097.12
363.67	2078.69
363.89	2047.97
364.10	2086.88
364.32	2007.01
364.53	2033.63
364.75	1951.71
364.96	2078.69
365.18	2058.21
365.39	2002.91
365.61	2011.11
365.82	2164.70
366.04	2025.44
366.25	1980.39
366.47	2050.02
366.68	2045.92
366.90	2056.16
367.11	2066.40
367.33	2127.84
367.54	2140.13
367.76	1980.39
367.97	2099.17
368.19	1994.72
368.40	2119.65
368.62	1996.77
368.83	2068.45
369.05	2107.36
369.26	2066.40
369.48	1906.66
369.69	1925.09
369.91	2109.41
370.12	2041.82
370.33	2187.23
370.55	2011.11
370.76	2019.30
370.98	2068.45
371.19	2047.97
371.41	2058.21
371.62	2054.11
371.84	1982.43
372.05	2168.80
372.27	2050.02
372.48	2113.50
372.69	2131.94
372.91	2162.66
373.12	2185.18
373.34	2111.46
373.55	2103.26
373.77	2207.71
373.98	2082.78
374.20	2136.03
374.41	2217.95
374.62	2084.83
374.84	2185.18
375.05	2170.85
375.27	2195.42
375.48	2215.90
375.70	2230.24
375.91	2236.38
376.12	2240.48
376.34	2133.98
376.55	2172.89
376.77	2179.04
376.98	2136.03
377.19	2142.18
377.41	2160.61
377.62	2181.09
377.84	2299.87
378.05	2361.31
378.27	2166.75
378.48	2355.16
378.69	2322.40
378.91	2373.60
379.12	2217.95
379.34	2199.52
379.55	2303.96
379.76	2301.92
379.98	2310.11
380.19	2189.28
380.41	2320.35
380.62	2217.95
380.83	2252.77
381.05	2242.53
381.26	2422.75
381.47	2256.86
381.69	2316.25
381.90	2432.99
382.12	2400.22
382.33	2303.96
382.54	2295.77
382.76	2226.14
382.97	2351.07
383.19	2232.29
383.40	2318.30
383.61	2320.35
383.83	2234.33
384.04	2318.30
384.25	2424.80
384.47	2465.75
384.68	2400.22
384.89	2277.34
385.11	2324.44
385.32	2387.93
385.54	2324.44
385.75	2494.43
385.96	2424.80
386.18	2465.75
386.39	2418.65
386.60	2355.16
386.82	2363.36
387.03	2432.99
387.24	2488.28
387.46	2383.84
387.67	2506.71
387.88	2615.26
388.10	2480.09
388.31	2414.56
388.52	2553.82
388.74	2594.78
388.95	2486.23
389.16	2500.57
389.38	2512.86
389.59	2617.30
389.80	2637.78
390.02	2586.58
390.23	2686.94
390.44	2625.50
390.66	2564.06
390.87	2531.29
391.08	2641.88
391.30	2803.67
391.51	2721.75
391.72	2705.37
391.94	2568.15
392.15	2680.79
392.36	2684.89
392.58	2668.50
392.79	2731.99
393.00	2713.56
393.22	2807.77
393.43	2789.33
393.64	2787.29
393.85	2768.85
394.07	2717.65
394.28	2873.30
394.49	2721.75
394.71	2820.05
394.92	2879.44
395.13	2744.28
395.35	2834.39
395.56	2770.90
395.77	2805.72
395.98	2830.29
396.20	2887.64
396.41	2865.11
396.62	2904.02
396.84	2885.59
397.05	2920.40
397.26	2854.87
397.47	2996.18
397.69	2987.99
397.90	3055.57
398.11	2944.98
398.32	2920.40
398.54	3018.71
398.75	3008.47
398.96	3016.66
399.18	3092.43
399.39	2977.75
399.60	3069.91
399.81	2924.50
400.03	2992.08
400.24	3340.24
400.45	2987.99
400.66	3217.36
400.88	3119.06
401.09	3184.59
401.30	3094.48
401.51	3176.40
401.73	3125.20
401.94	3250.13
402.15	3178.45
402.36	3184.59
402.58	3106.77
402.79	3268.56
403.00	3157.97
403.21	3194.83
403.43	3256.27
403.64	3248.08
403.85	3080.14
404.06	3305.42
404.27	3131.34
404.49	3170.26
404.70	3166.16
404.91	3330.00
405.12	3358.67
405.34	3268.56
405.55	3438.54
405.76	3160.02
405.97	3248.08
406.19	3348.43
406.40	3338.19
406.61	3405.77
406.82	3389.39
407.03	3284.94
407.25	3237.84
407.46	3405.77
407.67	3561.42
407.88	3450.83
408.09	3436.49
408.31	3268.56
408.52	3534.79
408.73	3227.60
408.94	3325.90
409.15	3454.92
409.37	3555.27
409.58	3465.16
409.79	3418.06
410.00	3504.07
410.21	3514.31
410.43	3606.47
410.64	3379.15
410.85	3596.23
411.06	3555.27
411.27	3575.75
411.48	3620.81
411.70	3678.15
411.91	3590.09
412.12	3682.25
412.33	3585.99
412.54	3639.24
412.76	3786.69
412.97	3700.68
413.18	3678.15
413.39	3590.09
413.60	3739.59
413.81	3729.35
414.03	3770.31
414.24	3688.39
414.45	3821.51
414.66	3604.42
414.87	3780.55
415.08	3702.73
415.30	3790.79
415.51	3903.43
415.72	3755.97
415.93	3712.97
416.14	3811.27
416.35	3803.08
416.56	3911.62
416.78	3815.37
416.99	3760.07
417.20	3846.09
417.41	3964.87
417.62	3903.43
417.83	3901.38
418.04	3971.01
418.26	3911.62
418.47	3919.81
418.68	3960.77
418.89	4016.07
419.10	4042.69
419.31	4065.22
419.52	4157.38
419.73	4018.11
419.95	4126.66
420.16	4136.90
420.37	4042.69
420.58	4120.51
420.79	4005.83
421.00	4212.67
421.21	4157.38
421.42	4132.80
421.63	4149.18
421.85	4235.20
422.06	4364.22
422.27	4181.95
422.48	4186.05
422.69	4378.56
422.90	4331.45
423.11	4270.01
423.32	4390.84
423.53	4601.79
423.75	4403.13
423.96	4478.91
424.17	4378.56
424.38	4458.43
424.59	4497.34
424.80	4706.23
425.01	4460.48
425.22	4472.76
425.43	4501.44
425.64	4747.19
425.85	4689.85
426.06	4689.85
426.28	4669.37
426.49	4532.15
426.70	4616.12
426.91	4739.00
427.12	4665.27
427.33	4759.48
427.54	4655.03
427.75	4870.07
427.96	4949.94
428.17	4898.74
428.38	4913.08
428.59	4954.04
428.80	4808.63
429.01	4997.04
429.23	4966.32
429.44	5042.10
429.65	5185.46
429.86	5054.39
430.07	5060.53
430.28	4974.52
430.49	5048.24
430.70	5337.01
430.91	5244.85
431.12	5124.02
431.33	5353.39
431.54	5246.90
431.75	5330.86
431.96	5322.67
432.17	5164.98
432.38	5267.38
432.59	5537.71
432.80	5392.30
433.01	5316.53
433.22	5322.67
433.43	5437.36
433.64	5361.58
433.85	5386.16
434.06	5547.95
434.27	5380.01
434.49	5347.25
434.70	5640.11
434.91	5558.19
435.12	5758.89
435.33	5601.19
435.54	5621.67
435.75	5545.90
435.96	5619.63
436.17	5554.09
436.38	5863.33
436.59	5728.17
436.80	5840.81
437.01	5916.58
437.22	5853.09
437.43	5851.05
437.64	5582.76
437.85	6035.36
438.06	5922.73
438.27	5822.38
438.48	5863.33
438.69	6006.69
438.90	5918.63
439.11	5906.34
439.32	6113.19
439.53	5943.21
439.74	6068.13
439.95	6037.41
440.16	5900.20
440.37	6223.78
440.57	5969.83
440.78	6164.39
440.99	6166.43
441.20	6139.81
441.41	6119.33
441.62	6270.88
441.83	6096.80
442.04	6274.98
442.25	6227.87
442.46	6203.30
442.67	6383.52
442.88	6799.26
443.09	6117.28
443.30	6326.18
443.51	6397.85
443.72	6651.80
443.93	6401.95
444.14	6473.63
444.35	6291.36
444.56	6541.21
444.77	6334.37
444.98	6557.60
445.19	6502.30
445.40	6440.86
445.61	6518.68
445.81	6659.99
446.02	6705.05
446.23	6580.12
446.44	6393.76
446.65	6690.71
446.86	6655.90
447.07	6627.23
447.28	6780.82
447.49	6627.23
447.70	6614.94
447.91	6883.22
448.12	6784.92
448.33	6995.86
448.54	6834.07
448.74	6815.64
448.95	6752.15
449.16	6698.91
449.37	7051.16
449.58	6834.07
449.79	7057.30
450.00	6836.12
450.21	6909.85
450.42	7036.82
450.63	6971.29
450.84	7032.72
451.05	7151.51
451.25	7194.51
451.46	7128.98
451.67	7212.95
451.88	7239.57
452.09	7139.22
452.30	7192.47
452.51	7186.32
452.72	7249.81
452.93	7640.97
453.13	7290.77
453.34	7235.47
453.55	7317.39
453.76	7442.32
453.97	7778.19
454.18	7550.86
454.39	7569.29
454.60	7395.22
454.81	7554.96
455.01	7614.35
455.22	7405.46
455.43	7595.92
455.64	7700.36
455.85	7866.25
456.06	8011.65
456.27	7950.21
456.48	7733.13
456.68	8032.13
456.89	7835.53
457.10	7954.31
457.31	8177.54
457.52	7952.26
457.73	8085.38
457.94	8169.35
458.14	8052.61
458.35	8408.96
458.56	8277.89
458.77	7958.41
458.98	8372.10
459.19	8427.39
459.39	8234.88
459.60	8488.83
459.81	8468.35
460.02	8523.65
460.23	8517.50
460.44	8824.70
460.65	8785.79
460.85	8699.77
461.06	8767.35
461.27	8601.47
461.48	8822.65
461.69	9049.97
461.89	8888.18
462.10	8986.49
462.31	8603.52
462.52	8968.06
462.73	9039.73
462.94	9189.24
463.14	9138.04
463.35	9054.07
463.56	9641.84
463.77	9521.01
463.98	9375.60
464.18	9338.74
464.39	9492.34
464.60	9664.36
464.81	9664.36
465.02	9506.67
465.23	9801.58
465.43	9492.34
465.64	9914.22
465.85	9766.76
466.06	9658.22
466.27	10096.49
466.47	10037.09
466.68	10030.95
466.89	10205.03
467.10	10442.59
467.30	9932.65
467.51	10184.55
467.72	10530.66
467.93	10170.21
468.14	10579.81
468.34	10694.49
468.55	10620.77
468.76	10680.16
468.97	10510.18
469.17	10977.11
469.38	10866.52
469.59	10817.37
469.80	10760.03
470.01	10903.39
470.21	11050.84
470.42	11204.44
470.63	11337.56
470.84	11241.30
471.04	11398.99
471.25	11589.46
471.46	11374.42
471.67	11757.39
471.87	11597.65
472.08	11749.20
472.29	11953.99
472.50	11650.89
472.70	12031.82
472.91	11970.38
473.12	12037.96
473.33	12298.05
473.53	12287.81
473.74	12150.60
473.95	12402.50
474.16	12558.14
474.36	12691.26
474.57	12633.92
474.78	12932.92
474.99	12812.09
475.19	12758.85
475.40	12930.87
475.61	13397.81
475.81	13432.63
476.02	13475.63
476.23	13520.69
476.44	13543.22
476.64	13621.04
476.85	13889.32
477.06	13889.32
477.27	13995.82
477.47	14061.35
477.68	13997.87
477.89	14075.69
478.09	14290.73
478.30	14370.60
478.51	14532.39
478.71	14935.84
478.92	14706.46
479.13	14735.14
479.34	15120.15
479.54	15062.81
479.75	15087.39
479.96	15097.63
480.16	15214.36
480.37	15281.94
480.58	15398.68
480.78	15773.46
480.99	15560.47
481.20	16054.03
481.41	15879.95
481.61	15910.67
481.82	16271.11
482.03	15916.81
482.23	16260.87
482.44	16637.70
482.65	16459.52
482.85	16412.42
483.06	16566.02
483.27	16602.88
483.47	16656.13
483.68	16557.83
483.89	17024.76
484.09	17143.55
484.30	17327.86
484.51	17340.15
484.71	17569.52
484.92	17215.23
485.13	17653.49
485.33	17762.03
485.54	17553.14
485.75	18145.00
485.95	18028.27
486.16	18001.65
486.37	18521.83
486.57	18028.27
486.78	18386.66
486.98	18249.45
487.19	18667.24
487.40	18650.85
487.60	18491.11
487.81	19031.77
488.02	18894.56
488.22	18845.41
488.43	19064.54
488.64	18910.94
488.84	19285.72
489.05	19459.80
489.25	19242.71
489.46	19715.80
489.67	19365.59
489.87	19680.98
490.08	19842.77
490.29	19857.10
490.49	20422.34
490.70	20244.17
490.90	20281.03
491.11	20248.27
491.32	20496.07
491.52	20383.43
491.73	20340.43
491.94	20682.44
492.14	20614.85
492.35	20782.79
492.55	20752.07
492.76	21208.76
492.97	21294.78
493.17	21253.82
493.38	21348.03
493.58	21255.87
493.79	21651.13
494.00	21429.94
494.20	21671.61
494.41	21937.84
494.61	21782.20
494.82	21825.20
495.02	21831.35
495.23	22093.49
495.44	22275.76
495.64	21876.40
495.85	22081.20
496.05	22218.41
496.26	22130.35
496.47	22621.86
496.67	22406.83
496.88	22863.52
497.08	22654.63
497.29	22961.83
497.49	22996.64
497.70	22984.35
497.91	22841.00
498.11	23232.16
498.32	23033.50
498.52	23119.52
498.73	23735.96
498.93	23207.58
499.14	23254.69
499.34	23365.28
499.55	23436.95
499.76	23545.50
499.96	23946.90
500.17	23914.13
500.37	23764.63
500.58	23635.61
500.78	23955.09
500.99	23848.60
501.19	24250.00
501.40	23879.32
501.60	24002.19
501.81	24137.36
502.02	23961.23
502.22	24030.87
502.43	24508.04
502.63	24434.32
502.84	24751.75
503.04	24338.06
503.25	24536.71
503.45	24682.12
503.66	24573.58
503.86	24624.78
504.07	25206.40
504.27	24727.17
504.48	24962.69
504.68	24794.76
504.89	25126.53
505.09	24966.79
505.30	25384.57
505.50	25284.22
505.71	25218.69
505.91	25210.50
506.12	25575.03
506.32	25695.86
506.53	25249.41
506.73	25777.78
506.94	25489.02
507.14	25693.82
507.35	25976.44
507.55	25896.56
507.76	25702.01
507.96	25634.42
508.17	25941.62
508.37	25943.67
508.58	26125.94
508.78	26044.02
508.99	26400.37
509.19	26185.33
509.40	26134.13
509.60	26664.55
509.81	26386.03
510.01	26365.55
510.22	26318.45
510.42	26205.81
510.63	26414.70
510.83	26541.68
511.04	26953.32
511.24	26592.87
511.44	26701.42
511.65	26775.14
511.85	26693.22
512.06	26803.82
512.26	26912.36
512.47	27022.95
512.67	26977.89
512.88	26842.73
513.08	26965.60
513.29	27121.25
513.49	26916.45
513.69	27090.53
513.90	27184.74
514.10	27389.53
514.31	27377.25
514.51	27410.01
514.72	27248.22
514.92	27440.73
515.13	27508.32
515.33	27565.66
515.53	27698.78
515.74	27989.59
515.94	27887.19
516.15	27905.62
516.35	27649.63
516.56	28067.41
516.76	27897.43
516.96	27895.38
517.17	28286.54
517.37	27928.15
517.58	28165.71
517.78	28417.61
517.99	28278.35
518.19	28309.07
518.39	28507.72
518.60	28720.71
518.80	28796.49
519.01	28622.41
519.21	28716.62
519.41	28829.26
519.62	28624.46
519.82	28952.13
520.03	29167.17
520.23	28997.19
520.43	28884.55
520.64	29550.14
520.84	29724.22
521.05	29531.71
521.25	29419.07
521.45	29500.99
521.66	29460.03
521.86	29642.30
522.07	29505.09
522.27	29646.40
522.47	29417.02
522.68	30017.08
522.88	29701.69
523.08	30225.97
523.29	30283.31
523.49	30565.93
523.70	30193.20
523.90	30766.63
524.10	30207.54
524.31	30354.99
524.51	30492.21
524.71	30848.55
524.92	30445.10
525.12	30926.38
525.33	30934.57
525.53	30899.75
525.73	31264.29
525.94	31352.35
526.14	31041.06
526.34	31395.36
526.55	31299.11
526.75	31510.05
526.95	31938.07
527.16	31612.45
527.36	31671.84
527.56	32071.19
527.77	32288.28
527.97	32009.75
528.17	32038.42
528.38	32534.03
528.58	32380.43
528.78	32511.50
528.99	32622.09
529.19	33113.61
529.39	32656.91
529.60	32933.39
529.80	33140.23
530.00	32939.53
530.21	33209.86
530.41	33109.51
530.61	33175.05
530.82	33302.02
531.02	33216.01
531.22	33222.15
531.43	33785.34
531.63	33895.93
531.83	34098.68
532.04	34203.13
532.24	33922.55
532.44	34864.62
532.64	34850.28
532.85	34387.44
533.05	34625.01
533.25	34995.69
533.46	34688.49
533.66	35087.85
533.86	35030.51
534.07	35407.33
534.27	35266.02
534.47	35519.97
534.67	35669.47
534.88	35648.99
535.08	35814.88
535.28	35562.98
535.49	35943.90
535.69	36279.77
535.89	36085.21
536.09	36236.76
536.30	36300.25
536.50	36128.22
536.70	36363.73
536.91	36736.46
537.11	36527.57
537.31	36802.00
537.51	36924.88
537.72	37074.38
537.92	37352.90
538.12	37748.16
538.32	37301.70
538.53	37397.96
538.73	37631.43
538.93	37639.62
539.13	37672.39
539.34	37993.92
539.54	37438.92
539.74	37817.79
539.94	38004.16
540.15	38014.40
540.35	38450.61
540.55	38163.90
540.75	38389.17
540.96	38796.72
541.16	38632.88
541.36	38694.32
541.56	38591.92
541.77	39038.38
541.97	39052.72
542.17	38938.03
542.37	39255.46
542.58	39017.90
542.78	39433.64
542.98	39474.60
543.18	39423.40
543.38	39847.33
543.59	39450.02
543.79	39892.38
543.99	39476.65
544.19	40162.72
544.40	39986.59
544.60	40478.10
544.80	40045.98
545.00	40365.46
545.20	40476.05
545.41	40457.62
545.61	40293.79
545.81	40715.67
546.01	40674.71
546.21	40660.37
546.42	40496.53
546.62	40977.81
546.82	40793.49
547.02	40828.30
547.22	41088.40
547.43	41139.60
547.63	41248.14
547.83	41371.02
548.03	40793.49
548.23	41450.89
548.44	41657.73
548.64	41645.44
548.84	41661.83
549.04	41442.70
549.24	41690.50
549.45	41852.29
549.65	41745.80
549.85	41985.41
550.05	42001.79
550.25	41858.43
550.45	42491.26
550.66	41962.88
550.86	41899.39
551.06	42343.80
551.26	42478.97
551.46	42759.54
551.66	42335.61
551.87	42532.22
552.07	42587.51
552.27	42343.80
552.47	42521.98
552.67	42554.74
552.87	42571.13
553.07	42880.37
553.28	42911.09
553.48	42943.86
553.68	43195.76
553.88	43048.30
554.08	43040.11
554.28	43142.51
554.48	42880.37
554.69	43545.96
554.89	43277.68
555.09	43068.78
555.29	43165.04
555.49	43412.84
555.69	43537.77
555.89	43406.70
556.10	43701.61
556.30	43570.54
556.50	43883.87
556.70	43720.04
556.90	44193.12
557.10	43926.88
557.30	43480.42
557.50	43785.57
557.70	44055.90
557.91	44215.65
558.11	43844.96
558.31	44219.74
558.51	43791.72
558.71	43818.34
558.91	44303.71
559.11	43863.39
559.31	44438.87
559.51	44229.98
559.72	43996.51
559.92	44332.38
560.12	44551.51
560.32	44287.32
560.52	44086.62
560.72	44316.00
560.92	44500.31
561.12	44397.91
561.32	44856.66
561.52	44504.41
561.72	44604.76
561.93	44445.02
562.13	44449.11
562.33	44457.31
562.53	45219.15
562.73	44592.47
562.93	44705.11
563.13	44615.00
563.33	45167.95
563.53	44807.51
563.73	44463.45
563.93	44694.87
564.13	45374.80
564.33	44883.28
564.53	44971.35
564.74	45143.38
564.94	45124.94
565.14	45378.89
565.34	44731.73
565.54	44846.42
565.74	44936.53
565.94	45083.98
566.14	45100.37
566.34	45131.09
566.54	45401.42
566.74	44916.05
566.94	45540.68
567.14	45061.46
567.34	45350.22
567.54	45409.61
567.74	45419.85
567.94	45301.07
568.14	45395.28
568.34	45823.30
568.54	45258.06
568.74	45536.59
568.94	45452.62
569.14	45905.22
569.34	45456.71
569.54	45587.78
569.75	45534.54
569.95	45813.06
570.15	45663.56
570.35	45716.81
570.55	45456.71
570.75	45585.74
570.95	45913.41
571.15	45778.25
571.35	45864.26
571.55	45942.08
571.75	45772.10
571.95	46077.25
572.15	45282.64
572.35	45751.62
572.55	45993.28
572.75	45673.80
572.95	45786.44
573.15	46007.62
573.35	45937.99
573.55	46265.66
573.75	46300.48
573.95	46052.67
574.15	46232.89
574.35	46312.77
574.55	45921.60
574.75	46095.68
574.95	46691.64
575.15	45989.19
575.34	46605.62
575.54	46617.91
575.74	46447.93
575.94	46437.69
576.14	46366.01
576.34	46515.51
576.54	47234.35
576.74	46884.15
576.94	46423.36
577.14	46605.62
577.34	46849.33
577.54	47076.66
577.74	46914.87
577.94	46849.33
578.14	47009.07
578.34	46935.35
578.54	46187.84
578.74	46630.20
578.94	47224.11
579.14	46835.00
579.34	46964.02
579.54	46900.53
579.74	47404.33
579.94	46955.83
580.13	47441.20
580.33	47197.49
580.53	47711.53
580.73	47332.65
580.93	47232.30
581.13	47035.70
581.33	47353.13
581.53	47709.48
581.73	47396.14
581.93	47484.20
582.13	47469.87
582.33	47615.27
582.53	47947.04
582.73	47551.79
582.92	48188.70
583.12	47891.75
583.32	47815.97
583.52	48080.16
583.72	48035.11
583.92	47500.59
584.12	48157.99
584.32	48522.52
584.52	47926.56
584.72	48172.32
584.92	48342.30
585.11	48583.96
585.31	48192.80
585.51	48633.11
585.71	48080.16
585.91	48973.08
586.11	48276.77
586.31	48358.69
586.51	48381.21
586.71	48346.40
586.91	48868.63
587.10	48905.49
587.30	49065.24
587.50	48682.27
587.70	48997.65
587.90	48858.39
588.10	48809.24
588.30	48860.44
588.50	49227.02
