SpectraSuite Data File
++++++++++++++++++++++++++++++++++++
Date: Fri Jun 02 14:52:23 CEST 2017
User: INFO_000
Dark Spectrum Present: No
Reference Spectrum Present: No
Number of Sampled Component Spectra: 1
Spectrometers: USB4H00879
Integration Time (usec): 80000 (USB4H00879)
Spectra Averaged: 1 (USB4H00879)
Boxcar Smoothing: 0 (USB4H00879)
Correct for Electrical Dark: No (USB4H00879)
Strobe/Lamp Enabled: No (USB4H00879)
Correct for Detector Non-linearity: No (USB4H00879)
Correct for Stray Light: No (USB4H00879)
Number of Pixels in Processed Spectrum: 3648
>>>>>Begin Processed Spectral Data<<<<<
345.13	1247.21
345.34	1247.21
345.56	1247.21
345.78	1279.98
345.99	1275.88
346.21	1705.96
346.42	1728.49
346.64	1665.00
346.86	1761.25
347.07	1679.33
347.29	1804.26
347.50	1568.74
347.72	1695.72
347.94	1744.87
348.15	1562.60
348.37	1658.85
348.59	1605.61
348.80	1673.19
349.02	1748.97
349.23	1875.94
349.45	1818.60
349.67	1818.60
349.88	1781.73
350.10	2000.87
350.31	1871.84
350.53	1812.45
350.75	1880.04
350.96	1748.97
351.18	1843.17
351.39	1837.03
351.61	1798.12
351.82	1890.28
352.04	1898.47
352.26	1849.32
352.47	1843.17
352.69	1906.66
352.90	1730.53
353.12	1837.03
353.34	1853.41
353.55	1968.10
353.77	1931.23
353.98	1884.13
354.20	1814.50
354.41	1890.28
354.63	1875.94
354.85	2017.25
355.06	1888.23
355.28	1771.49
355.49	1961.95
355.71	1871.84
355.92	1865.70
356.14	1896.42
356.35	1894.37
356.57	1839.08
356.79	1966.05
357.00	1877.99
357.22	1994.72
357.43	1863.65
357.65	1908.71
357.86	1826.79
358.08	1908.71
358.29	1910.75
358.51	1937.38
358.72	1982.43
358.94	1949.67
359.16	1904.61
359.37	1912.80
359.59	1939.43
359.80	1961.95
360.02	1918.95
360.23	1943.52
360.45	2054.11
360.66	1896.42
360.88	1822.69
361.09	1929.19
361.31	2023.39
361.52	1955.81
361.74	2084.83
361.95	2052.06
362.17	1927.14
362.38	2138.08
362.60	2084.83
362.81	1994.72
363.03	1943.52
363.24	1945.57
363.46	2002.91
363.67	1916.90
363.89	1990.63
364.10	1988.58
364.32	2023.39
364.53	2050.02
364.75	1945.57
364.96	2007.01
365.18	2002.91
365.39	1947.62
365.61	2015.20
365.82	2113.50
366.04	2009.06
366.25	1923.04
366.47	2052.06
366.68	2000.87
366.90	1937.38
367.11	2099.17
367.33	2093.02
367.54	2066.40
367.76	1972.19
367.97	2133.98
368.19	2019.30
368.40	2158.56
368.62	1974.24
368.83	2039.78
369.05	2172.89
369.26	1964.00
369.48	2019.30
369.69	2058.21
369.91	2050.02
370.12	1992.67
370.33	2115.55
370.55	2062.30
370.76	2056.16
370.98	2103.26
371.19	2097.12
371.41	2131.94
371.62	2068.45
371.84	1978.34
372.05	2174.94
372.27	2023.39
372.48	2174.94
372.69	2088.93
372.91	2199.52
373.12	2174.94
373.34	2174.94
373.55	2160.61
373.77	2144.22
373.98	2080.74
374.20	2172.89
374.41	2310.11
374.62	2138.08
374.84	2142.18
375.05	2207.71
375.27	2168.80
375.48	2181.09
375.70	2142.18
375.91	2236.38
376.12	2322.40
376.34	2201.57
376.55	2107.36
376.77	2189.28
376.98	2109.41
377.19	2148.32
377.41	2273.25
377.62	2193.37
377.84	2256.86
378.05	2310.11
378.27	2209.76
378.48	2256.86
378.69	2432.99
378.91	2344.92
379.12	2306.01
379.34	2281.44
379.55	2269.15
379.76	2289.63
379.98	2320.35
380.19	2211.81
380.41	2236.38
380.62	2351.07
380.83	2244.57
381.05	2150.37
381.26	2467.80
381.47	2179.04
381.69	2308.06
381.90	2420.70
382.12	2340.83
382.33	2254.81
382.54	2334.68
382.76	2383.84
382.97	2400.22
383.19	2209.76
383.40	2404.32
383.61	2299.87
383.83	2197.47
384.04	2369.50
384.25	2320.35
384.47	2344.92
384.68	2453.47
384.89	2398.17
385.11	2306.01
385.32	2435.03
385.54	2355.16
385.75	2379.74
385.96	2471.90
386.18	2467.80
386.39	2400.22
386.60	2490.33
386.82	2410.46
387.03	2359.26
387.24	2494.43
387.46	2449.37
387.67	2553.82
387.88	2529.24
388.10	2435.03
388.31	2441.18
388.52	2512.86
388.74	2607.06
388.95	2568.15
389.16	2525.15
389.38	2523.10
389.59	2580.44
389.80	2654.17
390.02	2531.29
390.23	2656.22
390.44	2562.01
390.66	2590.68
390.87	2588.63
391.08	2645.98
391.30	2695.13
391.51	2627.54
391.72	2680.79
391.94	2754.52
392.15	2607.06
392.36	2652.12
392.58	2654.17
392.79	2719.70
393.00	2766.81
393.22	2772.95
393.43	2721.75
393.64	2854.87
393.85	2830.29
394.07	2713.56
394.28	2770.90
394.49	2736.09
394.71	2731.99
394.92	2918.36
395.13	2766.81
395.35	2772.95
395.56	2820.05
395.77	2822.10
395.98	2854.87
396.20	2928.60
396.41	2906.07
396.62	2818.00
396.84	2768.85
397.05	2822.10
397.26	2936.79
397.47	2953.17
397.69	2807.77
397.90	3102.67
398.11	2904.02
398.32	2914.26
398.54	2826.20
398.75	2906.07
398.96	3033.04
399.18	3028.95
399.39	3022.80
399.60	3037.14
399.81	2979.79
400.03	2973.65
400.24	3248.08
400.45	3096.53
400.66	3114.96
400.88	3045.33
401.09	3217.36
401.30	3049.43
401.51	3213.26
401.73	3207.12
401.94	3215.31
402.15	3172.30
402.36	3084.24
402.58	3227.60
402.79	3108.82
403.00	3217.36
403.21	3248.08
403.43	3260.37
403.64	3266.51
403.85	3143.63
404.06	3325.90
404.27	3063.76
404.49	3149.78
404.70	3213.26
404.91	3311.57
405.12	3323.85
405.34	3284.94
405.55	3514.31
405.76	3164.11
405.97	3229.65
406.19	3405.77
406.40	3266.51
406.61	3418.06
406.82	3434.44
407.03	3338.19
407.25	3307.47
407.46	3467.21
407.67	3375.05
407.88	3461.07
408.09	3473.36
408.31	3346.38
408.52	3395.53
408.73	3350.48
408.94	3426.25
409.15	3420.11
409.37	3499.98
409.58	3502.03
409.79	3477.45
410.00	3585.99
410.21	3493.83
410.43	3520.46
410.64	3471.31
410.85	3532.75
411.06	3516.36
411.27	3661.77
411.48	3555.27
411.70	3516.36
411.91	3577.80
412.12	3635.14
412.33	3645.38
412.54	3606.47
412.76	3637.19
412.97	3751.88
413.18	3504.07
413.39	3577.80
413.60	3645.38
413.81	3702.73
414.03	3618.76
414.24	3749.83
414.45	3846.09
414.66	3698.63
414.87	3792.84
415.08	3760.07
415.30	3727.30
415.51	3854.28
415.72	3817.41
415.93	3844.04
416.14	3889.09
416.35	3893.19
416.56	3846.09
416.78	3835.85
416.99	3938.24
417.20	3848.13
417.41	4032.45
417.62	3901.38
417.83	4067.27
418.04	3960.77
418.26	4065.22
418.47	3928.00
418.68	4077.51
418.89	4030.40
419.10	4143.04
419.31	3942.34
419.52	4134.85
419.73	4149.18
419.95	4181.95
420.16	4044.74
420.37	3948.48
420.58	4263.87
420.79	3989.44
421.00	4163.52
421.21	4294.59
421.42	4079.55
421.63	4177.86
421.85	4136.90
422.06	4165.57
422.27	4235.20
422.48	4102.08
422.69	4284.35
422.90	4356.03
423.11	4409.28
423.32	4292.54
423.53	4413.37
423.75	4405.18
423.96	4548.54
424.17	4511.68
424.38	4622.27
424.59	4489.15
424.80	4517.82
425.01	4480.96
425.22	4517.82
425.43	4476.86
425.64	4669.37
425.85	4591.55
426.06	4583.35
426.28	4640.70
426.49	4646.84
426.70	4628.41
426.91	4657.08
427.12	4689.85
427.33	4685.75
427.54	4706.23
427.75	4730.81
427.96	4870.07
428.17	4773.82
428.38	4884.41
428.59	4947.89
428.80	4847.54
429.01	4958.13
429.23	4874.17
429.44	5109.68
429.65	4968.37
429.86	4966.32
430.07	5021.62
430.28	4870.07
430.49	5019.57
430.70	5054.39
430.91	5113.78
431.12	5070.77
431.33	5236.66
431.54	5220.27
431.75	5281.71
431.96	5150.64
432.17	5160.88
432.38	5242.80
432.59	5474.22
432.80	5261.23
433.01	5490.60
433.22	5468.08
433.43	5439.40
433.64	5310.38
433.85	5328.81
434.06	5533.61
434.27	5382.06
434.49	5468.08
434.70	5595.05
434.91	5609.39
435.12	5500.84
435.33	5472.17
435.54	5504.94
435.75	5420.97
435.96	5638.06
436.17	5396.40
436.38	5545.90
436.59	5541.80
436.80	5439.40
437.01	5785.51
437.22	5812.14
437.43	5728.17
437.64	5586.86
437.85	5877.67
438.06	5681.07
438.27	5615.53
438.48	5769.13
438.69	5861.29
438.90	5797.80
439.11	5785.51
439.32	5853.09
439.53	5769.13
439.74	5941.16
439.95	5926.82
440.16	5783.46
440.37	5887.91
440.57	5791.66
440.78	6057.89
440.99	6037.41
441.20	6131.62
441.41	6064.04
441.62	6127.52
441.83	5988.26
442.04	6191.01
442.25	6080.42
442.46	6115.23
442.67	6344.61
442.88	6633.37
443.09	6090.66
443.30	6154.15
443.51	6320.03
443.72	6469.53
443.93	6289.31
444.14	6490.01
444.35	6332.32
444.56	6455.20
444.77	6207.39
444.98	6348.70
445.19	6526.88
445.40	6330.27
445.61	6320.03
445.81	6649.75
446.02	6547.36
446.23	6567.84
446.44	6375.33
446.65	6504.35
446.86	6559.64
447.07	6664.09
447.28	6758.30
447.49	6688.67
447.70	6700.95
447.91	6764.44
448.12	6772.63
448.33	6942.61
448.54	6877.08
448.74	6772.63
448.95	6965.14
449.16	6854.55
449.37	7137.17
449.58	6952.85
449.79	7090.07
450.00	6907.80
450.21	6864.79
450.42	7135.12
450.63	7178.13
450.84	7016.34
451.05	7108.50
451.25	7022.48
451.46	6924.18
451.67	7307.15
451.88	7370.64
452.09	7477.13
452.30	7317.39
452.51	7235.47
452.72	7356.30
452.93	7565.20
453.13	7270.29
453.34	7284.62
453.55	7481.23
453.76	7421.84
453.97	7706.51
454.18	7493.52
454.39	7745.42
454.60	7606.16
454.81	7653.26
455.01	7704.46
455.22	7540.62
455.43	7704.46
455.64	7942.02
455.85	8005.51
456.06	8114.05
456.27	7956.36
456.48	7954.31
456.68	7999.37
456.89	8048.52
457.10	8075.14
457.31	8275.84
457.52	8179.59
457.73	8226.69
457.94	8351.62
458.14	8052.61
458.35	8408.96
458.56	8363.90
458.77	8507.26
458.98	8529.79
459.19	8425.34
459.39	8710.01
459.60	8675.20
459.81	8556.41
460.02	8722.30
460.23	8662.91
460.44	8775.55
460.65	8820.60
460.85	8916.86
461.06	8779.64
461.27	8763.26
461.48	9086.84
461.69	9135.99
461.89	8904.57
462.10	9088.89
462.31	8826.75
462.52	9031.54
462.73	9101.17
462.94	9394.03
463.14	9275.25
463.35	9228.15
463.56	9623.41
463.77	9658.22
463.98	9385.84
464.18	9492.34
464.39	9623.41
464.60	9891.69
464.81	9639.79
465.02	9770.86
465.23	9992.04
465.43	9854.83
465.64	9889.64
465.85	10004.33
466.06	9924.46
466.27	10280.80
466.47	10213.22
466.68	10092.39
466.89	10106.73
467.10	10346.34
467.30	10065.77
467.51	10366.82
467.72	10717.02
467.93	10248.04
468.14	10610.53
468.34	10612.57
468.55	10542.94
468.76	10602.33
468.97	10522.46
469.17	10788.70
469.38	11038.55
469.59	11032.41
469.80	10936.15
470.01	11126.61
470.21	11042.65
470.42	11323.22
470.63	11470.67
470.84	11415.38
471.04	11454.29
471.25	11515.73
471.46	11628.37
471.67	11712.33
471.87	11624.27
472.08	11675.47
472.29	11867.98
472.50	11745.10
472.70	11700.05
472.91	11661.13
473.12	12201.80
473.33	12066.63
473.53	12298.05
473.74	12160.84
473.95	12490.56
474.16	12670.78
474.36	12496.71
474.57	12457.79
474.78	12934.97
474.99	12633.92
475.19	12871.48
475.40	12932.92
475.61	12977.98
475.81	13174.58
476.02	13266.74
476.23	13117.24
476.44	13117.24
476.64	13518.64
476.85	13782.83
477.06	13434.68
477.27	13868.84
477.47	13887.28
477.68	13860.65
477.89	14180.14
478.09	13997.87
478.30	14110.50
478.51	14352.16
478.71	14130.98
478.92	14542.63
479.13	14645.02
479.34	14745.38
479.54	14593.83
479.75	14642.98
479.96	14858.01
480.16	14880.54
480.37	15062.81
480.58	15308.57
480.78	15509.27
480.99	15292.18
481.20	15531.80
481.41	15640.34
481.61	15542.03
481.82	15761.17
482.03	15556.37
482.23	15408.92
482.44	15816.46
482.65	16103.18
482.85	16379.65
483.06	15986.44
483.27	16199.43
483.47	16199.43
483.68	16277.26
483.89	16504.58
484.09	16707.33
484.30	16854.78
484.51	17075.96
484.71	16901.89
484.92	16985.85
485.13	17080.06
485.33	17266.42
485.54	17147.64
485.75	17612.53
485.95	17577.72
486.16	17696.50
486.37	17829.62
486.57	17725.17
486.78	17774.32
486.98	17940.21
487.19	18231.02
487.40	18302.70
487.60	18188.01
487.81	18777.83
488.02	18263.79
488.22	18503.40
488.43	18495.21
488.64	18697.95
488.84	18654.95
489.05	19269.34
489.25	19072.73
489.46	19205.85
489.67	18970.33
489.87	19320.54
490.08	19308.25
490.29	19429.08
490.49	19791.57
490.70	19623.64
490.90	19916.50
491.11	19844.82
491.32	20004.56
491.52	20160.20
491.73	20162.25
491.94	20467.40
492.14	20266.70
492.35	20541.13
492.55	20412.10
492.76	20805.31
492.97	20913.86
493.17	20825.79
493.38	20477.64
493.58	21302.97
493.79	21188.28
494.00	21112.51
494.20	21298.88
494.41	21518.01
494.61	21427.90
494.82	21481.14
495.02	21368.51
495.23	21755.57
495.44	21544.63
495.64	22095.53
495.85	22040.24
496.05	22169.26
496.26	22296.24
496.47	22619.81
496.67	22238.89
496.88	22671.01
497.08	21968.56
497.29	22603.43
497.49	22599.34
497.70	22789.80
497.91	22859.43
498.11	23080.61
498.32	23019.17
498.52	23207.58
498.73	23152.29
498.93	23551.64
499.14	23352.99
499.34	23500.44
499.55	24022.67
499.76	23531.16
499.96	23789.20
500.17	23821.97
500.37	23893.65
500.58	24010.39
500.78	23721.62
500.99	23959.19
501.19	24383.12
501.40	24057.49
501.60	24252.05
501.81	24368.78
502.02	24331.92
502.22	24211.09
502.43	24673.93
502.63	24637.06
502.84	24680.07
503.04	24587.91
503.25	24403.60
503.45	24692.36
503.66	24917.64
503.86	24915.59
504.07	25101.95
504.27	25040.51
504.48	25714.30
504.68	25136.77
504.89	25515.64
505.09	25474.68
505.30	25609.85
505.50	25329.28
505.71	25609.85
505.91	25800.31
506.12	25931.38
506.32	25704.06
506.53	26134.13
506.73	25831.03
506.94	26011.25
507.14	25874.04
507.35	25945.72
507.55	26252.91
507.76	26289.77
507.96	26048.11
508.17	26123.89
508.37	26392.17
508.58	26414.70
508.78	26416.75
508.99	26396.27
509.19	26363.50
509.40	26697.32
509.60	26623.59
509.81	26721.90
510.01	26887.78
510.22	26859.11
510.42	26855.01
510.63	26941.03
510.83	27022.95
511.04	26752.62
511.24	27346.53
511.44	26898.02
511.65	27256.42
511.85	27272.80
512.06	27115.11
512.26	27334.24
512.47	27371.10
512.67	27104.87
512.88	27551.32
513.08	27446.88
513.29	27397.73
513.49	27668.06
513.69	27100.77
513.90	27637.34
514.10	27803.22
514.31	27866.71
514.51	27729.50
514.72	27690.59
514.92	28012.12
515.13	27727.45
515.33	28032.60
515.53	28329.55
515.74	27928.15
515.94	28108.37
516.15	28280.40
516.35	28159.57
516.56	28333.65
516.76	28145.23
516.96	28479.05
517.17	28683.85
517.37	28640.84
517.58	28603.98
517.78	28665.42
517.99	28890.70
518.19	28749.39
518.39	28804.68
518.60	28952.13
518.80	28780.10
519.01	29097.54
519.21	28982.85
519.41	29019.72
519.62	29156.93
519.82	29189.70
520.03	29513.28
520.23	29328.96
520.43	29308.48
520.64	29541.95
520.84	29642.30
521.05	29523.52
521.25	29754.94
521.45	29965.88
521.66	30021.17
521.86	29509.18
522.07	29912.63
522.27	29826.62
522.47	30023.22
522.68	30225.97
522.88	29910.58
523.08	30361.14
523.29	30199.35
523.49	30455.34
523.70	30305.84
523.90	30496.30
524.10	30686.76
524.31	30301.75
524.51	30785.07
524.71	30897.70
524.92	30891.56
525.12	30922.28
525.33	30979.62
525.53	31321.63
525.73	31309.35
525.94	31303.20
526.14	31292.96
526.34	31501.86
526.55	31360.55
526.75	31559.20
526.95	31946.26
527.16	31596.06
527.36	31602.21
527.56	32130.58
527.77	32179.73
527.97	32132.63
528.17	32671.25
528.38	32876.04
528.58	32407.06
528.78	32333.33
528.99	32521.74
529.19	32677.39
529.39	32626.19
529.60	32550.42
529.80	32951.82
530.00	32620.05
530.21	32992.78
530.41	33232.39
530.61	32945.67
530.82	33428.99
531.02	33547.78
531.22	33312.26
531.43	33598.98
531.63	33953.27
531.83	34061.82
532.04	34117.11
532.24	34024.95
532.44	33838.59
532.64	34600.43
532.85	34694.64
533.05	34219.51
533.25	34559.47
533.46	34770.41
533.66	34694.64
533.86	34412.02
534.07	35182.06
534.27	34846.19
534.47	35184.10
534.67	35239.40
534.88	34811.37
535.08	35003.88
535.28	35368.42
535.49	35610.08
535.69	35982.81
535.89	35669.47
536.09	35597.79
536.30	36191.70
536.50	36267.48
536.70	36459.99
536.91	36380.12
537.11	36480.47
537.31	36558.29
537.51	36492.76
537.72	37164.49
537.92	36840.91
538.12	37133.77
538.32	37221.83
538.53	37127.63
538.73	37000.65
538.93	37129.67
539.13	37412.29
539.34	37135.82
539.54	36953.55
539.74	37617.09
539.94	37543.36
540.15	37420.48
540.35	37782.98
540.55	37934.53
540.75	37651.91
540.96	38120.89
541.16	38155.71
541.36	38278.58
541.56	38321.59
541.77	38260.15
541.97	38432.18
542.17	38413.75
542.37	38589.88
542.58	38612.40
542.78	38776.24
542.98	38630.83
543.18	39042.48
543.38	39185.83
543.59	39476.65
543.79	39470.50
543.99	39359.91
544.19	39642.53
544.40	39269.80
544.60	39533.99
544.80	39577.00
545.00	39679.39
545.20	39712.16
545.41	39509.41
545.61	39574.95
545.81	40076.70
546.01	40213.91
546.21	40043.93
546.42	39904.67
546.62	40336.79
546.82	40015.26
547.02	40396.18
547.22	40244.63
547.43	40172.96
547.63	40666.52
547.83	40818.07
548.03	40510.87
548.23	40553.88
548.44	40721.81
548.64	40607.12
548.84	40713.62
549.04	40740.24
549.24	40928.66
549.45	41098.64
549.65	40789.39
549.85	41241.99
550.05	41819.52
550.25	41282.95
550.45	42163.58
550.66	41239.95
550.86	41448.84
551.06	41545.09
551.26	41532.81
551.46	41770.37
551.66	42014.08
551.87	41813.38
552.07	41958.78
552.27	41772.42
552.47	42288.51
552.67	41751.94
552.87	42268.03
553.07	41893.25
553.28	42083.71
553.48	42456.44
553.68	41805.19
553.88	42497.40
554.08	42313.08
554.28	42296.70
554.48	42411.38
554.69	42210.68
554.89	42669.43
555.09	42567.03
555.29	42503.54
555.49	42575.22
555.69	42876.27
555.89	42890.61
556.10	42749.30
556.30	42640.76
556.50	43355.50
556.70	42853.75
556.90	42980.72
557.10	43214.19
557.30	43070.83
557.50	43316.59
557.70	43242.86
557.91	43175.28
558.11	43439.47
558.31	43591.01
558.51	43461.99
558.71	43554.15
558.91	43443.56
559.11	43292.01
559.31	43220.33
559.51	43371.88
559.72	43674.98
559.92	43660.65
560.12	43605.35
560.32	43677.03
560.52	43482.47
560.72	43697.51
560.92	43765.09
561.12	43830.63
561.32	43992.42
561.52	43738.47
561.72	43892.07
561.93	44205.41
562.13	44094.82
562.33	44143.97
562.53	44338.52
562.73	43769.19
562.93	44172.64
563.13	44234.08
563.33	44424.54
563.53	44807.51
563.73	44141.92
563.93	44213.60
564.13	45004.11
564.33	44467.55
564.53	44242.27
564.74	44471.64
564.94	44307.80
565.14	44442.97
565.34	44406.11
565.54	44625.24
565.74	44776.79
565.94	44881.24
566.14	44651.86
566.34	44868.95
566.54	45311.31
566.74	44735.83
566.94	44825.94
567.14	44897.62
567.34	44494.17
567.54	44631.38
567.74	44772.69
567.94	44963.15
568.14	45151.57
568.34	45006.16
568.54	44944.72
568.74	45421.90
568.94	44942.67
569.14	45143.38
569.34	45307.21
569.54	45178.19
569.75	45038.93
569.95	45372.75
570.15	45706.57
570.35	45217.10
570.55	45237.58
570.75	45661.51
570.95	45184.33
571.15	45178.19
571.35	45524.30
571.55	45636.94
571.75	45413.71
571.95	45901.12
572.15	45462.86
572.35	45929.80
572.55	45622.60
572.75	45880.64
572.95	45997.38
573.15	45698.37
573.35	45880.64
573.55	45921.60
573.75	46079.30
573.95	45872.45
574.15	46058.82
574.35	45897.03
574.55	45991.23
574.75	45755.72
574.95	45937.99
575.15	45968.71
575.34	46101.82
575.54	46347.58
575.74	46267.71
575.94	46298.43
576.14	46370.11
576.34	46579.00
576.54	46441.79
576.74	46556.47
576.94	46298.43
577.14	46564.67
577.34	46753.08
577.54	46609.72
577.74	46751.03
577.94	46390.59
578.14	46642.49
578.34	47007.03
578.54	46245.18
578.74	47043.89
578.94	47043.89
579.14	46658.87
579.34	46687.54
579.54	46591.29
579.74	47281.45
579.94	47039.79
580.13	47357.23
580.33	47256.88
580.53	47228.21
580.73	47267.12
580.93	47070.51
581.13	47170.86
581.33	47510.83
581.53	47605.03
581.73	47437.10
581.93	47547.69
582.13	47539.50
582.33	47543.59
582.53	47617.32
582.73	47824.17
582.92	47707.43
583.12	48076.07
583.32	47854.89
583.52	47871.27
583.72	48080.16
583.92	47695.14
584.12	48026.92
584.32	48313.63
584.52	47934.76
584.72	48217.38
584.92	48346.40
585.11	48751.90
585.31	48469.28
585.51	48772.38
585.71	48389.41
585.91	48848.15
586.11	48244.00
586.31	48252.19
586.51	48483.61
586.71	48719.13
586.91	48960.79
587.10	48786.71
587.30	48956.69
587.50	48907.54
587.70	49069.33
587.90	48833.81
588.10	49011.99
588.30	49026.32
588.50	49163.54
