SpectraSuite Data File
++++++++++++++++++++++++++++++++++++
Date: Fri Jun 02 14:52:28 CEST 2017
User: INFO_000
Dark Spectrum Present: No
Reference Spectrum Present: No
Number of Sampled Component Spectra: 1
Spectrometers: USB4H00879
Integration Time (usec): 80000 (USB4H00879)
Spectra Averaged: 1 (USB4H00879)
Boxcar Smoothing: 0 (USB4H00879)
Correct for Electrical Dark: No (USB4H00879)
Strobe/Lamp Enabled: No (USB4H00879)
Correct for Detector Non-linearity: No (USB4H00879)
Correct for Stray Light: No (USB4H00879)
Number of Pixels in Processed Spectrum: 3648
>>>>>Begin Processed Spectral Data<<<<<
345.13	1296.36
345.34	1296.36
345.56	1296.36
345.78	1261.55
345.99	1257.45
346.21	1722.34
346.42	1675.24
346.64	1687.53
346.86	1798.12
347.07	1671.14
347.29	1708.01
347.50	1626.09
347.72	1675.24
347.94	1759.21
348.15	1535.98
348.37	1564.65
348.59	1685.48
348.80	1677.29
349.02	1742.82
349.23	1871.84
349.45	1773.54
349.67	1873.89
349.88	1865.70
350.10	2037.73
350.31	1841.12
350.53	1849.32
350.75	1920.99
350.96	1839.08
351.18	1851.36
351.39	1867.75
351.61	1775.59
351.82	1939.43
352.04	1873.89
352.26	1853.41
352.47	1955.81
352.69	1943.52
352.90	1765.35
353.12	1810.40
353.34	1812.45
353.55	1970.15
353.77	1865.70
353.98	1900.52
354.20	1867.75
354.41	1978.34
354.63	1953.76
354.85	2031.58
355.06	1888.23
355.28	1806.31
355.49	1908.71
355.71	1837.03
355.92	1912.80
356.14	1918.95
356.35	1865.70
356.57	1896.42
356.79	1892.32
357.00	1945.57
357.22	2056.16
357.43	1871.84
357.65	2033.63
357.86	1855.46
358.08	1939.43
358.29	1912.80
358.51	1951.71
358.72	1996.77
358.94	1974.24
359.16	2002.91
359.37	1966.05
359.59	1992.67
359.80	2009.06
360.02	1888.23
360.23	1939.43
360.45	1996.77
360.66	1957.86
360.88	1869.80
361.09	1828.84
361.31	1998.82
361.52	1984.48
361.74	2043.87
361.95	2082.78
362.17	1984.48
362.38	2078.69
362.60	2015.20
362.81	2017.25
363.03	1935.33
363.24	2033.63
363.46	2013.15
363.67	2078.69
363.89	1964.00
364.10	2037.73
364.32	1982.43
364.53	2105.31
364.75	1986.53
364.96	2068.45
365.18	1961.95
365.39	1955.81
365.61	1998.82
365.82	2052.06
366.04	2041.82
366.25	2002.91
366.47	2033.63
366.68	2062.30
366.90	1996.77
367.11	2107.36
367.33	2133.98
367.54	2050.02
367.76	2031.58
367.97	2084.83
368.19	2045.92
368.40	2136.03
368.62	2011.11
368.83	1951.71
369.05	2068.45
369.26	1888.23
369.48	1982.43
369.69	2062.30
369.91	2058.21
370.12	1998.82
370.33	2093.02
370.55	1920.99
370.76	2056.16
370.98	2084.83
371.19	2041.82
371.41	2115.55
371.62	2125.79
371.84	1947.62
372.05	2150.37
372.27	2090.98
372.48	2066.40
372.69	2170.85
372.91	2215.90
373.12	2131.94
373.34	2033.63
373.55	2158.56
373.77	2215.90
373.98	2037.73
374.20	2269.15
374.41	2164.70
374.62	2066.40
374.84	2193.37
375.05	2185.18
375.27	2158.56
375.48	2213.85
375.70	2150.37
375.91	2174.94
376.12	2320.35
376.34	2211.81
376.55	2222.05
376.77	2260.96
376.98	2127.84
377.19	2150.37
377.41	2160.61
377.62	2263.01
377.84	2197.47
378.05	2346.97
378.27	2170.85
378.48	2369.50
378.69	2389.98
378.91	2314.20
379.12	2346.97
379.34	2265.05
379.55	2320.35
379.76	2363.36
379.98	2222.05
380.19	2279.39
380.41	2336.73
380.62	2285.53
380.83	2181.09
381.05	2234.33
381.26	2389.98
381.47	2203.61
381.69	2342.88
381.90	2447.32
382.12	2295.77
382.33	2310.11
382.54	2297.82
382.76	2363.36
382.97	2328.54
383.19	2306.01
383.40	2367.45
383.61	2342.88
383.83	2369.50
384.04	2414.56
384.25	2351.07
384.47	2349.02
384.68	2353.12
384.89	2320.35
385.11	2389.98
385.32	2400.22
385.54	2396.12
385.75	2480.09
385.96	2406.36
386.18	2467.80
386.39	2498.52
386.60	2394.08
386.82	2502.62
387.03	2506.71
387.24	2465.75
387.46	2537.43
387.67	2482.14
387.88	2525.15
388.10	2414.56
388.31	2514.91
388.52	2586.58
388.74	2574.30
388.95	2539.48
389.16	2494.43
389.38	2494.43
389.59	2539.48
389.80	2660.31
390.02	2576.34
390.23	2711.51
390.44	2580.44
390.66	2643.93
390.87	2568.15
391.08	2705.37
391.30	2576.34
391.51	2736.09
391.72	2695.13
391.94	2729.94
392.15	2676.70
392.36	2668.50
392.58	2584.54
392.79	2654.17
393.00	2729.94
393.22	2772.95
393.43	2758.61
393.64	2787.29
393.85	2805.72
394.07	2713.56
394.28	2701.27
394.49	2815.96
394.71	2846.68
394.92	2832.34
395.13	2807.77
395.35	2850.77
395.56	2754.52
395.77	2760.66
395.98	2891.73
396.20	2873.30
396.41	2813.91
396.62	2895.83
396.84	2834.39
397.05	2760.66
397.26	2996.18
397.47	3012.56
397.69	2877.40
397.90	3033.04
398.11	2922.45
398.32	2969.55
398.54	2805.72
398.75	2994.13
398.96	2998.23
399.18	3024.85
399.39	2942.93
399.60	3057.62
399.81	2983.89
400.03	2949.08
400.24	3235.79
400.45	3016.66
400.66	3020.75
400.88	3008.47
401.09	3248.08
401.30	3104.72
401.51	3094.48
401.73	3182.54
401.94	3133.39
402.15	3051.47
402.36	3063.76
402.58	3205.07
402.79	3172.30
403.00	3264.46
403.21	3321.81
403.43	3209.17
403.64	3264.46
403.85	3205.07
404.06	3268.56
404.27	3157.97
404.49	3153.87
404.70	3194.83
404.91	3268.56
405.12	3252.17
405.34	3301.33
405.55	3356.62
405.76	3215.31
405.97	3297.23
406.19	3280.85
406.40	3260.37
406.61	3383.24
406.82	3418.06
407.03	3194.83
407.25	3332.05
407.46	3424.20
407.67	3438.54
407.88	3459.02
408.09	3323.85
408.31	3403.72
408.52	3301.33
408.73	3389.39
408.94	3391.44
409.15	3573.71
409.37	3499.98
409.58	3577.80
409.79	3385.29
410.00	3547.08
410.21	3616.71
410.43	3416.01
410.64	3516.36
410.85	3456.97
411.06	3585.99
411.27	3569.61
411.48	3663.82
411.70	3499.98
411.91	3608.52
412.12	3721.16
412.33	3520.46
412.54	3596.23
412.76	3792.84
412.97	3594.19
413.18	3639.24
413.39	3606.47
413.60	3717.06
413.81	3731.40
414.03	3710.92
414.24	3680.20
414.45	3801.03
414.66	3577.80
414.87	3745.73
415.08	3815.37
415.30	3766.21
415.51	3887.04
415.72	3825.61
415.93	3774.41
416.14	3878.85
416.35	3925.96
416.56	3885.00
416.78	3925.96
416.99	3858.37
417.20	3948.48
417.41	3928.00
417.62	3925.96
417.83	3964.87
418.04	3954.63
418.26	3919.81
418.47	4059.07
418.68	4057.03
418.89	3966.92
419.10	4290.49
419.31	4050.88
419.52	4227.01
419.73	4169.66
419.95	4286.40
420.16	3966.92
420.37	4186.05
420.58	4134.85
420.79	4065.22
421.00	4102.08
421.21	4276.16
421.42	4173.76
421.63	4194.24
421.85	4253.63
422.06	4194.24
422.27	4151.23
422.48	4290.49
422.69	4382.65
422.90	4372.41
423.11	4358.08
423.32	4386.75
423.53	4507.58
423.75	4384.70
423.96	4485.05
424.17	4478.91
424.38	4757.43
424.59	4583.35
424.80	4771.77
425.01	4444.09
425.22	4601.79
425.43	4487.10
425.64	4628.41
425.85	4782.01
426.06	4638.65
426.28	4556.73
426.49	4671.42
426.70	4716.47
426.91	4716.47
427.12	4886.45
427.33	4763.58
427.54	4671.42
427.75	4753.34
427.96	4902.84
428.17	4820.92
428.38	4773.82
428.59	5070.77
428.80	4917.17
429.01	4900.79
429.23	5042.10
429.44	5148.59
429.65	5207.98
429.86	5267.38
430.07	4978.61
430.28	5015.48
430.49	5216.18
430.70	5332.91
430.91	5271.47
431.12	5111.73
431.33	5300.14
431.54	5216.18
431.75	5246.90
431.96	5308.34
432.17	5238.70
432.38	5240.75
432.59	5472.17
432.80	5377.97
433.01	5406.64
433.22	5382.06
433.43	5375.92
433.64	5308.34
433.85	5375.92
434.06	5605.29
434.27	5345.20
434.49	5572.52
434.70	5572.52
434.91	5459.88
435.12	5719.98
435.33	5676.97
435.54	5595.05
435.75	5414.83
435.96	5666.73
436.17	5621.67
436.38	5781.42
436.59	5762.98
436.80	5541.80
437.01	5930.92
437.22	5900.20
437.43	5808.04
437.64	5609.39
437.85	5779.37
438.06	5949.35
438.27	5685.16
438.48	5707.69
438.69	5865.38
438.90	5851.05
439.11	5715.88
439.32	6002.60
439.53	6121.38
439.74	6010.79
439.95	6000.55
440.16	5885.86
440.37	6045.60
440.57	5867.43
440.78	6031.27
440.99	6174.63
441.20	6021.03
441.41	6045.60
441.62	6107.04
441.83	6016.93
442.04	6191.01
442.25	6158.24
442.46	6256.54
442.67	6268.83
442.88	6481.82
443.09	6023.08
443.30	6287.26
443.51	6250.40
443.72	6545.31
443.93	6234.02
444.14	6569.88
444.35	6258.59
444.56	6297.50
444.77	6340.51
444.98	6377.37
445.19	6430.62
445.40	6303.65
445.61	6291.36
445.81	6412.19
446.02	6600.60
446.23	6350.75
446.44	6430.62
446.65	6438.81
446.86	6541.21
447.07	6518.68
447.28	6698.91
447.49	6604.70
447.70	6686.62
447.91	6889.37
448.12	6670.23
448.33	6848.41
448.54	6850.46
448.74	6739.87
448.95	6842.26
449.16	6684.57
449.37	7016.34
449.58	6815.64
449.79	7016.34
450.00	6881.18
450.21	7092.12
450.42	7032.72
450.63	7049.11
450.84	7083.92
451.05	7198.61
451.25	7118.74
451.46	6973.33
451.67	7225.23
451.88	7212.95
452.09	7217.04
452.30	7141.27
452.51	7247.76
452.72	7411.60
452.93	7602.06
453.13	7190.42
453.34	7323.54
453.55	7266.19
453.76	7298.96
453.97	7604.11
454.18	7348.11
454.39	7511.95
454.60	7647.12
454.81	7460.75
455.01	7735.18
455.22	7411.60
455.43	7688.07
455.64	7804.81
455.85	7864.20
456.06	8042.37
456.27	7743.37
456.48	7851.91
456.68	7964.55
456.89	7884.68
457.10	8023.94
457.31	8056.71
457.52	8038.28
457.73	8126.34
457.94	8376.19
458.14	7987.08
458.35	8404.86
458.56	8234.88
458.77	8341.38
458.98	8490.88
459.19	8212.35
459.39	8556.41
459.60	8570.75
459.81	8468.35
460.02	8716.16
460.23	8597.37
460.44	8859.51
460.65	8804.22
460.85	8769.40
461.06	8839.03
461.27	8619.90
461.48	9187.19
461.69	9125.75
461.89	8693.63
462.10	8836.99
462.31	9004.92
462.52	8984.44
462.73	9150.32
462.94	9432.94
463.14	9365.36
463.35	9211.76
463.56	9557.87
463.77	9512.81
463.98	9338.74
464.18	9504.62
464.39	9625.45
464.60	9772.91
464.81	9748.33
465.02	9529.20
465.23	9840.49
465.43	9711.47
465.64	10149.73
465.85	9969.51
466.06	9817.96
466.27	10501.98
466.47	10088.29
466.68	10188.64
466.89	10198.88
467.10	10440.54
467.30	10213.22
467.51	10440.54
467.72	10784.60
467.93	10278.76
468.14	10532.70
468.34	10753.88
468.55	10755.93
468.76	10714.97
468.97	10751.84
469.17	11003.74
469.38	10856.28
469.59	11003.74
469.80	11022.17
470.01	10989.40
470.21	11110.23
470.42	11530.06
470.63	11499.34
470.84	11358.03
471.04	11577.17
471.25	11667.28
471.46	11495.25
471.67	11941.71
471.87	11671.37
472.08	11966.28
472.29	11984.71
472.50	11775.82
472.70	12128.07
472.91	11908.94
473.12	12353.35
473.33	12445.51
473.53	12310.34
473.74	12410.69
473.95	12496.71
474.16	12775.23
474.36	12736.32
474.57	13059.90
474.78	12926.78
474.99	12635.97
475.19	12898.11
475.40	13360.95
475.61	13172.54
475.81	13453.11
476.02	13600.56
476.23	13197.11
476.44	13502.26
476.64	13827.88
476.85	13999.91
477.06	13795.12
477.27	14245.67
477.47	14126.89
477.68	14337.83
477.89	14487.33
478.09	14278.44
478.30	14378.79
478.51	14511.91
478.71	14583.59
478.92	14919.45
479.13	14788.38
479.34	14964.51
479.54	15062.81
479.75	15140.63
479.96	15189.78
480.16	15073.05
480.37	15415.06
480.58	15552.27
480.78	15742.74
480.99	15644.43
481.20	15953.68
481.41	15820.56
481.61	16107.27
481.82	16019.21
482.03	15953.68
482.23	16109.32
482.44	16135.95
482.65	16590.59
482.85	16428.81
483.06	16451.33
483.27	16711.42
483.47	16545.54
483.68	16869.12
483.89	17153.79
484.09	16955.13
484.30	17207.03
484.51	17510.13
484.71	17460.98
484.92	17247.99
485.13	17276.66
485.33	17501.94
485.54	17561.33
485.75	18024.17
485.95	17977.07
486.16	17794.80
486.37	17934.06
486.57	17985.26
486.78	17987.31
486.98	18073.32
487.19	18401.00
487.40	18695.91
487.60	18282.22
487.81	18781.92
488.02	18697.95
488.22	18679.52
488.43	18839.26
488.64	19117.79
488.84	19093.21
489.05	19201.76
489.25	19222.23
489.46	19500.76
489.67	19271.39
489.87	19541.72
490.08	19517.14
490.29	19738.32
490.49	19955.41
490.70	20063.95
490.90	20170.44
491.11	19756.75
491.32	20086.48
491.52	20215.50
491.73	20195.02
491.94	20471.50
492.14	20387.53
492.35	20608.71
492.55	20577.99
492.76	20788.93
492.97	21006.02
493.17	20813.51
493.38	20985.54
493.58	21059.26
493.79	21120.70
494.00	21276.35
494.20	20969.15
494.41	21483.19
494.61	21444.28
494.82	21579.45
495.02	21470.90
495.23	21800.63
495.44	22052.53
495.64	22156.97
495.85	21694.13
496.05	22058.67
496.26	21978.80
496.47	22128.30
496.67	22134.45
496.88	22554.28
497.08	22183.60
497.29	22339.24
497.49	22421.16
497.70	22660.77
497.91	22761.12
498.11	22746.79
498.32	23082.66
498.52	23064.22
498.73	23215.77
498.93	23006.88
499.14	23162.53
499.34	23461.53
499.55	23447.19
499.76	23332.51
499.96	23328.41
500.17	23832.21
500.37	23520.92
500.58	23576.22
500.78	23664.28
500.99	23561.88
501.19	24020.63
501.40	23649.94
501.60	23707.29
501.81	24133.26
502.02	24014.48
502.22	23881.36
502.43	24223.37
502.63	24475.27
502.84	24254.09
503.04	24458.89
503.25	24399.50
503.45	24567.43
503.66	24630.92
503.86	24471.18
504.07	24710.79
504.27	24571.53
504.48	25099.90
504.68	24704.65
504.89	25380.48
505.09	25179.78
505.30	25253.50
505.50	25003.65
505.71	25413.24
505.91	25128.58
506.12	25509.50
506.32	25386.62
506.53	25181.82
506.73	25511.55
506.94	25663.10
507.14	25554.55
507.35	25360.00
507.55	25951.86
507.76	25906.80
507.96	25966.20
508.17	25712.25
508.37	26021.49
508.58	25835.13
508.78	26097.27
508.99	25943.67
509.19	26287.73
509.40	26115.70
509.60	26175.09
509.81	26314.35
510.01	25951.86
510.22	26500.72
510.42	26334.83
510.63	26795.62
510.83	26672.74
511.04	26553.96
511.24	26574.44
511.44	26816.10
511.65	27020.90
511.85	26928.74
512.06	27242.08
512.26	27068.00
512.47	27358.81
512.67	27164.26
512.88	27231.84
513.08	26889.83
513.29	27520.60
513.49	27268.70
513.69	27487.84
513.90	27405.92
514.10	27696.73
514.31	27623.00
514.51	27899.48
514.72	27852.38
514.92	27649.63
515.13	27803.22
515.33	27903.57
515.53	28112.47
515.74	28044.88
515.94	28038.74
516.15	28161.62
516.35	27600.47
516.56	28298.83
516.76	28042.84
516.96	28653.13
517.17	28266.06
517.37	28399.18
517.58	28632.65
517.78	28857.93
517.99	28739.15
518.19	28763.72
518.39	28833.35
518.60	28800.58
518.80	28896.84
519.01	29083.20
519.21	28902.98
519.41	28995.14
519.62	29025.86
519.82	29515.33
520.03	29509.18
520.23	29419.07
520.43	29488.70
520.64	29691.45
520.84	29531.71
521.05	29728.31
521.25	29541.95
521.45	30170.68
521.66	30029.37
521.86	29847.10
522.07	29814.33
522.27	30037.56
522.47	29982.26
522.68	30379.57
522.88	30139.96
523.08	30477.87
523.29	30651.95
523.49	30858.79
523.70	30582.32
523.90	30785.07
524.10	30721.58
524.31	31055.40
524.51	30793.26
524.71	31516.19
524.92	31036.97
525.12	31424.03
525.33	31176.23
525.53	31759.90
525.73	31688.22
525.94	32138.77
526.14	32204.31
526.34	32079.38
526.55	32030.23
526.75	31790.62
526.95	32202.26
527.16	32026.14
527.36	32026.14
527.56	32378.39
527.77	32292.37
527.97	32435.73
528.17	32579.09
528.38	32732.68
528.58	32790.03
528.78	32945.67
528.99	32957.96
529.19	33117.70
529.39	32861.71
529.60	33197.57
529.80	33166.85
530.00	33134.09
530.21	33652.22
530.41	33816.06
530.61	33789.44
530.82	33648.13
531.02	33746.43
531.22	33891.83
531.43	34055.67
531.63	34217.46
531.83	34094.58
532.04	34655.73
532.24	33838.59
532.44	34723.31
532.64	34997.74
532.85	34838.00
533.05	34954.73
533.25	34973.16
533.46	34946.54
533.66	35587.55
533.86	35315.17
534.07	35567.07
534.27	35499.49
534.47	35614.18
534.67	35829.21
534.88	35669.47
535.08	35976.67
535.28	35993.05
535.49	35941.85
535.69	36304.34
535.89	36120.02
536.09	35960.28
536.30	37270.98
536.50	36627.92
536.70	36912.59
536.91	36556.24
537.11	36822.48
537.31	36853.20
537.51	36988.36
537.72	37107.15
537.92	37414.34
538.12	37551.56
538.32	37248.46
538.53	37346.76
538.73	37477.83
538.93	37707.20
539.13	37754.30
539.34	37535.17
539.54	37541.32
539.74	38012.35
539.94	37737.92
540.15	37533.12
540.35	38227.38
540.55	38198.71
540.75	38161.85
540.96	38725.04
541.16	38172.09
541.36	38856.11
541.56	38518.20
541.77	38843.82
541.97	38753.71
542.17	38890.93
542.37	39194.03
542.58	39265.70
542.78	39191.98
542.98	39128.49
543.18	39497.13
543.38	39409.06
543.59	39454.12
543.79	39505.32
543.99	39128.49
544.19	39863.71
544.40	39671.20
544.60	39962.01
544.80	39740.83
545.00	39654.82
545.20	40549.78
545.41	39714.21
545.61	40023.45
545.81	40433.05
546.01	39894.43
546.21	40367.51
546.42	40207.77
546.62	40246.68
546.82	40555.93
547.02	40486.29
547.22	40562.07
547.43	40629.65
547.63	40730.00
547.83	40570.26
548.03	40512.92
548.23	40912.27
548.44	41225.61
548.64	40883.60
548.84	40818.07
549.04	41049.49
549.24	41471.37
549.45	41360.78
549.65	41248.14
549.85	41538.95
550.05	41710.98
550.25	41362.82
550.45	41758.08
550.66	41541.00
550.86	41713.03
551.06	41997.70
551.26	41864.58
551.46	41555.33
551.66	42143.10
551.87	41647.49
552.07	41850.24
552.27	41985.41
552.47	42370.43
552.67	42440.06
552.87	42202.49
553.07	42091.90
553.28	42497.40
553.48	42235.26
553.68	41883.01
553.88	42935.66
554.08	42562.93
554.28	42392.95
554.48	42073.47
554.69	42636.66
554.89	42562.93
555.09	42521.98
555.29	42481.02
555.49	42718.58
555.69	43103.60
555.89	42849.65
556.10	43111.79
556.30	42755.44
556.50	42777.97
556.70	43103.60
556.90	43154.80
557.10	42988.91
557.30	42677.62
557.50	43664.74
557.70	43369.83
557.91	43468.14
558.11	43359.59
558.31	43093.36
558.51	43124.08
558.71	43132.27
558.91	43652.45
559.11	43343.21
559.31	43541.86
559.51	43341.16
559.72	43576.68
559.92	43488.62
560.12	43371.88
560.32	43900.26
560.52	43566.44
560.72	43758.95
560.92	43887.97
561.12	43918.69
561.32	44111.20
561.52	43695.46
561.72	43959.65
561.93	44025.18
562.13	43738.47
562.33	43545.96
562.53	44125.53
562.73	44168.54
562.93	43550.06
563.13	44125.53
563.33	43988.32
563.53	44907.86
563.73	44211.55
563.93	43898.21
564.13	44623.19
564.33	44670.29
564.53	44201.31
564.74	44365.15
564.94	44373.34
565.14	44172.64
565.34	43877.73
565.54	44541.27
565.74	44670.29
565.94	44877.14
566.14	44612.95
566.34	44549.46
566.54	44883.28
566.74	44549.46
566.94	44782.93
567.14	44729.69
567.34	44758.36
567.54	44909.91
567.74	44899.67
567.94	44252.51
568.14	44776.79
568.34	45376.84
568.54	44973.39
568.74	44991.83
568.94	44871.00
569.14	45417.80
569.34	45192.53
569.54	44961.11
569.75	44594.52
569.95	45176.14
570.15	45143.38
570.35	45249.87
570.55	45194.57
570.75	45346.12
570.95	45464.91
571.15	45317.45
571.35	45735.24
571.55	45667.66
571.75	45753.67
571.95	45577.54
572.15	45397.32
572.35	45739.33
572.55	45624.65
572.75	45765.96
572.95	45847.88
573.15	45755.72
573.35	46073.15
573.55	45638.98
573.75	45954.37
573.95	45890.88
574.15	46132.54
574.35	46095.68
574.55	45966.66
574.75	45786.44
574.95	46081.34
575.15	46146.88
575.34	46386.49
575.54	46384.44
575.74	46513.47
575.94	46548.28
576.14	46687.54
576.34	46517.56
576.54	46804.28
576.74	46738.74
576.94	46693.69
577.14	46650.68
577.34	47019.31
577.54	46972.21
577.74	46824.76
577.94	46798.13
578.14	46814.52
578.34	46984.50
578.54	46851.38
578.74	46916.92
578.94	47586.60
579.14	46959.92
579.34	47113.52
579.54	47195.44
579.74	47103.28
579.94	47211.82
580.13	47994.15
580.33	47703.34
580.53	47600.94
580.73	47641.90
580.93	47451.44
581.13	47441.20
581.33	47842.60
581.53	47660.33
581.73	48098.59
581.93	48567.58
582.13	47826.21
582.33	47824.17
582.53	48055.59
582.73	47994.15
582.92	48553.24
583.12	48422.17
583.32	48268.58
583.52	48137.51
583.72	48706.84
583.92	48092.45
584.12	48502.04
584.32	48784.66
584.52	48559.39
584.72	48534.81
584.92	48827.67
585.11	48848.15
585.31	48467.23
585.51	48885.01
585.71	48639.26
585.91	49304.85
586.11	48620.83
586.31	48821.53
586.51	48979.22
586.71	48917.78
586.91	49460.49
587.10	49282.32
587.30	49366.29
587.50	49591.56
587.70	49607.95
587.90	49134.87
588.10	49841.42
588.30	49624.33
588.50	49579.28
