SpectraSuite Data File
++++++++++++++++++++++++++++++++++++
Date: Fri Jun 02 14:52:24 CEST 2017
User: INFO_000
Dark Spectrum Present: No
Reference Spectrum Present: No
Number of Sampled Component Spectra: 1
Spectrometers: USB4H00879
Integration Time (usec): 80000 (USB4H00879)
Spectra Averaged: 1 (USB4H00879)
Boxcar Smoothing: 0 (USB4H00879)
Correct for Electrical Dark: No (USB4H00879)
Strobe/Lamp Enabled: No (USB4H00879)
Correct for Detector Non-linearity: No (USB4H00879)
Correct for Stray Light: No (USB4H00879)
Number of Pixels in Processed Spectrum: 3648
>>>>>Begin Processed Spectral Data<<<<<
345.13	1267.69
345.34	1267.69
345.56	1267.69
345.78	1294.32
345.99	1245.16
346.21	1705.96
346.42	1699.81
346.64	1650.66
346.86	1820.64
347.07	1652.71
347.29	1718.25
347.50	1632.23
347.72	1683.43
347.94	1656.81
348.15	1572.84
348.37	1685.48
348.59	1648.61
348.80	1665.00
349.02	1765.35
349.23	1863.65
349.45	1757.16
349.67	1929.19
349.88	1837.03
350.10	1986.53
350.31	1855.46
350.53	1755.11
350.75	1925.09
350.96	1765.35
351.18	1882.08
351.39	1808.36
351.61	1789.92
351.82	1871.84
352.04	1837.03
352.26	1861.60
352.47	1900.52
352.69	1923.04
352.90	1722.34
353.12	1787.88
353.34	1767.40
353.55	1902.56
353.77	1791.97
353.98	1853.41
354.20	1845.22
354.41	1894.37
354.63	1949.67
354.85	2002.91
355.06	1935.33
355.28	1761.25
355.49	1914.85
355.71	1886.18
355.92	1931.23
356.14	1970.15
356.35	1851.36
356.57	1853.41
356.79	1941.47
357.00	1843.17
357.22	1961.95
357.43	1869.80
357.65	1988.58
357.86	1834.98
358.08	1857.51
358.29	1859.56
358.51	2052.06
358.72	1935.33
358.94	1910.75
359.16	1867.75
359.37	1943.52
359.59	1894.37
359.80	2078.69
360.02	1929.19
360.23	1935.33
360.45	2017.25
360.66	1920.99
360.88	1824.74
361.09	1908.71
361.31	2002.91
361.52	2025.44
361.74	2090.98
361.95	2060.26
362.17	1894.37
362.38	2164.70
362.60	2058.21
362.81	1998.82
363.03	1945.57
363.24	2011.11
363.46	2111.46
363.67	2043.87
363.89	1873.89
364.10	2017.25
364.32	2015.20
364.53	2050.02
364.75	1953.76
364.96	1972.19
365.18	2035.68
365.39	1961.95
365.61	1978.34
365.82	2133.98
366.04	2078.69
366.25	1947.62
366.47	2021.35
366.68	2072.54
366.90	2095.07
367.11	2086.88
367.33	2050.02
367.54	2076.64
367.76	2004.96
367.97	2068.45
368.19	1986.53
368.40	2068.45
368.62	2011.11
368.83	2000.87
369.05	2045.92
369.26	2025.44
369.48	2007.01
369.69	2035.68
369.91	2058.21
370.12	2066.40
370.33	2117.60
370.55	2023.39
370.76	2035.68
370.98	2125.79
371.19	2039.78
371.41	2013.15
371.62	2043.87
371.84	2015.20
372.05	2191.33
372.27	2074.59
372.48	2056.16
372.69	2119.65
372.91	2109.41
373.12	2220.00
373.34	2109.41
373.55	2230.24
373.77	2113.50
373.98	2101.22
374.20	2117.60
374.41	2256.86
374.62	2131.94
374.84	2220.00
375.05	2254.81
375.27	2158.56
375.48	2224.09
375.70	2162.66
375.91	2209.76
376.12	2289.63
376.34	2156.51
376.55	2172.89
376.77	2217.95
376.98	2099.17
377.19	2207.71
377.41	2133.98
377.62	2154.46
377.84	2240.48
378.05	2361.31
378.27	2252.77
378.48	2359.26
378.69	2432.99
378.91	2285.53
379.12	2273.25
379.34	2258.91
379.55	2330.59
379.76	2285.53
379.98	2271.20
380.19	2238.43
380.41	2209.76
380.62	2342.88
380.83	2285.53
381.05	2258.91
381.26	2392.03
381.47	2211.81
381.69	2306.01
381.90	2437.08
382.12	2240.48
382.33	2297.82
382.54	2306.01
382.76	2389.98
382.97	2283.49
383.19	2275.29
383.40	2400.22
383.61	2224.09
383.83	2342.88
384.04	2451.42
384.25	2334.68
384.47	2449.37
384.68	2392.03
384.89	2351.07
385.11	2363.36
385.32	2277.34
385.54	2465.75
385.75	2418.65
385.96	2443.23
386.18	2449.37
386.39	2494.43
386.60	2379.74
386.82	2457.56
387.03	2482.14
387.24	2430.94
387.46	2510.81
387.67	2592.73
387.88	2580.44
388.10	2512.86
388.31	2584.54
388.52	2541.53
388.74	2576.34
388.95	2531.29
389.16	2574.30
389.38	2510.81
389.59	2557.91
389.80	2592.73
390.02	2555.86
390.23	2699.22
390.44	2645.98
390.66	2475.99
390.87	2596.82
391.08	2570.20
391.30	2760.66
391.51	2686.94
391.72	2691.03
391.94	2691.03
392.15	2656.22
392.36	2605.02
392.58	2615.26
392.79	2721.75
393.00	2701.27
393.22	2727.89
393.43	2707.41
393.64	2822.10
393.85	2746.33
394.07	2680.79
394.28	2766.81
394.49	2805.72
394.71	2719.70
394.92	2811.86
395.13	2764.76
395.35	2805.72
395.56	2764.76
395.77	2912.21
395.98	2822.10
396.20	2820.05
396.41	2832.34
396.62	3063.76
396.84	2908.12
397.05	2807.77
397.26	2987.99
397.47	3043.28
397.69	2885.59
397.90	3086.29
398.11	2944.98
398.32	2947.03
398.54	2904.02
398.75	2953.17
398.96	2961.36
399.18	3039.19
399.39	3047.38
399.60	3135.44
399.81	2994.13
400.03	2914.26
400.24	3254.22
400.45	3035.09
400.66	3135.44
400.88	3053.52
401.09	3284.94
401.30	2996.18
401.51	3174.35
401.73	3168.21
401.94	3205.07
402.15	3258.32
402.36	3209.17
402.58	3205.07
402.79	3231.69
403.00	3211.22
403.21	3221.45
403.43	3248.08
403.64	3303.37
403.85	3184.59
404.06	3254.22
404.27	3162.06
404.49	3323.85
404.70	3321.81
404.91	3424.20
405.12	3327.95
405.34	3229.65
405.55	3395.53
405.76	3203.02
405.97	3264.46
406.19	3330.00
406.40	3274.70
406.61	3334.09
406.82	3418.06
407.03	3336.14
407.25	3327.95
407.46	3450.83
407.67	3477.45
407.88	3424.20
408.09	3303.37
408.31	3362.76
408.52	3387.34
408.73	3366.86
408.94	3348.43
409.15	3456.97
409.37	3485.64
409.58	3575.75
409.79	3450.83
410.00	3594.19
410.21	3444.68
410.43	3549.13
410.64	3403.72
410.85	3577.80
411.06	3657.67
411.27	3600.33
411.48	3698.63
411.70	3475.40
411.91	3614.66
412.12	3727.30
412.33	3622.86
412.54	3583.95
412.76	3778.50
412.97	3594.19
413.18	3692.49
413.39	3682.25
413.60	3694.54
413.81	3557.32
414.03	3682.25
414.24	3622.86
414.45	3712.97
414.66	3626.95
414.87	3770.31
415.08	3737.54
415.30	3852.23
415.51	3684.30
415.72	3794.89
415.93	3821.51
416.14	3811.27
416.35	3928.00
416.56	3874.76
416.78	3848.13
416.99	3891.14
417.20	3891.14
417.41	3923.91
417.62	3878.85
417.83	3880.90
418.04	4026.31
418.26	4093.89
418.47	3942.34
418.68	4069.31
418.89	4067.27
419.10	4145.09
419.31	4036.55
419.52	4079.55
419.73	4184.00
419.95	4179.90
420.16	3891.14
420.37	4059.07
420.58	4120.51
420.79	3919.81
421.00	3962.82
421.21	4206.53
421.42	4100.03
421.63	4081.60
421.85	4093.89
422.06	4243.39
422.27	4202.43
422.48	4157.38
422.69	4284.35
422.90	4237.25
423.11	4331.45
423.32	4462.52
423.53	4466.62
423.75	4456.38
423.96	4554.68
424.17	4618.17
424.38	4571.07
424.59	4489.15
424.80	4505.53
425.01	4501.44
425.22	4646.84
425.43	4444.09
425.64	4704.18
425.85	4724.66
426.06	4657.08
426.28	4714.42
426.49	4515.77
426.70	4650.94
426.91	4693.94
427.12	4739.00
427.33	4673.46
427.54	4706.23
427.75	4698.04
427.96	4859.83
428.17	4861.88
428.38	4911.03
428.59	4908.98
428.80	4894.65
429.01	4808.63
429.23	4939.70
429.44	5277.62
429.65	5038.00
429.86	4990.90
430.07	4851.64
430.28	4933.56
430.49	5038.00
430.70	5244.85
430.91	5216.18
431.12	5189.55
431.33	5109.68
431.54	5277.62
431.75	5246.90
431.96	5203.89
432.17	5203.89
432.38	5281.71
432.59	5502.89
432.80	5365.68
433.01	5433.26
433.22	5457.84
433.43	5441.45
433.64	5498.80
433.85	5302.19
434.06	5517.23
434.27	5189.55
434.49	5468.08
434.70	5535.66
434.91	5615.53
435.12	5500.84
435.33	5599.15
435.54	5556.14
435.75	5386.16
435.96	5646.25
436.17	5509.04
436.38	5785.51
436.59	5752.74
436.80	5697.45
437.01	5902.25
437.22	5840.81
437.43	5935.01
437.64	5642.15
437.85	5951.40
438.06	5799.85
438.27	5724.07
438.48	5732.26
438.69	6066.08
438.90	5945.25
439.11	5728.17
439.32	6041.51
439.53	5853.09
439.74	5906.34
439.95	5894.05
440.16	5992.36
440.37	6047.65
440.57	5894.05
440.78	6041.51
440.99	6047.65
441.20	6016.93
441.41	6012.84
441.62	6256.54
441.83	5998.50
442.04	6205.35
442.25	6074.28
442.46	6266.78
442.67	6295.46
442.88	6707.10
443.09	6109.09
443.30	6219.68
443.51	6254.50
443.72	6500.25
443.93	6193.06
444.14	6510.49
444.35	6121.38
444.56	6393.76
444.77	6463.39
444.98	6385.57
445.19	6360.99
445.40	6469.53
445.61	6490.01
445.81	6524.83
446.02	6471.58
446.23	6588.32
446.44	6451.10
446.65	6686.62
446.86	6614.94
447.07	6717.34
447.28	6862.74
447.49	6854.55
447.70	6547.36
447.91	6748.06
448.12	6850.46
448.33	6817.69
448.54	6924.18
448.74	6795.16
448.95	6844.31
449.16	6793.11
449.37	7083.92
449.58	6743.96
449.79	7006.10
450.00	6885.27
450.21	7147.41
450.42	7094.16
450.63	7147.41
450.84	7034.77
451.05	7047.06
451.25	6940.57
451.46	7020.44
451.67	7108.50
451.88	7376.78
452.09	7323.54
452.30	7186.32
452.51	7188.37
452.72	7333.78
452.93	7532.43
453.13	7202.71
453.34	7229.33
453.55	7358.35
453.76	7434.13
453.97	7782.28
454.18	7647.12
454.39	7503.76
454.60	7440.27
454.81	7565.20
455.01	7813.00
455.22	7485.33
455.43	7624.59
455.64	7829.38
455.85	7974.79
456.06	7903.11
456.27	7839.62
456.48	7706.51
456.68	7976.84
456.89	7978.89
457.10	8120.20
457.31	7954.31
457.52	7999.37
457.73	8003.46
457.94	8456.06
458.14	8019.85
458.35	8435.58
458.56	8253.31
458.77	8241.03
458.98	8552.32
459.19	8578.94
459.39	8398.72
459.60	8497.02
459.81	8505.21
460.02	8537.98
460.23	8540.03
460.44	8787.83
460.65	8750.97
460.85	8871.80
461.06	8765.31
461.27	8599.42
461.48	8996.73
461.69	9181.04
461.89	8693.63
462.10	9041.78
462.31	8802.17
462.52	8808.31
462.73	9172.85
462.94	9256.82
463.14	9082.74
463.35	9363.31
463.56	9607.02
463.77	9643.88
463.98	9459.57
464.18	9432.94
464.39	9633.64
464.60	9676.65
464.81	9690.99
465.02	9578.35
465.23	9922.41
465.43	9781.10
465.64	10125.16
465.85	9940.84
466.06	9940.84
466.27	10323.81
466.47	10157.92
466.68	10223.46
466.89	10145.64
467.10	10479.46
467.30	10139.49
467.51	10530.66
467.72	10710.88
467.93	10383.20
468.14	10626.91
468.34	10735.45
468.55	10690.40
468.76	10637.15
468.97	10512.22
469.17	10905.43
469.38	10913.63
469.59	11208.53
469.80	11085.65
470.01	11102.04
470.21	10966.87
470.42	11470.67
470.63	11437.91
470.84	11386.71
471.04	11616.08
471.25	11687.76
471.46	11525.97
471.67	11904.84
471.87	11675.47
472.08	11863.88
472.29	12076.87
472.50	11829.07
472.70	11876.17
472.91	11898.70
473.12	12222.28
473.33	12545.86
473.53	12414.79
473.74	12095.30
473.95	12601.15
474.16	12713.79
474.36	12654.40
474.57	12955.45
474.78	13176.63
474.99	12791.61
475.19	12805.95
475.40	13186.87
475.61	13258.55
475.81	13584.18
476.02	13655.86
476.23	13352.76
476.44	13686.58
476.64	13965.10
476.85	13995.82
477.06	13932.33
477.27	13920.04
477.47	13942.57
477.68	14188.33
477.89	14440.23
478.09	14212.90
478.30	14212.90
478.51	14319.40
478.71	14554.91
478.92	14665.50
479.13	14712.61
479.34	15034.14
479.54	14696.22
479.75	14937.88
479.96	15236.89
480.16	15015.71
480.37	15451.92
480.58	15359.77
480.78	15537.94
480.99	15582.99
481.20	15361.81
481.41	15806.22
481.61	15920.91
481.82	15996.68
482.03	15963.92
482.23	16113.42
482.44	16402.18
482.65	16439.05
482.85	16187.14
483.06	16387.85
483.27	16406.28
483.47	16537.35
483.68	16553.73
483.89	16805.63
484.09	16692.99
484.30	17006.33
484.51	17276.66
484.71	17334.01
484.92	17061.63
485.13	17348.34
485.33	17360.63
485.54	17247.99
485.75	17739.51
485.95	17639.15
486.16	17800.94
486.37	17774.32
486.57	17901.29
486.78	17872.62
486.98	17925.87
487.19	18427.62
487.40	18429.67
487.60	18220.78
487.81	18271.98
488.02	18456.29
488.22	18181.87
488.43	18700.00
488.64	18427.62
488.84	18771.68
489.05	19025.63
489.25	18728.67
489.46	18994.91
489.67	19068.64
489.87	19441.37
490.08	19406.55
490.29	19273.43
490.49	19713.75
490.70	19902.16
490.90	19766.99
491.11	19597.01
491.32	19945.17
491.52	19865.30
491.73	20072.14
491.94	19846.87
492.14	20055.76
492.35	20569.80
492.55	20551.37
492.76	20483.78
492.97	20430.54
493.17	20651.72
493.38	20676.29
493.58	20901.57
493.79	20911.81
494.00	20868.80
494.20	20948.67
494.41	21147.33
494.61	21188.28
494.82	21212.86
495.02	21495.48
495.23	21274.30
495.44	21462.71
495.64	21802.68
495.85	21640.89
496.05	21661.37
496.26	21583.54
496.47	21980.85
496.67	21933.75
496.88	22191.79
497.08	21765.81
497.29	22154.93
497.49	22138.54
497.70	22179.50
497.91	22359.72
498.11	22363.82
498.32	22857.38
498.52	22716.07
498.73	23080.61
498.93	22572.71
499.14	23049.89
499.34	22912.67
499.55	23191.20
499.76	22816.42
499.96	23234.21
500.17	23099.04
500.37	23381.66
500.58	23283.36
500.78	23717.53
500.99	23637.66
501.19	23950.99
501.40	23774.87
501.60	23400.09
501.81	23942.80
502.02	23946.90
502.22	23647.90
502.43	24010.39
502.63	23971.47
502.84	24589.96
503.04	24487.56
503.25	24585.86
503.45	24546.95
503.66	24592.01
503.86	24471.18
504.07	24970.88
504.27	24258.19
504.48	24856.20
504.68	24899.20
504.89	25179.78
505.09	25011.84
505.30	24981.12
505.50	25132.67
505.71	25241.21
505.91	25552.51
506.12	25439.87
506.32	25120.38
506.53	25685.62
506.73	25671.29
506.94	25804.41
507.14	25890.42
507.35	25759.35
507.55	26039.92
507.76	25958.00
507.96	26185.33
508.17	25974.39
508.37	26336.88
508.58	26023.54
508.78	26199.66
508.99	26404.46
509.19	26406.51
509.40	26449.52
509.60	26773.10
509.81	26969.70
510.01	26445.42
510.22	26650.22
510.42	26740.33
510.63	26936.93
510.83	26830.44
511.04	27133.54
511.24	26941.03
511.44	26793.58
511.65	27149.92
511.85	27268.70
512.06	27518.56
512.26	27481.69
512.47	27719.26
512.67	27473.50
512.88	27547.23
513.08	27530.84
513.29	27639.39
513.49	27747.93
513.69	27901.53
513.90	27885.14
514.10	27831.90
514.31	28094.04
514.51	28036.69
514.72	28018.26
514.92	28104.28
515.13	27850.33
515.33	28423.76
515.53	28255.82
515.74	28223.06
515.94	28634.70
516.15	28646.99
516.35	28511.82
516.56	28763.72
516.76	28524.11
516.96	28677.71
517.17	28827.21
517.37	28927.56
517.58	29210.18
517.78	28888.65
517.99	28935.75
518.19	29140.55
518.39	29298.24
518.60	29443.65
518.80	29490.75
519.01	29537.85
519.21	29636.16
519.41	29541.95
519.62	29308.48
519.82	29955.64
520.03	30111.28
520.23	29879.86
520.43	30123.57
520.64	30168.63
520.84	30232.11
521.05	30217.78
521.25	30268.98
521.45	30346.80
521.66	30570.03
521.86	30354.99
522.07	30559.79
522.27	30537.26
522.47	30512.69
522.68	30950.95
522.88	31065.64
523.08	31209.00
523.29	31276.58
523.49	31020.58
523.70	31194.66
523.90	31604.25
524.10	31106.60
524.31	31428.13
524.51	31223.33
524.71	31925.78
524.92	31927.83
525.12	31673.88
525.33	31940.12
525.53	32187.92
525.73	32312.85
525.94	32439.82
526.14	32136.73
526.34	32417.30
526.55	32542.22
526.75	32339.47
526.95	32597.52
527.16	32544.27
527.36	32478.74
527.56	32726.54
527.77	32929.29
527.97	32855.56
528.17	32949.77
528.38	32890.38
528.58	33326.60
528.78	33132.04
528.99	32990.73
529.19	33756.67
529.39	33320.45
529.60	33592.83
529.80	33687.04
530.00	33498.62
530.21	33836.54
530.41	34239.99
530.61	33818.11
530.82	34160.12
531.02	34029.05
531.22	34141.69
531.43	34334.20
531.63	34358.77
531.83	34586.10
532.04	35196.39
532.24	34407.92
532.44	35122.66
532.64	35177.96
532.85	34747.89
533.05	34905.58
533.25	35339.75
533.46	34969.07
533.66	35724.77
533.86	35218.92
534.07	35522.02
534.27	35405.28
534.47	36052.44
534.67	35780.06
534.88	35550.69
535.08	35640.80
535.28	35395.04
535.49	35921.37
535.69	36316.63
535.89	35948.00
536.09	36464.08
536.30	36171.22
536.50	36290.01
536.70	36894.16
536.91	36492.76
537.11	36619.73
537.31	36922.83
537.51	36640.21
537.72	36701.65
537.92	36967.88
538.12	37524.93
538.32	37453.25
538.53	37496.26
538.73	37209.54
538.93	37197.26
539.13	37490.12
539.34	37295.56
539.54	37316.04
539.74	37821.89
539.94	37895.61
540.15	37463.49
540.35	38024.64
540.55	37582.27
540.75	38141.37
540.96	38014.40
541.16	37971.39
541.36	38012.35
541.56	38454.71
541.77	38225.34
541.97	38067.64
542.17	38186.43
542.37	38311.35
542.58	38434.23
542.78	38682.03
542.98	38145.47
543.18	38577.59
543.38	39126.44
543.59	38657.46
543.79	38401.46
543.99	38753.71
544.19	38782.38
544.40	39196.07
544.60	39525.80
544.80	39114.16
545.00	39343.53
545.20	39456.17
545.41	39015.85
545.61	39273.90
545.81	39417.25
546.01	39495.08
546.21	39388.58
546.42	39718.31
546.62	39835.04
546.82	39478.69
547.02	39667.11
547.22	39818.66
547.43	39552.42
547.63	39777.70
547.83	39843.23
548.03	39517.60
548.23	40019.36
548.44	39982.49
548.64	40394.14
548.84	40148.38
549.04	40019.36
549.24	40379.80
549.45	40517.01
549.65	40431.00
549.85	40463.77
550.05	40621.46
550.25	40185.24
550.45	40641.94
550.66	40822.16
550.86	40498.58
551.06	40854.93
551.26	40750.48
551.46	41026.96
551.66	40897.94
551.87	41045.39
552.07	41383.30
552.27	40828.30
552.47	40670.61
552.67	41067.92
552.87	41004.43
553.07	41262.47
553.28	41407.88
553.48	41475.46
553.68	41428.36
553.88	41946.50
554.08	41594.25
554.28	41571.72
554.48	41895.30
554.69	41725.32
554.89	41371.02
555.09	41258.38
555.29	41340.30
555.49	41510.28
555.69	41926.02
555.89	41481.61
556.10	42124.67
556.30	41584.01
556.50	41586.05
556.70	41940.35
556.90	42284.41
557.10	42433.91
557.30	41827.71
557.50	42612.09
557.70	42448.25
557.91	42526.07
558.11	42161.53
558.31	42810.74
558.51	42343.80
558.71	42562.93
558.91	42567.03
559.11	42462.58
559.31	42870.13
559.51	42511.74
559.72	42296.70
559.92	42714.48
560.12	42683.76
560.32	43326.83
560.52	42970.48
560.72	42956.14
560.92	43111.79
561.12	42814.83
561.32	43310.44
561.52	42888.56
561.72	43507.05
561.93	43070.83
562.13	43044.21
562.33	43257.20
562.53	43691.37
562.73	43425.13
562.93	43341.16
563.13	43484.52
563.33	43408.75
563.53	43943.27
563.73	43711.84
563.93	44064.10
564.13	44170.59
564.33	43582.82
564.53	43871.59
564.74	43924.83
564.94	43941.22
565.14	43761.00
565.34	43949.41
565.54	44143.97
565.74	44326.24
565.94	44623.19
566.14	43953.51
566.34	44512.60
566.54	44541.27
566.74	44348.76
566.94	44189.02
567.14	44504.41
567.34	44289.37
567.54	44848.47
567.74	44463.45
567.94	44459.35
568.14	45010.26
568.34	44959.06
568.54	44674.39
568.74	44868.95
568.94	44731.73
569.14	45712.71
569.34	45081.94
569.54	45104.46
569.75	45288.78
569.95	44875.09
570.15	45501.77
570.35	45262.16
570.55	45354.32
570.75	45509.96
570.95	45714.76
571.15	45516.11
571.35	45507.91
571.55	45811.01
571.75	45995.33
571.95	45839.68
572.15	45634.89
572.35	45888.84
572.55	45888.84
572.75	46015.81
572.95	45935.94
573.15	45997.38
573.35	46003.52
573.55	45884.74
573.75	46312.77
573.95	46445.88
574.15	46196.03
574.35	46028.10
574.55	46492.99
574.75	46648.63
574.95	46220.61
575.15	46288.19
575.34	46738.74
575.54	47101.23
575.74	47338.80
575.94	47011.12
576.14	46732.60
576.34	47193.39
576.54	47117.62
576.74	47494.44
576.94	46896.44
577.14	47682.86
577.34	47713.58
577.54	47322.41
577.74	47437.10
577.94	47433.00
578.14	47525.16
578.34	47789.35
578.54	47258.93
578.74	47697.19
578.94	47736.10
579.14	47478.06
579.34	47840.55
579.54	47732.01
579.74	48373.02
579.94	48061.73
580.13	48117.03
580.33	48375.07
580.53	48317.73
580.73	48239.90
580.93	48059.68
581.13	48432.41
581.33	48684.31
581.53	48563.48
581.73	48438.56
581.93	49050.90
582.13	48801.05
582.33	49036.56
582.53	48483.61
582.73	49274.13
582.92	49188.11
583.12	49513.74
583.32	49509.64
583.52	48882.97
583.72	49298.70
583.92	49159.44
584.12	49239.31
584.32	49683.72
584.52	49825.03
584.72	49431.82
584.92	49700.11
585.11	50197.76
585.31	49601.80
585.51	49757.45
585.71	49501.45
585.91	49855.75
586.11	49784.07
586.31	50058.50
586.51	50152.71
586.71	50021.64
586.91	50177.28
587.10	50593.02
587.30	50216.19
587.50	50318.59
587.70	50283.78
587.90	50558.20
588.10	50406.65
588.30	50431.23
588.50	50541.82
