SpectraSuite Data File
++++++++++++++++++++++++++++++++++++
Date: Fri Jun 02 14:52:23 CEST 2017
User: INFO_000
Dark Spectrum Present: No
Reference Spectrum Present: No
Number of Sampled Component Spectra: 1
Spectrometers: USB4H00879
Integration Time (usec): 80000 (USB4H00879)
Spectra Averaged: 1 (USB4H00879)
Boxcar Smoothing: 0 (USB4H00879)
Correct for Electrical Dark: No (USB4H00879)
Strobe/Lamp Enabled: No (USB4H00879)
Correct for Detector Non-linearity: No (USB4H00879)
Correct for Stray Light: No (USB4H00879)
Number of Pixels in Processed Spectrum: 3648
>>>>>Begin Processed Spectral Data<<<<<
345.13	1273.84
345.34	1273.84
345.56	1273.84
345.78	1279.98
345.99	1282.03
346.21	1656.81
346.42	1675.24
346.64	1619.94
346.86	1822.69
347.07	1560.55
347.29	1720.29
347.50	1683.43
347.72	1693.67
347.94	1765.35
348.15	1560.55
348.37	1642.47
348.59	1773.54
348.80	1556.46
349.02	1722.34
349.23	1789.92
349.45	1763.30
349.67	1851.36
349.88	1722.34
350.10	1894.37
350.31	1802.21
350.53	1708.01
350.75	1902.56
350.96	1667.05
351.18	1802.21
351.39	1794.02
351.61	1810.40
351.82	1861.60
352.04	1865.70
352.26	1763.30
352.47	1869.80
352.69	1871.84
352.90	1708.01
353.12	1755.11
353.34	1746.92
353.55	1822.69
353.77	1822.69
353.98	1746.92
354.20	1769.44
354.41	1880.04
354.63	1798.12
354.85	2019.30
355.06	1873.89
355.28	1675.24
355.49	1884.13
355.71	1837.03
355.92	1759.21
356.14	1904.61
356.35	1765.35
356.57	1736.68
356.79	1908.71
357.00	1818.60
357.22	1890.28
357.43	1755.11
357.65	1937.38
357.86	1804.26
358.08	1832.93
358.29	1853.41
358.51	1824.74
358.72	1927.14
358.94	1867.75
359.16	1830.88
359.37	1804.26
359.59	1910.75
359.80	1968.10
360.02	1845.22
360.23	1935.33
360.45	1912.80
360.66	1863.65
360.88	1728.49
361.09	1904.61
361.31	1949.67
361.52	1855.46
361.74	2017.25
361.95	1945.57
362.17	1814.50
362.38	1992.67
362.60	2023.39
362.81	2007.01
363.03	1894.37
363.24	1927.14
363.46	2033.63
363.67	1853.41
363.89	1839.08
364.10	1933.28
364.32	1929.19
364.53	1992.67
364.75	1812.45
364.96	1839.08
365.18	1906.66
365.39	1953.76
365.61	1867.75
365.82	2033.63
366.04	1957.86
366.25	1806.31
366.47	1957.86
366.68	1925.09
366.90	1861.60
367.11	1941.47
367.33	2025.44
367.54	1957.86
367.76	1947.62
367.97	2033.63
368.19	1894.37
368.40	2080.74
368.62	1923.04
368.83	1914.85
369.05	1920.99
369.26	1855.46
369.48	1916.90
369.69	2009.06
369.91	1974.24
370.12	1951.71
370.33	1984.48
370.55	1845.22
370.76	1986.53
370.98	2095.07
371.19	1970.15
371.41	2007.01
371.62	2025.44
371.84	1935.33
372.05	2002.91
372.27	2011.11
372.48	2045.92
372.69	1996.77
372.91	2072.54
373.12	2058.21
373.34	1927.14
373.55	2035.68
373.77	2027.49
373.98	2056.16
374.20	2107.36
374.41	2168.80
374.62	2078.69
374.84	2101.22
375.05	2119.65
375.27	2115.55
375.48	2115.55
375.70	2045.92
375.91	2224.09
376.12	2191.33
376.34	2197.47
376.55	2140.13
376.77	2224.09
376.98	2015.20
377.19	2078.69
377.41	2052.06
377.62	2168.80
377.84	2283.49
378.05	2293.72
378.27	2133.98
378.48	2246.62
378.69	2285.53
378.91	2332.64
379.12	2236.38
379.34	2136.03
379.55	2213.85
379.76	2224.09
379.98	2142.18
380.19	2181.09
380.41	2220.00
380.62	2275.29
380.83	2197.47
381.05	2164.70
381.26	2473.95
381.47	2176.99
381.69	2260.96
381.90	2367.45
382.12	2234.33
382.33	2269.15
382.54	2306.01
382.76	2267.10
382.97	2254.81
383.19	2199.52
383.40	2420.70
383.61	2289.63
383.83	2232.29
384.04	2371.55
384.25	2367.45
384.47	2357.21
384.68	2285.53
384.89	2271.20
385.11	2281.44
385.32	2312.16
385.54	2277.34
385.75	2283.49
385.96	2414.56
386.18	2426.84
386.39	2408.41
386.60	2328.54
386.82	2408.41
387.03	2471.90
387.24	2449.37
387.46	2428.89
387.67	2514.91
387.88	2508.76
388.10	2498.52
388.31	2432.99
388.52	2621.40
388.74	2547.67
388.95	2574.30
389.16	2568.15
389.38	2416.60
389.59	2574.30
389.80	2566.10
390.02	2539.48
390.23	2637.78
390.44	2412.51
390.66	2662.36
390.87	2562.01
391.08	2670.55
391.30	2637.78
391.51	2664.41
391.72	2656.22
391.94	2660.31
392.15	2686.94
392.36	2609.11
392.58	2574.30
392.79	2652.12
393.00	2643.93
393.22	2740.18
393.43	2846.68
393.64	2709.46
393.85	2832.34
394.07	2746.33
394.28	2660.31
394.49	2795.48
394.71	2856.92
394.92	2842.58
395.13	2701.27
395.35	2672.60
395.56	2731.99
395.77	2822.10
395.98	2904.02
396.20	2895.83
396.41	2822.10
396.62	2830.29
396.84	2838.48
397.05	2881.49
397.26	2932.69
397.47	3057.62
397.69	2842.58
397.90	3065.81
398.11	2944.98
398.32	2893.78
398.54	2865.11
398.75	2953.17
398.96	3026.90
399.18	3104.72
399.39	2994.13
399.60	3071.95
399.81	2953.17
400.03	3053.52
400.24	3327.95
400.45	3016.66
400.66	3117.01
400.88	3135.44
401.09	3252.17
401.30	3102.67
401.51	3198.93
401.73	3123.15
401.94	3157.97
402.15	3141.58
402.36	3313.61
402.58	3114.96
402.79	3168.21
403.00	3182.54
403.21	3178.45
403.43	3295.18
403.64	3299.28
403.85	3172.30
404.06	3194.83
404.27	3227.60
404.49	3166.16
404.70	3174.35
404.91	3356.62
405.12	3237.84
405.34	3297.23
405.55	3471.31
405.76	3147.73
405.97	3268.56
406.19	3348.43
406.40	3334.09
406.61	3350.48
406.82	3327.95
407.03	3352.52
407.25	3346.38
407.46	3510.22
407.67	3440.59
407.88	3495.88
408.09	3319.76
408.31	3411.92
408.52	3456.97
408.73	3444.68
408.94	3311.57
409.15	3436.49
409.37	3502.03
409.58	3475.40
409.79	3608.52
410.00	3532.75
410.21	3520.46
410.43	3540.94
410.64	3512.27
410.85	3604.42
411.06	3639.24
411.27	3557.32
411.48	3657.67
411.70	3606.47
411.91	3590.09
412.12	3620.81
412.33	3641.29
412.54	3700.68
412.76	3809.22
412.97	3737.54
413.18	3557.32
413.39	3721.16
413.60	3772.36
413.81	3708.87
414.03	3620.81
414.24	3723.21
414.45	3895.24
414.66	3542.99
414.87	3725.26
415.08	3672.01
415.30	3809.22
415.51	3770.31
415.72	3876.80
415.93	3741.64
416.14	3882.95
416.35	3821.51
416.56	3788.74
416.78	3866.56
416.99	3917.76
417.20	3809.22
417.41	3923.91
417.62	3944.39
417.83	4020.16
418.04	3952.58
418.26	3981.25
418.47	3989.44
418.68	3917.76
418.89	3956.68
419.10	4073.41
419.31	3987.40
419.52	3921.86
419.73	4095.94
419.95	4157.38
420.16	4077.51
420.37	4075.46
420.58	4077.51
420.79	4014.02
421.00	4169.66
421.21	4245.44
421.42	4091.84
421.63	4224.96
421.85	4220.86
422.06	4157.38
422.27	4196.29
422.48	4194.24
422.69	4327.36
422.90	4351.93
423.11	4358.08
423.32	4411.32
423.53	4329.41
423.75	4399.04
423.96	4534.20
424.17	4435.90
424.38	4626.36
424.59	4448.19
424.80	4773.82
425.01	4532.15
425.22	4399.04
425.43	4489.15
425.64	4648.89
425.85	4634.55
426.06	4593.59
426.28	4671.42
426.49	4556.73
426.70	4708.28
426.91	4747.19
427.12	4683.70
427.33	4804.53
427.54	4657.08
427.75	4812.73
427.96	4941.75
428.17	4886.45
428.38	4859.83
428.59	4863.93
428.80	4833.21
429.01	4802.49
429.23	5011.38
429.44	5048.24
429.65	5038.00
429.86	5054.39
430.07	5023.67
430.28	4880.31
430.49	5154.74
430.70	5111.73
430.91	5111.73
431.12	5048.24
431.33	5113.78
431.54	5191.60
431.75	5109.68
431.96	5207.98
432.17	5287.86
432.38	5146.55
432.59	5380.01
432.80	5392.30
433.01	5433.26
433.22	5363.63
433.43	5373.87
433.64	5363.63
433.85	5222.32
434.06	5509.04
434.27	5404.59
434.49	5433.26
434.70	5521.32
434.91	5586.86
435.12	5717.93
435.33	5572.52
435.54	5506.99
435.75	5394.35
435.96	5601.19
436.17	5398.45
436.38	5539.76
436.59	5552.04
436.80	5609.39
437.01	5916.58
437.22	5795.75
437.43	5662.63
437.64	5588.91
437.85	5849.00
438.06	5799.85
438.27	5615.53
438.48	5785.51
438.69	5988.26
438.90	5957.54
439.11	5932.97
439.32	5953.45
439.53	5824.42
439.74	6000.55
439.95	5973.92
440.16	5992.36
440.37	5900.20
440.57	5935.01
440.78	6049.70
440.99	6049.70
441.20	6107.04
441.41	5799.85
441.62	6164.39
441.83	6150.05
442.04	6229.92
442.25	6109.09
442.46	6135.71
442.67	6311.84
442.88	6746.01
443.09	6092.71
443.30	6029.22
443.51	6295.46
443.72	6537.12
443.93	6309.79
444.14	6684.57
444.35	6145.95
444.56	6467.49
444.77	6240.16
444.98	6416.29
445.19	6483.87
445.40	6455.20
445.61	6520.73
445.81	6616.99
446.02	6637.47
446.23	6401.95
446.44	6309.79
446.65	6655.90
446.86	6659.99
447.07	6692.76
447.28	6840.22
447.49	6879.13
447.70	6631.32
447.91	6633.37
448.12	6782.87
448.33	6844.31
448.54	6959.00
448.74	6635.42
448.95	6985.62
449.16	6879.13
449.37	7114.64
449.58	6848.41
449.79	7214.99
450.00	6905.75
450.21	7014.29
450.42	7085.97
450.63	7307.15
450.84	6936.47
451.05	7128.98
451.25	7131.03
451.46	6977.43
451.67	7290.77
451.88	7526.29
452.09	7227.28
452.30	7210.90
452.51	7143.32
452.72	7167.89
452.93	7638.92
453.13	7190.42
453.34	7227.28
453.55	7458.70
453.76	7374.74
453.97	7776.14
454.18	7346.06
454.39	7638.92
454.60	7522.19
454.81	7823.24
455.01	7651.21
455.22	7452.56
455.43	7741.32
455.64	7980.93
455.85	8003.46
456.06	8001.41
456.27	7982.98
456.48	7876.49
456.68	8177.54
456.89	7999.37
457.10	8177.54
457.31	8038.28
457.52	8091.52
457.73	8011.65
457.94	8396.67
458.14	8089.48
458.35	8585.08
458.56	8421.25
458.77	8066.95
458.98	8443.78
459.19	8259.46
459.39	8523.65
459.60	8662.91
459.81	8490.88
460.02	8718.20
460.23	8615.80
460.44	8826.75
460.65	8824.70
460.85	8798.07
461.06	9009.01
461.27	8683.39
461.48	9009.01
461.69	9105.27
461.89	8716.16
462.10	9324.40
462.31	8863.61
462.52	8933.24
462.73	9121.65
462.94	9351.03
463.14	8966.01
463.35	9115.51
463.56	9592.69
463.77	9643.88
463.98	9441.14
464.18	9396.08
464.39	9625.45
464.60	9670.51
464.81	9809.77
465.02	9639.79
465.23	9994.09
465.43	9684.84
465.64	10067.81
465.85	10149.73
466.06	9805.67
466.27	10370.91
466.47	10202.98
466.68	10299.23
466.89	10350.43
467.10	10383.20
467.30	10155.88
467.51	10547.04
467.72	10858.33
467.93	10364.77
468.14	10479.46
468.34	10776.41
468.55	10864.47
468.76	10557.28
468.97	10497.89
469.17	11122.52
469.38	11018.07
469.59	11032.41
469.80	11114.33
470.01	10991.45
470.21	11122.52
470.42	11327.32
470.63	11315.03
470.84	11183.96
471.04	11636.56
471.25	11462.48
471.46	11620.17
471.67	11691.85
471.87	11671.37
472.08	11847.50
472.29	11974.47
472.50	11870.03
472.70	11943.75
472.91	11939.66
473.12	12193.61
473.33	12234.57
473.53	12478.27
473.74	12545.86
473.95	12498.75
474.16	12445.51
474.36	12844.86
474.57	12750.65
474.78	12808.00
474.99	12949.31
475.19	12861.24
475.40	12932.92
475.61	13166.39
475.81	13377.33
476.02	13233.97
476.23	13363.00
476.44	13477.68
476.64	13729.58
476.85	13784.88
477.06	13608.75
477.27	14042.92
477.47	14087.98
477.68	13946.67
477.89	14171.94
478.09	14194.47
478.30	14274.34
478.51	14411.56
478.71	14495.52
478.92	14534.43
479.13	14618.40
479.34	14810.91
479.54	14731.04
479.75	14946.08
479.96	14915.36
480.16	14995.23
480.37	15290.13
480.58	15261.46
480.78	15626.00
480.99	15431.44
481.20	15697.68
481.41	15462.16
481.61	15709.97
481.82	16008.97
482.03	15738.64
482.23	16008.97
482.44	16054.03
482.65	16207.62
482.85	16455.43
483.06	16391.94
483.27	16307.98
483.47	16596.74
483.68	16506.63
483.89	16860.93
484.09	16604.93
484.30	16969.47
484.51	16948.99
484.71	17334.01
484.92	17114.87
485.13	17256.18
485.33	17309.43
485.54	17256.18
485.75	17747.70
485.95	17987.31
486.16	17690.35
486.37	18044.65
486.57	17839.86
486.78	17706.74
486.98	17962.73
487.19	18071.28
487.40	18218.73
487.60	18231.02
487.81	18462.44
488.02	18527.97
488.22	18390.76
488.43	18534.12
488.64	18491.11
488.84	18767.59
489.05	18990.81
489.25	18982.62
489.46	19168.99
489.67	19171.04
489.87	19392.22
490.08	19427.03
490.29	19302.11
490.49	19842.77
490.70	19635.92
490.90	19775.19
491.11	19769.04
491.32	20063.95
491.52	19869.39
491.73	19896.02
491.94	19990.22
492.14	20172.49
492.35	20819.65
492.55	20504.26
492.76	20612.81
492.97	20586.18
493.17	20707.01
493.38	20637.38
493.58	21069.50
493.79	20928.19
494.00	20850.37
494.20	21143.23
494.41	21382.84
494.61	21327.55
494.82	21266.11
495.02	21153.47
495.23	21794.48
495.44	21866.16
495.64	21896.88
495.85	21616.31
496.05	21970.61
496.26	21921.46
496.47	22470.31
496.67	22046.38
496.88	22480.55
497.08	21939.89
497.29	22613.67
497.49	22431.40
497.70	22746.79
497.91	22793.89
498.11	22783.65
498.32	22742.69
498.52	22988.45
498.73	23266.97
498.93	23031.46
499.14	23293.60
499.34	23316.12
499.55	23281.31
499.76	22908.58
499.96	23449.24
500.17	23412.38
500.37	23559.83
500.58	23709.33
500.78	23752.34
500.99	23789.20
501.19	24075.92
501.40	23922.32
501.60	23959.19
501.81	24145.55
502.02	24112.78
502.22	23928.47
502.43	24536.71
502.63	24194.70
502.84	24354.44
503.04	24477.32
503.25	24338.06
503.45	24616.58
503.66	24805.00
503.86	24934.02
504.07	25323.13
504.27	24788.61
504.48	25214.59
504.68	25153.15
504.89	25294.46
505.09	25503.35
505.30	25357.95
505.50	25333.37
505.71	25540.22
505.91	25634.42
506.12	25548.41
506.32	25644.66
506.53	25716.34
506.73	25796.21
506.94	26072.69
507.14	25867.89
507.35	25923.19
507.55	25820.79
507.76	26127.99
507.96	25976.44
508.17	26150.51
508.37	26289.77
508.58	26414.70
508.78	26359.41
508.99	26631.79
509.19	26447.47
509.40	26353.26
509.60	26539.63
509.81	27004.52
510.01	26842.73
510.22	26386.03
510.42	27217.50
510.63	26973.80
510.83	26873.45
511.04	26859.11
511.24	27430.49
511.44	27117.15
511.65	27039.33
511.85	27170.40
512.06	27182.69
512.26	27125.35
512.47	27434.59
512.67	27676.25
512.88	27559.52
513.08	27274.85
513.29	27858.52
513.49	27774.55
513.69	27788.89
513.90	28063.32
514.10	27971.16
514.31	27803.22
514.51	28401.23
514.72	27872.85
514.92	27846.23
515.13	28264.02
515.33	28249.68
515.53	28368.46
515.74	28407.37
515.94	28526.16
516.15	28683.85
516.35	28036.69
516.56	28634.70
516.76	28575.31
516.96	28663.37
517.17	28544.59
517.37	28651.08
517.58	28712.52
517.78	28980.81
517.99	29019.72
518.19	28927.56
518.39	29218.37
518.60	29124.16
518.80	29167.17
519.01	29630.01
519.21	29017.67
519.41	29449.79
519.62	29492.80
519.82	29505.09
520.03	29683.26
520.23	29677.12
520.43	29699.64
520.64	30230.07
520.84	30004.79
521.05	29724.22
521.25	29906.49
521.45	30058.04
521.66	30086.71
521.86	30197.30
522.07	29984.31
522.27	30426.67
522.47	30291.51
522.68	30666.28
522.88	30395.95
523.08	31008.29
523.29	30527.02
523.49	30688.81
523.70	30621.23
523.90	31192.61
524.10	30772.78
524.31	31219.24
524.51	31194.66
524.71	31122.98
524.92	31163.94
525.12	31295.01
525.33	31307.30
525.53	31469.09
525.73	31946.26
525.94	31616.54
526.14	31651.36
526.34	31778.33
526.55	31862.30
526.75	31835.67
526.95	32085.53
527.16	32089.62
527.36	32081.43
527.56	32351.76
527.77	32409.11
527.97	32407.06
528.17	32345.62
528.38	32314.90
528.58	32822.80
528.78	33009.16
528.99	32833.04
529.19	33197.57
529.39	32763.40
529.60	32941.58
529.80	33220.10
530.00	33420.80
530.21	33644.03
530.41	33359.36
530.61	33441.28
530.82	33668.61
531.02	33562.11
531.22	33705.47
531.43	33805.82
531.63	33928.70
531.83	34219.51
532.04	34510.32
532.24	34166.26
532.44	34485.75
532.64	34743.79
532.85	34272.76
533.05	34706.93
533.25	34721.26
533.46	34582.00
533.66	34993.64
533.86	34758.13
534.07	35210.73
534.27	34934.25
534.47	35538.40
534.67	35309.03
534.88	35233.25
535.08	35188.20
535.28	35503.59
535.49	35558.88
535.69	36146.65
535.89	36144.60
536.09	35790.30
536.30	36101.59
536.50	36203.99
536.70	36279.77
536.91	36369.88
537.11	36529.62
537.31	36466.13
537.51	36259.29
537.72	36638.16
537.92	36619.73
538.12	36871.63
538.32	36675.02
538.53	37389.77
538.73	36847.05
538.93	37223.88
539.13	37213.64
539.34	37234.12
539.54	36969.93
539.74	37529.03
539.94	37756.35
540.15	37365.19
540.35	37647.81
540.55	37879.23
540.75	37729.73
540.96	37688.77
541.16	37725.63
541.36	37998.01
541.56	37920.19
541.77	38497.72
541.97	38135.23
542.17	38139.32
542.37	38135.23
542.58	38720.95
542.78	38505.91
542.98	38647.22
543.18	38602.16
543.38	38972.85
543.59	39159.21
543.79	38897.07
543.99	39048.62
544.19	39359.91
544.40	39003.56
544.60	39269.80
544.80	39536.04
545.00	39517.60
545.20	39701.92
545.41	39364.01
545.61	39413.16
545.81	39878.05
546.01	39640.48
546.21	39642.53
546.42	39632.29
546.62	39822.75
546.82	39769.51
547.02	39972.25
547.22	40349.08
547.43	39966.11
547.63	40486.29
547.83	40293.79
548.03	39880.10
548.23	40560.02
548.44	40172.96
548.64	40562.07
548.84	40523.16
549.04	40897.94
549.24	40639.89
549.45	41194.89
549.65	40664.47
549.85	41153.93
550.05	41287.05
550.25	41014.67
550.45	41430.41
550.66	41125.26
550.86	41022.86
551.06	41371.02
551.26	41487.75
551.46	41524.61
551.66	41729.41
551.87	41608.58
552.07	41534.85
552.27	41407.88
552.47	41528.71
552.67	41960.83
552.87	41715.08
553.07	42075.52
553.28	42096.00
553.48	42102.14
553.68	42182.01
553.88	42526.07
554.08	42343.80
554.28	42003.84
554.48	42208.64
554.69	42270.08
554.89	42509.69
555.09	42157.44
555.29	42218.88
555.49	42548.60
555.69	42677.62
555.89	42335.61
556.10	42521.98
556.30	42444.15
556.50	42966.38
556.70	42661.24
556.90	42986.86
557.10	42833.27
557.30	42759.54
557.50	43273.58
557.70	43267.44
557.91	43361.64
558.11	43335.02
558.31	43488.62
558.51	43203.95
558.71	43554.15
558.91	43509.10
559.11	43099.50
559.31	43447.66
559.51	42691.96
559.72	43455.85
559.92	43756.90
560.12	43326.83
560.32	43697.51
560.52	43857.25
560.72	43947.36
560.92	43785.57
561.12	43681.13
561.32	43935.07
561.52	43914.59
561.72	44098.91
561.93	43912.55
562.13	44055.90
562.33	43896.16
562.53	44408.15
562.73	44000.61
562.93	44256.60
563.13	44539.22
563.33	44051.81
563.53	44494.17
563.73	44385.63
563.93	44383.58
564.13	44836.18
564.33	44182.88
564.53	44467.55
564.74	44442.97
564.94	44301.66
565.14	44240.22
565.34	44756.31
565.54	44660.05
565.74	44752.21
565.94	45260.11
566.14	44373.34
566.34	44727.64
566.54	45284.68
566.74	44768.60
566.94	44744.02
567.14	44930.39
567.34	44862.80
567.54	45284.68
567.74	44909.91
567.94	44770.64
568.14	45620.55
568.34	45192.53
568.54	45245.77
568.74	45206.86
568.94	45313.36
569.14	45538.63
569.34	44938.58
569.54	45055.31
569.75	44934.48
569.95	45706.57
570.15	45806.92
570.35	45423.95
570.55	45487.43
570.75	45673.80
570.95	45815.11
571.15	46083.39
571.35	45909.32
571.55	45956.42
571.75	45679.94
571.95	45985.09
572.15	45612.36
572.35	45872.45
572.55	46101.82
572.75	45978.95
572.95	45700.42
573.15	45987.14
573.35	46124.35
573.55	46097.73
573.75	45827.40
573.95	46011.71
574.15	45972.80
574.35	46196.03
574.55	45987.14
574.75	46038.34
574.95	46456.12
575.15	46175.55
575.34	46347.58
575.54	46519.61
575.74	46447.93
575.94	46323.01
576.14	46513.47
576.34	47232.30
576.54	46791.99
576.74	47013.17
576.94	46527.80
577.14	47021.36
577.34	46939.44
577.54	46837.05
577.74	46980.40
577.94	47084.85
578.14	46908.72
578.34	47605.03
578.54	46626.10
578.74	47267.12
578.94	47408.43
579.14	47002.93
579.34	46914.87
579.54	46873.91
579.74	47488.30
579.94	47750.44
580.13	47662.38
580.33	47523.11
580.53	47754.54
580.73	47670.57
580.93	47330.61
581.13	47723.82
581.33	47897.89
581.53	48086.31
581.73	47961.38
581.93	48336.16
582.13	47846.69
582.33	47828.26
582.53	47922.47
582.73	48190.75
582.92	47582.51
583.12	48213.28
583.32	48211.23
583.52	48235.81
583.72	48606.49
583.92	48213.28
584.12	48516.38
584.32	48895.25
584.52	48712.98
584.72	48719.13
584.92	48387.36
585.11	48631.07
585.31	49005.84
585.51	48735.51
585.71	48983.32
585.91	49202.45
586.11	48557.34
586.31	48684.31
586.51	48928.02
586.71	49120.53
586.91	49276.18
587.10	49310.99
587.30	49466.64
587.50	49327.38
587.70	49370.38
587.90	49169.68
588.10	49335.57
588.30	49222.93
588.50	49804.55
