SpectraSuite Data File
++++++++++++++++++++++++++++++++++++
Date: Fri Jun 02 14:52:24 CEST 2017
User: INFO_000
Dark Spectrum Present: No
Reference Spectrum Present: No
Number of Sampled Component Spectra: 1
Spectrometers: USB4H00879
Integration Time (usec): 80000 (USB4H00879)
Spectra Averaged: 1 (USB4H00879)
Boxcar Smoothing: 0 (USB4H00879)
Correct for Electrical Dark: No (USB4H00879)
Strobe/Lamp Enabled: No (USB4H00879)
Correct for Detector Non-linearity: No (USB4H00879)
Correct for Stray Light: No (USB4H00879)
Number of Pixels in Processed Spectrum: 3648
>>>>>Begin Processed Spectral Data<<<<<
345.13	1286.12
345.34	1286.12
345.56	1286.12
345.78	1241.07
345.99	1282.03
346.21	1673.19
346.42	1744.87
346.64	1665.00
346.86	1769.44
347.07	1650.66
347.29	1667.05
347.50	1601.51
347.72	1642.47
347.94	1726.44
348.15	1619.94
348.37	1621.99
348.59	1652.71
348.80	1601.51
349.02	1740.77
349.23	1808.36
349.45	1761.25
349.67	1920.99
349.88	1812.45
350.10	1947.62
350.31	1828.84
350.53	1773.54
350.75	1916.90
350.96	1722.34
351.18	1816.55
351.39	1882.08
351.61	1857.51
351.82	1859.56
352.04	1906.66
352.26	1812.45
352.47	1867.75
352.69	1871.84
352.90	1767.40
353.12	1777.64
353.34	1845.22
353.55	1937.38
353.77	1880.04
353.98	1884.13
354.20	1814.50
354.41	1925.09
354.63	1918.95
354.85	1937.38
355.06	1896.42
355.28	1714.15
355.49	1824.74
355.71	1767.40
355.92	1834.98
356.14	1929.19
356.35	1751.01
356.57	1845.22
356.79	1933.28
357.00	1824.74
357.22	1923.04
357.43	1839.08
357.65	1945.57
357.86	1892.32
358.08	1869.80
358.29	1996.77
358.51	1939.43
358.72	1994.72
358.94	1935.33
359.16	1884.13
359.37	1937.38
359.59	1892.32
359.80	2002.91
360.02	1986.53
360.23	1953.76
360.45	2011.11
360.66	1970.15
360.88	1853.41
361.09	1888.23
361.31	2062.30
361.52	1925.09
361.74	2007.01
361.95	2095.07
362.17	1935.33
362.38	2099.17
362.60	1998.82
362.81	1990.63
363.03	1894.37
363.24	1982.43
363.46	2140.13
363.67	2000.87
363.89	1982.43
364.10	1988.58
364.32	2052.06
364.53	2152.42
364.75	1912.80
364.96	1986.53
365.18	2160.61
365.39	2029.54
365.61	2021.35
365.82	2125.79
366.04	2074.59
366.25	1951.71
366.47	1927.14
366.68	2039.78
366.90	2052.06
367.11	2109.41
367.33	2058.21
367.54	2136.03
367.76	2027.49
367.97	2127.84
368.19	1910.75
368.40	2045.92
368.62	1994.72
368.83	2007.01
369.05	2076.64
369.26	1920.99
369.48	2060.26
369.69	2027.49
369.91	2060.26
370.12	1947.62
370.33	2027.49
370.55	2004.96
370.76	2058.21
370.98	2105.31
371.19	2072.54
371.41	2031.58
371.62	2039.78
371.84	2002.91
372.05	2105.31
372.27	1972.19
372.48	2160.61
372.69	2088.93
372.91	2138.08
373.12	2133.98
373.34	2064.35
373.55	2121.70
373.77	2191.33
373.98	2027.49
374.20	2256.86
374.41	2174.94
374.62	2113.50
374.84	2119.65
375.05	2215.90
375.27	2248.67
375.48	2203.61
375.70	2170.85
375.91	2215.90
376.12	2293.72
376.34	2187.23
376.55	2232.29
376.77	2207.71
376.98	2185.18
377.19	2121.70
377.41	2125.79
377.62	2193.37
377.84	2287.58
378.05	2273.25
378.27	2191.33
378.48	2326.49
378.69	2353.12
378.91	2308.06
379.12	2258.91
379.34	2191.33
379.55	2308.06
379.76	2381.79
379.98	2252.77
380.19	2224.09
380.41	2326.49
380.62	2279.39
380.83	2273.25
381.05	2095.07
381.26	2482.14
381.47	2215.90
381.69	2283.49
381.90	2478.04
382.12	2252.77
382.33	2238.43
382.54	2359.26
382.76	2363.36
382.97	2349.02
383.19	2269.15
383.40	2385.88
383.61	2365.40
383.83	2291.68
384.04	2377.69
384.25	2389.98
384.47	2426.84
384.68	2369.50
384.89	2308.06
385.11	2332.64
385.32	2371.55
385.54	2385.88
385.75	2375.64
385.96	2394.08
386.18	2488.28
386.39	2422.75
386.60	2338.78
386.82	2473.95
387.03	2400.22
387.24	2502.62
387.46	2496.47
387.67	2430.94
387.88	2594.78
388.10	2478.04
388.31	2498.52
388.52	2611.16
388.74	2535.39
388.95	2549.72
389.16	2555.86
389.38	2510.81
389.59	2543.58
389.80	2623.45
390.02	2537.43
390.23	2625.50
390.44	2662.36
390.66	2592.73
390.87	2564.06
391.08	2566.10
391.30	2682.84
391.51	2643.93
391.72	2701.27
391.94	2674.65
392.15	2576.34
392.36	2682.84
392.58	2643.93
392.79	2678.74
393.00	2705.37
393.22	2881.49
393.43	2779.09
393.64	2895.83
393.85	2789.33
394.07	2797.53
394.28	2658.26
394.49	2834.39
394.71	2772.95
394.92	2940.88
395.13	2678.74
395.35	2785.24
395.56	2729.94
395.77	2746.33
395.98	2916.31
396.20	2881.49
396.41	2901.97
396.62	2930.64
396.84	2908.12
397.05	2861.01
397.26	2944.98
397.47	2967.51
397.69	2815.96
397.90	2998.23
398.11	2965.46
398.32	2818.00
398.54	2867.16
398.75	2846.68
398.96	2957.27
399.18	3129.30
399.39	2967.51
399.60	3014.61
399.81	3006.42
400.03	2944.98
400.24	3250.13
400.45	2961.36
400.66	3000.27
400.88	3112.91
401.09	3209.17
401.30	3157.97
401.51	3188.69
401.73	3143.63
401.94	3200.98
402.15	3094.48
402.36	3112.91
402.58	3284.94
402.79	3219.41
403.00	3219.41
403.21	3205.07
403.43	3145.68
403.64	3264.46
403.85	3078.10
404.06	3311.57
404.27	3092.43
404.49	3336.14
404.70	3211.22
404.91	3346.38
405.12	3350.48
405.34	3254.22
405.55	3393.48
405.76	3219.41
405.97	3211.22
406.19	3479.50
406.40	3225.55
406.61	3295.18
406.82	3430.35
407.03	3303.37
407.25	3272.65
407.46	3614.66
407.67	3377.10
407.88	3332.05
408.09	3346.38
408.31	3350.48
408.52	3528.65
408.73	3356.62
408.94	3428.30
409.15	3465.16
409.37	3528.65
409.58	3549.13
409.79	3497.93
410.00	3526.60
410.21	3542.99
410.43	3497.93
410.64	3600.33
410.85	3702.73
411.06	3549.13
411.27	3561.42
411.48	3592.14
411.70	3555.27
411.91	3629.00
412.12	3798.98
412.33	3534.79
412.54	3547.08
412.76	3741.64
412.97	3721.16
413.18	3545.03
413.39	3610.57
413.60	3715.02
413.81	3762.12
414.03	3686.34
414.24	3635.14
414.45	3772.36
414.66	3524.55
414.87	3710.92
415.08	3678.15
415.30	3813.32
415.51	3864.52
415.72	3743.69
415.93	3790.79
416.14	3831.75
416.35	3911.62
416.56	3850.18
416.78	3833.80
416.99	3827.65
417.20	3968.96
417.41	3932.10
417.62	3911.62
417.83	3995.59
418.04	3936.20
418.26	4022.21
418.47	3917.76
418.68	4073.41
418.89	3999.68
419.10	4175.81
419.31	4057.03
419.52	4124.61
419.73	3948.48
419.95	4214.72
420.16	3934.15
420.37	4153.28
420.58	4184.00
420.79	3901.38
421.00	4218.82
421.21	4231.10
421.42	4081.60
421.63	4157.38
421.85	4171.71
422.06	4298.69
422.27	4071.36
422.48	4267.97
422.69	4257.73
422.90	4255.68
423.11	4425.66
423.32	4446.14
423.53	4450.24
423.75	4308.93
423.96	4474.81
424.17	4358.08
424.38	4644.79
424.59	4450.24
424.80	4566.97
425.01	4472.76
425.22	4440.00
425.43	4435.90
425.64	4487.10
425.85	4759.48
426.06	4706.23
426.28	4575.16
426.49	4548.54
426.70	4579.26
426.91	4560.83
427.12	4661.18
427.33	4702.14
427.54	4689.85
427.75	4728.76
427.96	4898.74
428.17	4786.10
428.38	5023.67
428.59	4960.18
428.80	4816.82
429.01	4937.65
429.23	4835.25
429.44	5007.28
429.65	5035.96
429.86	4992.95
430.07	4876.21
430.28	4937.65
430.49	4999.09
430.70	5076.91
430.91	5187.50
431.12	5083.06
431.33	5265.33
431.54	5162.93
431.75	5250.99
431.96	5283.76
432.17	5167.03
432.38	5195.70
432.59	5486.51
432.80	5259.18
433.01	5294.00
433.22	5363.63
433.43	5425.07
433.64	5257.14
433.85	5193.65
434.06	5355.44
434.27	5377.97
434.49	5500.84
434.70	5492.65
434.91	5531.56
435.12	5511.08
435.33	5478.32
435.54	5457.84
435.75	5468.08
435.96	5590.95
436.17	5556.14
436.38	5611.43
436.59	5744.55
436.80	5584.81
437.01	5732.26
437.22	5777.32
437.43	5738.41
437.64	5535.66
437.85	5717.93
438.06	5816.23
438.27	5803.94
438.48	5740.46
438.69	5967.78
438.90	5842.85
439.11	5746.60
439.32	5994.40
439.53	6029.22
439.74	5859.24
439.95	6014.88
440.16	5906.34
440.37	5947.30
440.57	5900.20
440.78	6002.60
440.99	6049.70
441.20	6086.56
441.41	5918.63
441.62	6102.95
441.83	5849.00
442.04	6166.43
442.25	6152.10
442.46	6191.01
442.67	6180.77
442.88	6610.84
443.09	6121.38
443.30	6229.92
443.51	6092.71
443.72	6514.59
443.93	6203.30
444.14	6664.09
444.35	6262.69
444.56	6434.72
444.77	6485.92
444.98	6637.47
445.19	6487.96
445.40	6533.02
445.61	6514.59
445.81	6557.60
446.02	6659.99
446.23	6688.67
446.44	6344.61
446.65	6655.90
446.86	6776.73
447.07	6619.04
447.28	6748.06
447.49	6768.54
447.70	6610.84
447.91	6922.13
448.12	6754.20
448.33	6913.94
448.54	7004.05
448.74	6655.90
448.95	6897.56
449.16	6891.41
449.37	7346.06
449.58	6860.70
449.79	6999.96
450.00	6836.12
450.21	7057.30
450.42	7225.23
450.63	7051.16
450.84	7260.05
451.05	7092.12
451.25	7217.04
451.46	7233.43
451.67	7296.91
451.88	7415.69
452.09	7303.06
452.30	7296.91
452.51	7221.14
452.72	7307.15
452.93	7720.84
453.13	7270.29
453.34	7387.02
453.55	7520.14
453.76	7526.29
453.97	7679.88
454.18	7497.61
454.39	7796.62
454.60	7581.58
454.81	7690.12
455.01	7776.14
455.22	7579.53
455.43	7946.12
455.64	7958.41
455.85	7968.65
456.06	8132.48
456.27	7970.69
456.48	7757.71
456.68	8054.66
456.89	7958.41
457.10	8075.14
457.31	8019.85
457.52	8009.61
457.73	8112.00
457.94	8339.33
458.14	8054.66
458.35	8490.88
458.56	8341.38
458.77	8363.90
458.98	8519.55
459.19	8503.17
459.39	8484.73
459.60	8767.35
459.81	8359.81
460.02	8695.68
460.23	8585.08
460.44	9045.88
460.65	8771.45
460.85	8785.79
461.06	8931.19
461.27	8621.95
461.48	8933.24
461.69	9205.62
461.89	8384.38
462.10	9111.41
462.31	8839.03
462.52	8929.14
462.73	9172.85
462.94	9459.57
463.14	9232.24
463.35	9121.65
463.56	9570.16
463.77	9621.36
463.98	9531.25
464.18	9205.62
464.39	9609.07
464.60	9637.74
464.81	9662.32
465.02	9375.60
465.23	9832.30
465.43	9578.35
465.64	9750.38
465.85	9920.36
466.06	9760.62
466.27	10092.39
466.47	10063.72
466.68	10076.01
466.89	10039.14
467.10	10145.64
467.30	10127.21
467.51	10321.76
467.72	10565.47
467.93	10309.47
468.14	10190.69
468.34	10651.49
468.55	10661.73
468.76	10577.76
468.97	10350.43
469.17	10846.04
469.38	10956.63
469.59	10893.15
469.80	10745.69
470.01	10835.80
470.21	10960.73
470.42	11042.65
470.63	11292.50
470.84	11210.58
471.04	11296.60
471.25	11349.84
471.46	11394.90
471.67	11624.27
471.87	11503.44
472.08	11679.57
472.29	11884.36
472.50	11493.20
472.70	11646.80
472.91	11706.19
473.12	12050.25
473.33	11999.05
473.53	12275.52
473.74	12029.77
473.95	12562.24
474.16	12453.70
474.36	12435.27
474.57	12695.36
474.78	12711.74
474.99	12597.06
475.19	12701.50
475.40	13129.53
475.61	13041.46
475.81	13027.13
476.02	13199.16
476.23	13229.88
476.44	13350.71
476.64	13573.94
476.85	13688.62
477.06	13299.51
477.27	13926.19
477.47	13864.75
477.68	13938.48
477.89	14223.14
478.09	14151.46
478.30	14276.39
478.51	14200.62
478.71	14202.66
478.92	14350.12
479.13	14536.48
479.34	14872.35
479.54	14868.25
479.75	14800.67
479.96	15036.19
480.16	14798.62
480.37	15032.09
480.58	15337.24
480.78	15490.84
480.99	15488.79
481.20	15617.81
481.41	15652.63
481.61	15867.66
481.82	15847.18
482.03	15734.54
482.23	15785.74
482.44	16232.20
482.65	16035.60
482.85	16314.12
483.06	16563.97
483.27	16619.27
483.47	16576.26
483.68	16654.08
483.89	16715.52
484.09	16733.95
484.30	16920.32
484.51	16908.03
484.71	17241.85
484.92	17065.72
485.13	17362.68
485.33	17534.71
485.54	17313.53
485.75	17862.38
485.95	17788.66
486.16	17774.32
486.37	18013.93
486.57	18110.19
486.78	17997.55
486.98	18149.10
487.19	18046.70
487.40	18495.21
487.60	18304.74
487.81	18642.66
488.02	18333.42
488.22	18493.16
488.43	18910.94
488.64	19259.10
488.84	18960.09
489.05	19351.26
489.25	18826.98
489.46	19341.02
489.67	19267.29
489.87	19863.25
490.08	19601.11
490.29	19719.89
490.49	20043.47
490.70	19900.11
490.90	20104.91
491.11	20080.33
491.32	20229.84
491.52	20192.97
491.73	20428.49
491.94	20588.23
492.14	20389.58
492.35	20778.69
492.55	20817.60
492.76	20909.76
492.97	21018.30
493.17	21022.40
493.38	20836.03
493.58	21305.02
493.79	21272.25
494.00	21315.26
494.20	21356.22
494.41	21558.97
494.61	21636.79
494.82	21616.31
495.02	21917.36
495.23	21726.90
495.44	22191.79
495.64	22111.92
495.85	21989.04
496.05	21991.09
496.26	22406.83
496.47	22722.21
496.67	22228.65
496.88	22628.01
497.08	22374.06
497.29	22761.12
497.49	22615.72
497.70	22853.28
497.91	23142.05
498.11	23217.82
498.32	23340.70
498.52	23078.56
498.73	23518.87
498.93	23164.57
499.14	23244.45
499.34	23404.19
499.55	23436.95
499.76	23484.06
499.96	23717.53
500.17	23699.09
500.37	23617.18
500.58	23598.74
500.78	23828.12
500.99	24114.83
501.19	24272.53
501.40	24039.06
501.60	24008.34
501.81	24104.59
502.02	24155.79
502.22	24202.89
502.43	24108.69
502.63	24510.09
502.84	24540.81
503.04	24817.29
503.25	24501.90
503.45	24682.12
503.66	24788.61
503.86	24868.48
504.07	25128.58
504.27	24829.57
504.48	25298.56
504.68	24579.72
504.89	25489.02
505.09	25155.20
505.30	25040.51
505.50	25042.56
505.71	25382.52
505.91	25656.95
506.12	25290.37
506.32	25316.99
506.53	25360.00
506.73	25562.75
506.94	25962.10
507.14	25691.77
507.35	25659.00
507.55	25765.49
507.76	25867.89
507.96	25736.82
508.17	25904.76
508.37	26080.88
508.58	26324.59
508.78	26121.84
508.99	26377.84
509.19	26148.46
509.40	26164.85
509.60	26343.02
509.81	26562.15
510.01	26349.17
510.22	26404.46
510.42	26648.17
510.63	26488.43
510.83	26467.95
511.04	26623.59
511.24	26867.30
511.44	26859.11
511.65	26908.26
511.85	26721.90
512.06	26633.83
512.26	27197.02
512.47	27244.13
512.67	26957.41
512.88	27289.18
513.08	26902.12
513.29	27227.74
513.49	27154.02
513.69	27442.78
513.90	27061.86
514.10	27659.87
514.31	27516.51
514.51	27881.05
514.72	27471.45
514.92	27559.52
515.13	27715.16
515.33	27571.80
515.53	27858.52
515.74	27987.54
515.94	27909.72
516.15	28268.11
516.35	28059.22
516.56	28192.34
516.76	28008.02
516.96	28034.64
517.17	28386.89
517.37	28343.89
517.58	28206.67
517.78	28268.11
517.99	28159.57
518.19	28456.53
518.39	28630.60
518.60	28966.47
518.80	28700.23
519.01	28921.41
519.21	29230.66
519.41	29011.53
519.62	28964.42
519.82	28927.56
520.03	29201.99
520.23	29251.14
520.43	28798.54
520.64	29777.47
520.84	29343.30
521.05	29478.46
521.25	29636.16
521.45	29873.72
521.66	29816.38
521.86	29863.48
522.07	29992.50
522.27	30008.89
522.47	29914.68
522.68	30320.18
522.88	29910.58
523.08	30303.79
523.29	30248.50
523.49	30404.14
523.70	30518.83
523.90	30357.04
524.10	30410.29
524.31	31135.27
524.51	30748.20
524.71	31178.28
524.92	31374.88
525.12	31366.69
525.33	31155.75
525.53	31391.26
525.73	31716.89
525.94	31553.05
526.14	31563.29
526.34	31442.46
526.55	31841.82
526.75	31772.19
526.95	31983.13
527.16	31880.73
527.36	31956.50
527.56	32478.74
527.77	32558.61
527.97	32423.44
528.17	32497.17
528.38	32712.20
528.58	32810.51
528.78	33201.67
528.99	32767.50
529.19	32886.28
529.39	32923.15
529.60	33197.57
529.80	33021.45
530.00	33093.13
530.21	33256.96
530.41	33629.69
530.61	33345.03
530.82	33435.14
531.02	33492.48
531.22	33842.68
531.43	33916.41
531.63	34092.54
531.83	34270.71
532.04	34440.69
532.24	34190.84
532.44	34735.60
532.64	34692.59
532.85	34725.36
533.05	34780.65
533.25	35212.77
533.46	34776.56
533.66	35358.18
533.86	35063.27
534.07	35345.89
534.27	35302.89
534.47	35616.22
534.67	35950.04
534.88	35784.16
535.08	35808.73
535.28	35931.61
535.49	35898.84
535.69	36228.57
535.89	36613.59
536.09	36189.66
536.30	36443.60
536.50	36775.37
536.70	36697.55
536.91	36185.56
537.11	36660.69
537.31	36683.22
537.51	36795.85
537.72	37459.40
537.92	37715.39
538.12	37797.31
538.32	37377.48
538.53	37764.54
538.73	37301.70
538.93	37291.46
539.13	37819.84
539.34	37742.02
539.54	38110.65
539.74	38311.35
539.94	38237.62
540.15	37844.41
540.35	38163.90
540.55	37928.38
540.75	38307.26
540.96	38460.85
541.16	38550.96
541.36	38729.14
541.56	38815.15
541.77	39034.28
541.97	38710.71
542.17	38884.78
542.37	39220.65
542.58	38876.59
542.78	39157.16
542.98	39230.89
543.18	39318.95
543.38	39617.96
543.59	39425.45
543.79	39312.81
543.99	39509.41
544.19	39708.07
544.40	39454.12
544.60	39783.84
544.80	39607.72
545.00	39818.66
545.20	40265.11
545.41	39847.33
545.61	39923.10
545.81	40299.93
546.01	40136.09
546.21	40103.32
546.42	40486.29
546.62	40258.97
546.82	40476.05
547.02	40336.79
547.22	40474.01
547.43	40295.83
547.63	40598.93
547.83	40668.56
548.03	40365.46
548.23	41108.88
548.44	40975.76
548.64	40744.34
548.84	40680.85
549.04	41067.92
549.24	41274.76
549.45	41356.68
549.65	41057.68
549.85	41102.73
550.05	41395.59
550.25	41534.85
550.45	41848.19
550.66	41543.05
550.86	41358.73
551.06	41319.82
551.26	41692.55
551.46	41917.82
551.66	42128.77
551.87	41811.33
552.07	41989.50
552.27	41674.12
552.47	42087.81
552.67	42063.23
552.87	42104.19
553.07	42288.51
553.28	42329.47
553.48	42407.29
553.68	42198.40
553.88	42732.92
554.08	42427.77
554.28	42261.88
554.48	41993.60
554.69	42327.42
554.89	42198.40
555.09	42747.25
555.29	42366.33
555.49	42648.95
555.69	42747.25
555.89	42526.07
556.10	42841.46
556.30	42335.61
556.50	42798.45
556.70	42528.12
556.90	43337.07
557.10	42939.76
557.30	42794.36
557.50	43044.21
557.70	42853.75
557.91	43298.16
558.11	42831.22
558.31	43040.11
558.51	42872.18
558.71	42861.94
558.91	43126.13
559.11	42925.42
559.31	43072.88
559.51	43232.62
559.72	42993.01
559.92	43232.62
560.12	43076.97
560.32	43816.29
560.52	42880.37
560.72	43238.76
560.92	43488.62
561.12	43175.28
561.32	43652.45
561.52	43335.02
561.72	43826.53
561.93	43421.03
562.13	43515.24
562.33	43283.82
562.53	44092.77
562.73	43324.78
562.93	43066.73
563.13	43883.87
563.33	43302.25
563.53	43949.41
563.73	43279.72
563.93	43537.77
564.13	44154.21
564.33	43947.36
564.53	43857.25
564.74	44205.41
564.94	44070.24
565.14	43820.39
565.34	43451.75
565.54	43996.51
565.74	44055.90
565.94	44291.42
566.14	43947.36
566.34	43851.11
566.54	44846.42
566.74	44012.90
566.94	44139.87
567.14	44612.95
567.34	44189.02
567.54	44461.40
567.74	44313.95
567.94	44152.16
568.14	44295.52
568.34	44729.69
568.54	44389.72
568.74	44598.62
568.94	44633.43
569.14	44787.03
569.34	44639.57
569.54	44543.32
569.75	44313.95
569.95	44387.67
570.15	44789.08
570.35	44987.73
570.55	44555.61
570.75	44791.12
570.95	44778.84
571.15	44897.62
571.35	44660.05
571.55	45073.74
571.75	44754.26
571.95	45208.91
572.15	45268.30
572.35	45497.67
572.55	45184.33
572.75	45178.19
572.95	45135.18
573.15	45221.20
573.35	45110.61
573.55	44696.92
573.75	44961.11
573.95	45348.17
574.15	45378.89
574.35	45186.38
574.55	45706.57
574.75	45466.95
574.95	45565.26
575.15	45483.34
575.34	45684.04
575.54	46003.52
575.74	45892.93
575.94	45671.75
576.14	45921.60
576.34	46286.14
576.54	46028.10
576.74	46429.50
576.94	45849.92
577.14	46339.39
577.34	46390.59
577.54	46474.55
577.74	46587.19
577.94	46265.66
578.14	46273.85
578.34	46478.65
578.54	46077.25
578.74	46521.66
578.94	46314.81
579.14	46220.61
579.34	46484.79
579.54	46742.84
579.74	46896.44
579.94	46695.74
580.13	47123.76
580.33	46906.68
580.53	46988.60
580.73	46781.75
580.93	46708.02
581.13	47199.54
581.33	47404.33
581.53	47994.15
581.73	47027.51
581.93	47820.07
582.13	47723.82
582.33	47842.60
582.53	47633.71
582.73	47912.23
582.92	47695.14
583.12	48151.84
583.32	47514.92
583.52	47658.28
583.72	48059.68
583.92	47965.48
584.12	48424.22
584.32	48500.00
584.52	48231.71
584.72	48264.48
584.92	48577.82
585.11	49020.18
585.31	48436.51
585.51	48747.80
585.71	48608.54
585.91	48444.70
586.11	48655.64
586.31	48516.38
586.51	48489.76
586.71	49110.29
586.91	49192.21
587.10	48936.21
587.30	49157.39
587.50	49274.13
587.70	49665.29
587.90	49159.44
588.10	49515.79
588.30	49298.70
588.50	49927.43
