SpectraSuite Data File
++++++++++++++++++++++++++++++++++++
Date: Fri Jun 02 14:52:27 CEST 2017
User: INFO_000
Dark Spectrum Present: No
Reference Spectrum Present: No
Number of Sampled Component Spectra: 1
Spectrometers: USB4H00879
Integration Time (usec): 80000 (USB4H00879)
Spectra Averaged: 1 (USB4H00879)
Boxcar Smoothing: 0 (USB4H00879)
Correct for Electrical Dark: No (USB4H00879)
Strobe/Lamp Enabled: No (USB4H00879)
Correct for Detector Non-linearity: No (USB4H00879)
Correct for Stray Light: No (USB4H00879)
Number of Pixels in Processed Spectrum: 3648
>>>>>Begin Processed Spectral Data<<<<<
345.13	1267.69
345.34	1267.69
345.56	1267.69
345.78	1341.42
345.99	1261.55
346.21	1585.13
346.42	1738.73
346.64	1624.04
346.86	1855.46
347.07	1634.28
347.29	1689.57
347.50	1619.94
347.72	1681.38
347.94	1734.63
348.15	1607.66
348.37	1591.27
348.59	1669.09
348.80	1683.43
349.02	1734.63
349.23	1869.80
349.45	1783.78
349.67	1828.84
349.88	1791.97
350.10	1959.91
350.31	1837.03
350.53	1822.69
350.75	1935.33
350.96	1718.25
351.18	1849.32
351.39	1949.67
351.61	1765.35
351.82	1918.95
352.04	1929.19
352.26	1906.66
352.47	1988.58
352.69	1910.75
352.90	1785.83
353.12	1785.83
353.34	1877.99
353.55	2009.06
353.77	1888.23
353.98	1824.74
354.20	1841.12
354.41	1947.62
354.63	1943.52
354.85	2047.97
355.06	1947.62
355.28	1834.98
355.49	1882.08
355.71	1937.38
355.92	1908.71
356.14	1900.52
356.35	1843.17
356.57	1849.32
356.79	1937.38
357.00	1869.80
357.22	1875.94
357.43	1839.08
357.65	1945.57
357.86	1949.67
358.08	1849.32
358.29	1912.80
358.51	1970.15
358.72	1964.00
358.94	1974.24
359.16	1937.38
359.37	1945.57
359.59	1894.37
359.80	2035.68
360.02	1970.15
360.23	2021.35
360.45	1916.90
360.66	1972.19
360.88	1882.08
361.09	1955.81
361.31	2031.58
361.52	1933.28
361.74	2047.97
361.95	2101.22
362.17	1966.05
362.38	2107.36
362.60	2029.54
362.81	1961.95
363.03	2011.11
363.24	2029.54
363.46	1994.72
363.67	1961.95
363.89	2027.49
364.10	2105.31
364.32	2017.25
364.53	2050.02
364.75	1886.18
364.96	2101.22
365.18	2074.59
365.39	2033.63
365.61	2035.68
365.82	2187.23
366.04	2088.93
366.25	1941.47
366.47	2099.17
366.68	2125.79
366.90	1990.63
367.11	2181.09
367.33	2121.70
367.54	2166.75
367.76	2009.06
367.97	2123.74
368.19	1984.48
368.40	2070.50
368.62	1964.00
368.83	1996.77
369.05	2068.45
369.26	1916.90
369.48	2000.87
369.69	1955.81
369.91	2019.30
370.12	2068.45
370.33	2109.41
370.55	2027.49
370.76	2072.54
370.98	2052.06
371.19	2084.83
371.41	1984.48
371.62	2017.25
371.84	2076.64
372.05	2131.94
372.27	2090.98
372.48	2082.78
372.69	2113.50
372.91	2129.89
373.12	2125.79
373.34	2168.80
373.55	2254.81
373.77	2213.85
373.98	2043.87
374.20	2150.37
374.41	2301.92
374.62	2103.26
374.84	2166.75
375.05	2150.37
375.27	2158.56
375.48	2158.56
375.70	2154.46
375.91	2248.67
376.12	2271.20
376.34	2220.00
376.55	2242.53
376.77	2164.70
376.98	2181.09
377.19	2136.03
377.41	2086.88
377.62	2199.52
377.84	2365.40
378.05	2355.16
378.27	2236.38
378.48	2338.78
378.69	2322.40
378.91	2332.64
379.12	2250.72
379.34	2326.49
379.55	2324.44
379.76	2324.44
379.98	2193.37
380.19	2289.63
380.41	2158.56
380.62	2338.78
380.83	2248.67
381.05	2176.99
381.26	2402.27
381.47	2160.61
381.69	2291.68
381.90	2422.75
382.12	2314.20
382.33	2293.72
382.54	2330.59
382.76	2287.58
382.97	2285.53
383.19	2293.72
383.40	2365.40
383.61	2269.15
383.83	2240.48
384.04	2389.98
384.25	2412.51
384.47	2435.03
384.68	2320.35
384.89	2379.74
385.11	2375.64
385.32	2299.87
385.54	2451.42
385.75	2322.40
385.96	2439.13
386.18	2357.21
386.39	2394.08
386.60	2373.60
386.82	2445.27
387.03	2475.99
387.24	2551.77
387.46	2510.81
387.67	2459.61
387.88	2437.08
388.10	2461.66
388.31	2473.95
388.52	2551.77
388.74	2484.19
388.95	2625.50
389.16	2543.58
389.38	2627.54
389.59	2584.54
389.80	2666.46
390.02	2535.39
390.23	2600.92
390.44	2551.77
390.66	2596.82
390.87	2510.81
391.08	2611.16
391.30	2682.84
391.51	2566.10
391.72	2707.41
391.94	2686.94
392.15	2662.36
392.36	2666.46
392.58	2598.87
392.79	2666.46
393.00	2721.75
393.22	2787.29
393.43	2805.72
393.64	2875.35
393.85	2877.40
394.07	2699.22
394.28	2828.24
394.49	2752.47
394.71	2815.96
394.92	2852.82
395.13	2781.14
395.35	2752.47
395.56	2736.09
395.77	2826.20
395.98	2871.25
396.20	2967.51
396.41	2852.82
396.62	2914.26
396.84	2875.35
397.05	2869.20
397.26	2934.74
397.47	2918.36
397.69	2932.69
397.90	2981.84
398.11	3033.04
398.32	2889.68
398.54	2826.20
398.75	2969.55
398.96	2961.36
399.18	3182.54
399.39	2971.60
399.60	3092.43
399.81	3006.42
400.03	3030.99
400.24	3237.84
400.45	2963.41
400.66	3114.96
400.88	3000.27
401.09	3198.93
401.30	3172.30
401.51	3162.06
401.73	3162.06
401.94	3082.19
402.15	3172.30
402.36	3215.31
402.58	3227.60
402.79	3170.26
403.00	3276.75
403.21	3352.52
403.43	3235.79
403.64	3293.13
403.85	3176.40
404.06	3301.33
404.27	3160.02
404.49	3252.17
404.70	3143.63
404.91	3387.34
405.12	3194.83
405.34	3231.69
405.55	3440.59
405.76	3219.41
405.97	3186.64
406.19	3420.11
406.40	3284.94
406.61	3416.01
406.82	3184.59
407.03	3282.89
407.25	3309.52
407.46	3393.48
407.67	3411.92
407.88	3385.29
408.09	3358.67
408.31	3440.59
408.52	3413.96
408.73	3315.66
408.94	3401.68
409.15	3416.01
409.37	3493.83
409.58	3471.31
409.79	3655.62
410.00	3499.98
410.21	3409.87
410.43	3405.77
410.64	3375.05
410.85	3512.27
411.06	3620.81
411.27	3559.37
411.48	3549.13
411.70	3604.42
411.91	3618.76
412.12	3753.93
412.33	3526.60
412.54	3637.19
412.76	3712.97
412.97	3708.87
413.18	3620.81
413.39	3653.58
413.60	3827.65
413.81	3672.01
414.03	3745.73
414.24	3598.28
414.45	3747.78
414.66	3565.51
414.87	3786.69
415.08	3717.06
415.30	3622.86
415.51	3776.45
415.72	3764.17
415.93	3772.36
416.14	3821.51
416.35	3901.38
416.56	3805.13
416.78	3874.76
416.99	3995.59
417.20	3876.80
417.41	3930.05
417.62	3899.33
417.83	3899.33
418.04	3973.06
418.26	4014.02
418.47	3987.40
418.68	4112.32
418.89	4046.79
419.10	4124.61
419.31	4067.27
419.52	4009.92
419.73	3911.62
419.95	4192.19
420.16	4110.27
420.37	4063.17
420.58	4267.97
420.79	3915.72
421.00	4255.68
421.21	4214.72
421.42	4091.84
421.63	4112.32
421.85	4095.94
422.06	4241.34
422.27	4143.04
422.48	4224.96
422.69	4362.17
422.90	4325.31
423.11	4335.55
423.32	4292.54
423.53	4425.66
423.75	4382.65
423.96	4618.17
424.17	4558.78
424.38	4491.20
424.59	4487.10
424.80	4605.88
425.01	4577.21
425.22	4542.39
425.43	4501.44
425.64	4747.19
425.85	4698.04
426.06	4712.38
426.28	4646.84
426.49	4528.06
426.70	4614.07
426.91	4661.18
427.12	4810.68
427.33	4833.21
427.54	4757.43
427.75	4865.97
427.96	4915.12
428.17	4792.25
428.38	4896.69
428.59	4956.08
428.80	4796.34
429.01	5009.33
429.23	4927.41
429.44	5064.63
429.65	5054.39
429.86	5150.64
430.07	5033.91
430.28	5042.10
430.49	5175.22
430.70	5250.99
430.91	5230.51
431.12	5058.48
431.33	5380.01
431.54	5425.07
431.75	5347.25
431.96	5232.56
432.17	5269.42
432.38	5351.34
432.59	5509.04
432.80	5345.20
433.01	5451.69
433.22	5531.56
433.43	5345.20
433.64	5494.70
433.85	5384.11
434.06	5488.56
434.27	5515.18
434.49	5517.23
434.70	5650.35
434.91	5615.53
435.12	5654.44
435.33	5580.71
435.54	5738.41
435.75	5466.03
435.96	5709.74
436.17	5582.76
436.38	5801.90
436.59	5754.79
436.80	5746.60
437.01	5834.66
437.22	5922.73
437.43	5765.03
437.64	5717.93
437.85	5939.11
438.06	5912.49
438.27	5734.31
438.48	5748.65
438.69	5773.22
438.90	6018.98
439.11	5744.55
439.32	6088.61
439.53	5932.97
439.74	5998.50
439.95	6115.23
440.16	6039.46
440.37	6193.06
440.57	5975.97
440.78	6070.18
440.99	6236.06
441.20	6137.76
441.41	6137.76
441.62	6119.33
441.83	6033.32
442.04	6188.96
442.25	6158.24
442.46	6115.23
442.67	6287.26
442.88	6846.36
443.09	6166.43
443.30	6240.16
443.51	6250.40
443.72	6627.23
443.93	6320.03
444.14	6655.90
444.35	6270.88
444.56	6381.47
444.77	6463.39
444.98	6399.90
445.19	6625.18
445.40	6379.42
445.61	6623.13
445.81	6633.37
446.02	6676.38
446.23	6569.88
446.44	6324.13
446.65	6735.77
446.86	6649.75
447.07	6705.05
447.28	6872.98
447.49	6807.45
447.70	6711.19
447.91	6946.71
448.12	6797.21
448.33	6852.50
448.54	6864.79
448.74	6731.67
448.95	7051.16
449.16	6887.32
449.37	7245.71
449.58	6891.41
449.79	7098.26
450.00	6918.04
450.21	7016.34
450.42	7061.40
450.63	7161.75
450.84	6979.48
451.05	7077.78
451.25	7018.39
451.46	6952.85
451.67	7208.85
451.88	7391.12
452.09	7227.28
452.30	7163.79
452.51	7206.80
452.72	7491.47
452.93	7714.70
453.13	7204.75
453.34	7339.92
453.55	7436.17
453.76	7358.35
453.97	7702.41
454.18	7573.39
454.39	7686.03
454.60	7403.41
454.81	7661.45
455.01	7686.03
455.22	7411.60
455.43	7686.03
455.64	7751.56
455.85	7888.78
456.06	7909.26
456.27	7835.53
456.48	7878.54
456.68	7839.62
456.89	7913.35
457.10	8144.77
457.31	8120.20
457.52	7888.78
457.73	8013.70
457.94	8318.85
458.14	7970.69
458.35	8585.08
458.56	8220.55
458.77	8140.68
458.98	8398.72
459.19	8253.31
459.39	8533.89
459.60	8431.49
459.81	8468.35
460.02	8767.35
460.23	8386.43
460.44	8624.00
460.65	8683.39
460.85	8832.89
461.06	8828.79
461.27	8730.49
461.48	9031.54
461.69	9076.60
461.89	8736.63
462.10	9066.36
462.31	8814.46
462.52	8859.51
462.73	8906.62
462.94	9375.60
463.14	9135.99
463.35	9166.71
463.56	9426.80
463.77	9537.39
463.98	9262.96
464.18	9367.41
464.39	9367.41
464.60	9531.25
464.81	9609.07
465.02	9711.47
465.23	9762.67
465.43	9750.38
465.64	10026.86
465.85	9846.63
466.06	9832.30
466.27	10157.92
466.47	10250.08
466.68	10129.25
466.89	9918.31
467.10	10286.95
467.30	10112.87
467.51	10391.39
467.72	10651.49
467.93	10274.66
468.14	10301.28
468.34	10694.49
468.55	10565.47
468.76	10807.13
468.97	10637.15
469.17	10719.07
469.38	10966.87
469.59	10925.91
469.80	10981.21
470.01	10936.15
470.21	11130.71
470.42	11261.78
470.63	11183.96
470.84	11296.60
471.04	11544.40
471.25	11421.52
471.46	11267.92
471.67	11800.40
471.87	11620.17
472.08	11777.87
472.29	11910.99
472.50	11470.67
472.70	11876.17
472.91	11896.65
473.12	12005.19
473.33	12097.35
473.53	12339.01
473.74	12207.94
473.95	12433.22
474.16	12578.62
474.36	12455.75
474.57	12883.77
474.78	13113.14
474.99	12820.28
475.19	12793.66
475.40	13096.76
475.61	13207.35
475.81	13475.63
476.02	13743.92
476.23	13283.13
476.44	13625.14
476.64	13780.78
476.85	13827.88
477.06	13786.93
477.27	14020.39
477.47	14008.11
477.68	14094.12
477.89	14204.71
478.09	14444.32
478.30	14532.39
478.51	14391.08
478.71	14546.72
478.92	14819.10
479.13	14884.64
479.34	14886.68
479.54	15025.95
479.75	15058.71
479.96	15036.19
480.16	15200.02
480.37	15230.74
480.58	15591.19
480.78	15599.38
480.99	15582.99
481.20	15611.67
481.41	16017.16
481.61	16000.78
481.82	16217.86
482.03	16066.31
482.23	16051.98
482.44	16580.36
482.65	16758.53
482.85	16674.56
483.06	16625.41
483.27	16658.18
483.47	16838.40
483.68	16774.91
483.89	17065.72
484.09	17135.35
484.30	17272.57
484.51	17417.97
484.71	17430.26
484.92	17514.23
485.13	17667.83
485.33	17739.51
485.54	17719.03
485.75	18071.28
485.95	17987.31
486.16	17944.30
486.37	18444.01
486.57	18239.21
486.78	18349.80
486.98	18564.84
487.19	18495.21
487.40	18753.25
487.60	18900.70
487.81	18992.86
488.02	18810.59
488.22	18675.43
488.43	19152.60
488.64	19236.57
488.84	19437.27
489.05	19459.80
489.25	19394.26
489.46	19541.72
489.67	19345.11
489.87	19955.41
490.08	19924.69
490.29	19799.76
490.49	20307.66
490.70	19994.32
490.90	20350.67
491.11	20197.07
491.32	20287.18
491.52	20518.60
491.73	20532.93
491.94	20479.69
492.14	20516.55
492.35	20836.03
492.55	21124.80
492.76	20686.53
492.97	21094.08
493.17	21223.10
493.38	21202.62
493.58	21241.53
493.79	21487.29
494.00	21442.23
494.20	21616.31
494.41	21896.88
494.61	21604.02
494.82	21874.35
495.02	21614.26
495.23	22105.77
495.44	22050.48
495.64	22339.24
495.85	22159.02
496.05	22181.55
496.26	22253.23
496.47	22769.32
496.67	22478.50
496.88	22597.29
497.08	22539.94
497.29	22771.36
497.49	22656.68
497.70	22970.02
497.91	22843.04
498.11	23058.08
498.32	22955.68
498.52	23271.07
498.73	23586.46
498.93	23461.53
499.14	23649.94
499.34	23420.57
499.55	23586.46
499.76	23381.66
499.96	23869.08
500.17	23522.97
500.37	23977.62
500.58	23690.90
500.78	23897.75
500.99	23785.11
501.19	24303.25
501.40	24120.98
501.60	24184.46
501.81	24284.81
502.02	24323.72
502.22	24161.94
502.43	24327.82
502.63	24497.80
502.84	24651.40
503.04	24700.55
503.25	24612.49
503.45	24702.60
503.66	24665.74
503.86	24696.46
504.07	24944.26
504.27	24725.13
504.48	25460.35
504.68	24934.02
504.89	25374.33
505.09	25159.30
505.30	25423.48
505.50	25314.94
505.71	25151.10
505.91	25677.43
506.12	25259.65
506.32	25282.17
506.53	25806.45
506.73	25550.46
506.94	25857.65
507.14	25575.03
507.35	25339.52
507.55	25626.23
507.76	25951.86
507.96	25763.45
508.17	25652.86
508.37	26164.85
508.58	25837.17
508.78	26367.60
508.99	26449.52
509.19	26375.79
509.40	26375.79
509.60	26322.54
509.81	26297.97
510.01	26302.06
510.22	26662.51
510.42	26291.82
510.63	26662.51
510.83	26322.54
511.04	26609.26
511.24	26885.73
511.44	26543.72
511.65	26900.07
511.85	26615.40
512.06	26822.25
512.26	26863.21
512.47	27248.22
512.67	26754.66
512.88	26953.32
513.08	26596.97
513.29	27299.42
513.49	27119.20
513.69	27094.63
513.90	27266.66
514.10	27291.23
514.31	27457.12
514.51	27592.28
514.72	27147.87
514.92	27596.38
515.13	27414.11
515.33	27614.81
515.53	27502.17
515.74	27547.23
515.94	28012.12
516.15	27969.11
516.35	27219.55
516.56	27782.74
516.76	28059.22
516.96	27922.01
517.17	27934.29
517.37	28171.86
517.58	28317.26
517.78	28173.91
517.99	28560.97
518.19	28716.62
518.39	28612.17
518.60	28671.56
518.80	28329.55
519.01	29054.53
519.21	28812.87
519.41	29351.49
519.62	28876.36
519.82	28814.92
520.03	29175.36
520.23	29204.03
520.43	28886.60
520.64	29507.13
520.84	29619.77
521.05	29351.49
521.25	29740.60
521.45	29484.61
521.66	29875.77
521.86	29689.40
522.07	29431.36
522.27	29818.42
522.47	29890.10
522.68	30017.08
522.88	29728.31
523.08	29980.21
523.29	30064.18
523.49	30395.95
523.70	30152.24
523.90	30555.69
524.10	30109.24
524.31	30733.87
524.51	30326.32
524.71	30963.24
524.92	30840.36
525.12	30821.93
525.33	31049.25
525.53	31155.75
525.73	31254.05
525.94	31284.77
526.14	31497.76
526.34	31356.45
526.55	31262.24
526.75	31659.55
526.95	31862.30
527.16	31712.80
527.36	31821.34
527.56	31784.48
527.77	32286.23
527.97	32368.15
528.17	32241.17
528.38	32405.01
528.58	32400.91
528.78	32650.77
528.99	32286.23
529.19	32697.87
529.39	32970.25
529.60	33103.37
529.80	33093.13
530.00	33005.06
530.21	33390.08
530.41	33224.20
530.61	33496.58
530.82	33525.25
531.02	33488.38
531.22	33771.00
531.43	33738.24
531.63	34119.16
531.83	34207.22
532.04	34254.33
532.24	34072.06
532.44	34756.08
532.64	34532.85
532.85	34606.58
533.05	34307.57
533.25	34778.61
533.46	34792.94
533.66	35306.98
533.86	35290.60
534.07	35575.27
534.27	35192.30
534.47	35483.11
534.67	35681.76
534.88	35249.64
535.08	35569.12
535.28	36027.87
535.49	36066.78
535.69	36177.37
535.89	36578.77
536.09	36247.00
536.30	36566.48
536.50	36472.28
536.70	36892.11
536.91	36797.90
537.11	36713.94
537.31	36711.89
537.51	37014.99
537.72	37477.83
537.92	37357.00
538.12	37572.03
538.32	37189.06
538.53	37580.23
538.73	37062.09
538.93	37774.78
539.13	37957.05
539.34	37940.67
539.54	37414.34
539.74	37957.05
539.94	38014.40
540.15	38004.16
540.35	38286.78
540.55	38428.09
540.75	38423.99
540.96	38720.95
541.16	38415.80
541.36	38593.97
541.56	38624.69
541.77	38753.71
541.97	38786.48
542.17	39189.93
542.37	39036.33
542.58	39433.64
542.78	39151.02
542.98	39382.44
543.18	39470.50
543.38	40132.00
543.59	39892.38
543.79	39744.93
543.99	39835.04
544.19	40093.08
544.40	40037.79
544.60	40242.59
544.80	39959.97
545.00	40285.59
545.20	40574.36
545.41	40258.97
545.61	40820.11
545.81	40668.56
546.01	40779.15
546.21	40510.87
546.42	40764.82
546.62	40725.91
546.82	40811.92
547.02	40957.33
547.22	41244.04
547.43	40949.14
547.63	41311.63
547.83	41260.43
548.03	41160.08
548.23	41627.01
548.44	41170.32
548.64	41438.60
548.84	41350.54
549.04	41252.23
549.24	41907.58
549.45	41909.63
549.65	41604.49
549.85	42261.88
550.05	42046.85
550.25	42153.34
550.45	42524.02
550.66	42450.30
550.86	41991.55
551.06	42347.90
551.26	41708.93
551.46	42425.72
551.66	42448.25
551.87	42534.26
552.07	42702.20
552.27	42395.00
552.47	42802.55
552.67	42569.08
552.87	42767.73
553.07	42700.15
553.28	43206.00
553.48	42843.51
553.68	42950.00
553.88	42964.34
554.08	42884.47
554.28	43091.31
554.48	42890.61
554.69	43595.11
554.89	43257.20
555.09	43070.83
555.29	43046.26
555.49	43289.96
555.69	43353.45
555.89	43261.29
556.10	43826.53
556.30	43384.17
556.50	43832.68
556.70	43812.20
556.90	43701.61
557.10	43756.90
557.30	43445.61
557.50	43894.11
557.70	43988.32
557.91	43699.56
558.11	43988.32
558.31	43986.27
558.51	43871.59
558.71	44217.69
558.91	44293.47
559.11	43879.78
559.31	44197.21
559.51	44074.34
559.72	43955.55
559.92	44197.21
560.12	44162.40
560.32	44184.93
560.52	44137.82
560.72	44479.83
560.92	44092.77
561.12	44490.07
561.32	44850.52
561.52	44293.47
561.72	44756.31
561.93	44516.70
562.13	44234.08
562.33	44311.90
562.53	44662.10
562.73	44528.98
562.93	44506.46
563.13	44600.66
563.33	44524.89
563.53	44995.92
563.73	44707.16
563.93	44756.31
564.13	45200.72
564.33	45090.13
564.53	44412.25
564.74	45198.67
564.94	44901.71
565.14	44963.15
565.34	44784.98
565.54	45307.21
565.74	45319.50
565.94	45151.57
566.14	45112.66
566.34	44981.59
566.54	45534.54
566.74	44737.88
566.94	45251.92
567.14	45006.16
567.34	45235.53
567.54	45366.60
567.74	45282.64
567.94	45057.36
568.14	45397.32
568.34	45362.51
568.54	45057.36
568.74	45305.16
568.94	45409.61
569.14	45725.00
569.34	45581.64
569.54	45720.90
569.75	45411.66
569.95	45321.55
570.15	45780.29
570.35	45679.94
570.55	45548.87
570.75	45909.32
570.95	45315.40
571.15	45786.44
571.35	45622.60
571.55	45913.41
571.75	45673.80
571.95	45731.14
572.15	45679.94
572.35	46050.63
572.55	45643.08
572.75	45757.77
572.95	45899.08
573.15	45786.44
573.35	45671.75
573.55	46183.74
573.75	46013.76
573.95	46073.15
574.15	45798.73
574.35	46036.29
574.55	45954.37
574.75	46177.60
574.95	45946.18
575.15	46077.25
575.34	46347.58
575.54	46515.51
575.74	46497.08
575.94	46474.55
576.14	46296.38
576.34	46941.49
576.54	46863.67
576.74	46927.16
576.94	46544.19
577.14	46996.79
577.34	46804.28
577.54	46402.88
577.74	46765.37
577.94	46830.90
578.14	46609.72
578.34	47029.55
578.54	46470.46
578.74	46863.67
578.94	46970.16
579.14	46859.57
579.34	46798.13
579.54	47174.96
579.74	47127.86
579.94	47088.95
580.13	47428.91
580.33	46933.30
580.53	47258.93
580.73	47371.57
580.93	47322.41
581.13	47506.73
581.33	47594.79
581.53	47605.03
581.73	47496.49
581.93	48084.26
582.13	47729.96
582.33	47568.17
582.53	47435.05
582.73	47893.80
582.92	47799.59
583.12	47627.56
583.32	47650.09
583.52	47711.53
583.72	48153.89
583.92	47732.01
584.12	47947.04
584.32	48129.31
584.52	48342.30
584.72	48110.88
584.92	48364.83
585.11	48549.15
585.31	48436.51
585.51	48276.77
585.71	48227.62
585.91	48919.83
586.11	48207.14
586.31	48194.85
586.51	48170.27
586.71	48465.18
586.91	48508.19
587.10	48565.53
587.30	48569.63
587.50	48325.92
587.70	48735.51
587.90	48848.15
588.10	48860.44
588.30	48645.40
588.50	48678.17
