SpectraSuite Data File
++++++++++++++++++++++++++++++++++++
Date: Fri Jun 02 14:52:22 CEST 2017
User: INFO_000
Dark Spectrum Present: No
Reference Spectrum Present: No
Number of Sampled Component Spectra: 1
Spectrometers: USB4H00879
Integration Time (usec): 80000 (USB4H00879)
Spectra Averaged: 1 (USB4H00879)
Boxcar Smoothing: 0 (USB4H00879)
Correct for Electrical Dark: No (USB4H00879)
Strobe/Lamp Enabled: No (USB4H00879)
Correct for Detector Non-linearity: No (USB4H00879)
Correct for Stray Light: No (USB4H00879)
Number of Pixels in Processed Spectrum: 3648
>>>>>Begin Processed Spectral Data<<<<<
345.13	1265.64
345.34	1265.64
345.56	1265.64
345.78	1249.26
345.99	1255.40
346.21	1767.40
346.42	1763.30
346.64	1660.90
346.86	1744.87
347.07	1607.66
347.29	1759.21
347.50	1609.70
347.72	1665.00
347.94	1714.15
348.15	1652.71
348.37	1609.70
348.59	1697.77
348.80	1703.91
349.02	1681.38
349.23	1757.16
349.45	1677.29
349.67	1744.87
349.88	1652.71
350.10	1806.31
350.31	1730.53
350.53	1681.38
350.75	1765.35
350.96	1648.61
351.18	1716.20
351.39	1748.97
351.61	1634.28
351.82	1724.39
352.04	1822.69
352.26	1722.34
352.47	1712.10
352.69	1794.02
352.90	1597.42
353.12	1712.10
353.34	1665.00
353.55	1845.22
353.77	1730.53
353.98	1687.53
354.20	1699.81
354.41	1796.07
354.63	1806.31
354.85	1859.56
355.06	1753.06
355.28	1587.18
355.49	1660.90
355.71	1691.62
355.92	1720.29
356.14	1767.40
356.35	1677.29
356.57	1705.96
356.79	1759.21
357.00	1669.09
357.22	1746.92
357.43	1691.62
357.65	1765.35
357.86	1650.66
358.08	1716.20
358.29	1728.49
358.51	1763.30
358.72	1757.16
358.94	1736.68
359.16	1755.11
359.37	1789.92
359.59	1728.49
359.80	1748.97
360.02	1734.63
360.23	1714.15
360.45	1818.60
360.66	1658.85
360.88	1621.99
361.09	1628.14
361.31	1773.54
361.52	1751.01
361.74	1785.83
361.95	1855.46
362.17	1738.73
362.38	1826.79
362.60	1781.73
362.81	1699.81
363.03	1656.81
363.24	1636.33
363.46	1712.10
363.67	1716.20
363.89	1794.02
364.10	1642.47
364.32	1646.57
364.53	1781.73
364.75	1587.18
364.96	1712.10
365.18	1771.49
365.39	1777.64
365.61	1665.00
365.82	1826.79
366.04	1712.10
366.25	1621.99
366.47	1712.10
366.68	1685.48
366.90	1738.73
367.11	1699.81
367.33	1781.73
367.54	1746.92
367.76	1699.81
367.97	1785.83
368.19	1730.53
368.40	1738.73
368.62	1605.61
368.83	1634.28
369.05	1751.01
369.26	1658.85
369.48	1634.28
369.69	1669.09
369.91	1699.81
370.12	1740.77
370.33	1798.12
370.55	1587.18
370.76	1724.39
370.98	1748.97
371.19	1724.39
371.41	1679.33
371.62	1673.19
371.84	1665.00
372.05	1753.06
372.27	1581.03
372.48	1632.23
372.69	1689.57
372.91	1748.97
373.12	1837.03
373.34	1667.05
373.55	1767.40
373.77	1767.40
373.98	1638.38
374.20	1724.39
374.41	1806.31
374.62	1697.77
374.84	1691.62
375.05	1798.12
375.27	1724.39
375.48	1642.47
375.70	1724.39
375.91	1781.73
376.12	1748.97
376.34	1689.57
376.55	1642.47
376.77	1716.20
376.98	1687.53
377.19	1685.48
377.41	1685.48
377.62	1701.86
377.84	1746.92
378.05	1716.20
378.27	1654.76
378.48	1849.32
378.69	1820.64
378.91	1834.98
379.12	1767.40
379.34	1662.95
379.55	1761.25
379.76	1730.53
379.98	1654.76
380.19	1716.20
380.41	1755.11
380.62	1722.34
380.83	1693.67
381.05	1691.62
381.26	1841.12
381.47	1607.66
381.69	1675.24
381.90	1810.40
382.12	1808.36
382.33	1689.57
382.54	1781.73
382.76	1712.10
382.97	1716.20
383.19	1581.03
383.40	1726.44
383.61	1675.24
383.83	1660.90
384.04	1716.20
384.25	1685.48
384.47	1781.73
384.68	1654.76
384.89	1660.90
385.11	1656.81
385.32	1720.29
385.54	1619.94
385.75	1654.76
385.96	1728.49
386.18	1761.25
386.39	1732.58
386.60	1615.85
386.82	1759.21
387.03	1630.18
387.24	1744.87
387.46	1705.96
387.67	1677.29
387.88	1775.59
388.10	1740.77
388.31	1685.48
388.52	1775.59
388.74	1718.25
388.95	1619.94
389.16	1740.77
389.38	1624.04
389.59	1697.77
389.80	1816.55
390.02	1669.09
390.23	1734.63
390.44	1642.47
390.66	1677.29
390.87	1603.56
391.08	1638.38
391.30	1791.97
391.51	1683.43
391.72	1781.73
391.94	1755.11
392.15	1648.61
392.36	1662.95
392.58	1689.57
392.79	1689.57
393.00	1712.10
393.22	1810.40
393.43	1757.16
393.64	1775.59
393.85	1781.73
394.07	1603.56
394.28	1630.18
394.49	1673.19
394.71	1818.60
394.92	1779.68
395.13	1732.58
395.35	1665.00
395.56	1687.53
395.77	1738.73
395.98	1660.90
396.20	1728.49
396.41	1705.96
396.62	1773.54
396.84	1699.81
397.05	1697.77
397.26	1697.77
397.47	1796.07
397.69	1638.38
397.90	1845.22
398.11	1830.88
398.32	1673.19
398.54	1699.81
398.75	1667.05
398.96	1630.18
399.18	1812.45
399.39	1691.62
399.60	1767.40
399.81	1628.14
400.03	1589.22
400.24	1916.90
400.45	1753.06
400.66	1679.33
400.88	1578.98
401.09	1929.19
401.30	1665.00
401.51	1787.88
401.73	1787.88
401.94	1667.05
402.15	1646.57
402.36	1787.88
402.58	1814.50
402.79	1673.19
403.00	1679.33
403.21	1841.12
403.43	1748.97
403.64	1757.16
403.85	1703.91
404.06	1781.73
404.27	1634.28
404.49	1691.62
404.70	1699.81
404.91	1699.81
405.12	1804.26
405.34	1748.97
405.55	1839.08
405.76	1599.46
405.97	1720.29
406.19	1839.08
406.40	1617.90
406.61	1724.39
406.82	1718.25
407.03	1673.19
407.25	1742.82
407.46	1789.92
407.67	1679.33
407.88	1687.53
408.09	1746.92
408.31	1638.38
408.52	1763.30
408.73	1746.92
408.94	1656.81
409.15	1636.33
409.37	1730.53
409.58	1834.98
409.79	1669.09
410.00	1720.29
410.21	1714.15
410.43	1699.81
410.64	1675.24
410.85	1675.24
411.06	1679.33
411.27	1722.34
411.48	1810.40
411.70	1716.20
411.91	1773.54
412.12	1728.49
412.33	1720.29
412.54	1673.19
412.76	1695.72
412.97	1851.36
413.18	1578.98
413.39	1800.16
413.60	1767.40
413.81	1771.49
414.03	1654.76
414.24	1685.48
414.45	1845.22
414.66	1583.08
414.87	1630.18
415.08	1716.20
415.30	1683.43
415.51	1742.82
415.72	1689.57
415.93	1710.05
416.14	1757.16
416.35	1660.90
416.56	1796.07
416.78	1740.77
416.99	1730.53
417.20	1695.72
417.41	1802.21
417.62	1732.58
417.83	1724.39
418.04	1736.68
418.26	1804.26
418.47	1718.25
418.68	1740.77
418.89	1748.97
419.10	1843.17
419.31	1773.54
419.52	1724.39
419.73	1800.16
419.95	1712.10
420.16	1732.58
420.37	1660.90
420.58	1763.30
420.79	1591.27
421.00	1705.96
421.21	1685.48
421.42	1619.94
421.63	1718.25
421.85	1703.91
422.06	1640.42
422.27	1667.05
422.48	1689.57
422.69	1710.05
422.90	1624.04
423.11	1658.85
423.32	1820.64
423.53	1785.83
423.75	1687.53
423.96	1789.92
424.17	1781.73
424.38	1822.69
424.59	1705.96
424.80	1650.66
425.01	1671.14
425.22	1613.80
425.43	1744.87
425.64	1816.55
425.85	1849.32
426.06	1703.91
426.28	1716.20
426.49	1621.99
426.70	1617.90
426.91	1689.57
427.12	1708.01
427.33	1699.81
427.54	1677.29
427.75	1679.33
427.96	1703.91
428.17	1777.64
428.38	1642.47
428.59	1759.21
428.80	1740.77
429.01	1671.14
429.23	1673.19
429.44	1693.67
429.65	1695.72
429.86	1734.63
430.07	1693.67
430.28	1628.14
430.49	1742.82
430.70	1697.77
430.91	1740.77
431.12	1624.04
431.33	1705.96
431.54	1828.84
431.75	1718.25
431.96	1675.24
432.17	1736.68
432.38	1781.73
432.59	1757.16
432.80	1765.35
433.01	1714.15
433.22	1677.29
433.43	1767.40
433.64	1677.29
433.85	1740.77
434.06	1689.57
434.27	1675.24
434.49	1685.48
434.70	1712.10
434.91	1771.49
435.12	1660.90
435.33	1673.19
435.54	1810.40
435.75	1591.27
435.96	1681.38
436.17	1761.25
436.38	1718.25
436.59	1691.62
436.80	1617.90
437.01	1712.10
437.22	1783.78
437.43	1740.77
437.64	1609.70
437.85	1742.82
438.06	1746.92
438.27	1712.10
438.48	1738.73
438.69	1728.49
438.90	1636.33
439.11	1712.10
439.32	1763.30
439.53	1603.56
439.74	1683.43
439.95	1607.66
440.16	1646.57
440.37	1710.05
440.57	1621.99
440.78	1624.04
440.99	1716.20
441.20	1691.62
441.41	1656.81
441.62	1609.70
441.83	1687.53
442.04	1583.08
442.25	1652.71
442.46	1581.03
442.67	1669.09
442.88	1804.26
443.09	1681.38
443.30	1681.38
443.51	1640.42
443.72	1669.09
443.93	1611.75
444.14	1769.44
444.35	1615.85
444.56	1712.10
444.77	1648.61
444.98	1710.05
445.19	1654.76
445.40	1695.72
445.61	1646.57
445.81	1683.43
446.02	1798.12
446.23	1646.57
446.44	1599.46
446.65	1617.90
446.86	1777.64
447.07	1867.75
447.28	1679.33
447.49	1691.62
447.70	1662.95
447.91	1699.81
448.12	1624.04
448.33	1812.45
448.54	1718.25
448.74	1689.57
448.95	1685.48
449.16	1708.01
449.37	1755.11
449.58	1703.91
449.79	1724.39
450.00	1648.61
450.21	1615.85
450.42	1695.72
450.63	1716.20
450.84	1667.05
451.05	1689.57
451.25	1710.05
451.46	1644.52
451.67	1800.16
451.88	1701.86
452.09	1658.85
452.30	1640.42
452.51	1611.75
452.72	1748.97
452.93	1802.21
453.13	1714.15
453.34	1646.57
453.55	1746.92
453.76	1681.38
453.97	1697.77
454.18	1644.52
454.39	1761.25
454.60	1720.29
454.81	1806.31
455.01	1724.39
455.22	1593.32
455.43	1697.77
455.64	1693.67
455.85	1810.40
456.06	1777.64
456.27	1757.16
456.48	1636.33
456.68	1697.77
456.89	1789.92
457.10	1738.73
457.31	1779.68
457.52	1771.49
457.73	1650.66
457.94	1773.54
458.14	1548.26
458.35	1703.91
458.56	1613.80
458.77	1734.63
458.98	1675.24
459.19	1644.52
459.39	1753.06
459.60	1689.57
459.81	1691.62
460.02	1701.86
460.23	1695.72
460.44	1697.77
460.65	1671.14
460.85	1601.51
461.06	1683.43
461.27	1763.30
461.48	1630.18
461.69	1556.46
461.89	1566.70
462.10	1650.66
462.31	1609.70
462.52	1605.61
462.73	1642.47
462.94	1744.87
463.14	1673.19
463.35	1640.42
463.56	1839.08
463.77	1724.39
463.98	1587.18
464.18	1652.71
464.39	1761.25
464.60	1722.34
464.81	1597.42
465.02	1708.01
465.23	1638.38
465.43	1615.85
465.64	1679.33
465.85	1646.57
466.06	1697.77
466.27	1734.63
466.47	1646.57
466.68	1757.16
466.89	1636.33
467.10	1638.38
467.30	1689.57
467.51	1761.25
467.72	1783.78
467.93	1589.22
468.14	1621.99
468.34	1720.29
468.55	1681.38
468.76	1726.44
468.97	1705.96
469.17	1728.49
469.38	1822.69
469.59	1699.81
469.80	1714.15
470.01	1787.88
470.21	1695.72
470.42	1691.62
470.63	1810.40
470.84	1771.49
471.04	1654.76
471.25	1781.73
471.46	1746.92
471.67	1787.88
471.87	1691.62
472.08	1748.97
472.29	1660.90
472.50	1769.44
472.70	1773.54
472.91	1683.43
473.12	1583.08
473.33	1665.00
473.53	1718.25
473.74	1648.61
473.95	1658.85
474.16	1581.03
474.36	1667.05
474.57	1738.73
474.78	1689.57
474.99	1724.39
475.19	1693.67
475.40	1652.71
475.61	1722.34
475.81	1679.33
476.02	1673.19
476.23	1738.73
476.44	1675.24
476.64	1677.29
476.85	1640.42
477.06	1695.72
477.27	1689.57
477.47	1742.82
477.68	1769.44
477.89	1724.39
478.09	1734.63
478.30	1624.04
478.51	1624.04
478.71	1630.18
478.92	1712.10
479.13	1697.77
479.34	1665.00
479.54	1763.30
479.75	1652.71
479.96	1697.77
480.16	1695.72
480.37	1679.33
480.58	1673.19
480.78	1804.26
480.99	1646.57
481.20	1677.29
481.41	1722.34
481.61	1740.77
481.82	1755.11
482.03	1642.47
482.23	1644.52
482.44	1753.06
482.65	1806.31
482.85	1771.49
483.06	1773.54
483.27	1695.72
483.47	1769.44
483.68	1716.20
483.89	1691.62
484.09	1724.39
484.30	1734.63
484.51	1804.26
484.71	1597.42
484.92	1601.51
485.13	1744.87
485.33	1656.81
485.54	1738.73
485.75	1777.64
485.95	1648.61
486.16	1669.09
486.37	1679.33
486.57	1699.81
486.78	1617.90
486.98	1722.34
487.19	1650.66
487.40	1730.53
487.60	1679.33
487.81	1652.71
488.02	1507.30
488.22	1642.47
488.43	1820.64
488.64	1624.04
488.84	1646.57
489.05	1699.81
489.25	1662.95
489.46	1708.01
489.67	1740.77
489.87	1705.96
490.08	1613.80
490.29	1624.04
490.49	1806.31
490.70	1677.29
490.90	1662.95
491.11	1679.33
491.32	1650.66
491.52	1693.67
491.73	1648.61
491.94	1685.48
492.14	1609.70
492.35	1679.33
492.55	1697.77
492.76	1658.85
492.97	1636.33
493.17	1699.81
493.38	1720.29
493.58	1834.98
493.79	1695.72
494.00	1708.01
494.20	1646.57
494.41	1787.88
494.61	1705.96
494.82	1669.09
495.02	1619.94
495.23	1755.11
495.44	1705.96
495.64	1738.73
495.85	1665.00
496.05	1724.39
496.26	1679.33
496.47	1724.39
496.67	1683.43
496.88	1724.39
497.08	1621.99
497.29	1642.47
497.49	1759.21
497.70	1681.38
497.91	1673.19
498.11	1812.45
498.32	1687.53
498.52	1771.49
498.73	1689.57
498.93	1781.73
499.14	1765.35
499.34	1787.88
499.55	1748.97
499.76	1642.47
499.96	1714.15
500.17	1718.25
500.37	1781.73
500.58	1667.05
500.78	1746.92
500.99	1646.57
501.19	1648.61
501.40	1796.07
501.60	1593.32
501.81	1726.44
502.02	1748.97
502.22	1583.08
502.43	1777.64
502.63	1867.75
502.84	1687.53
503.04	1734.63
503.25	1728.49
503.45	1726.44
503.66	1683.43
503.86	1746.92
504.07	1720.29
504.27	1642.47
504.48	1708.01
504.68	1761.25
504.89	1884.13
505.09	1540.07
505.30	1609.70
505.50	1658.85
505.71	1734.63
505.91	1757.16
506.12	1693.67
506.32	1689.57
506.53	1605.61
506.73	1605.61
506.94	1732.58
507.14	1703.91
507.35	1828.84
507.55	1722.34
507.76	1691.62
507.96	1740.77
508.17	1738.73
508.37	1679.33
508.58	1773.54
508.78	1753.06
508.99	1796.07
509.19	1697.77
509.40	1695.72
509.60	1771.49
509.81	1812.45
510.01	1675.24
510.22	1656.81
510.42	1701.86
510.63	1751.01
510.83	1652.71
511.04	1703.91
511.24	1781.73
511.44	1644.52
511.65	1650.66
511.85	1660.90
512.06	1681.38
512.26	1679.33
512.47	1712.10
512.67	1712.10
512.88	1779.68
513.08	1658.85
513.29	1757.16
513.49	1646.57
513.69	1650.66
513.90	1646.57
514.10	1789.92
514.31	1701.86
514.51	1703.91
514.72	1691.62
514.92	1781.73
515.13	1691.62
515.33	1642.47
515.53	1630.18
515.74	1732.58
515.94	1642.47
516.15	1705.96
516.35	1595.37
516.56	1619.94
516.76	1628.14
516.96	1679.33
517.17	1751.01
517.37	1785.83
517.58	1667.05
517.78	1673.19
517.99	1744.87
518.19	1814.50
518.39	1662.95
518.60	1757.16
518.80	1667.05
519.01	1787.88
519.21	1617.90
519.41	1738.73
519.62	1617.90
519.82	1740.77
520.03	1687.53
520.23	1728.49
520.43	1615.85
520.64	1847.27
520.84	1748.97
521.05	1681.38
521.25	1730.53
521.45	1671.14
521.66	1662.95
521.86	1724.39
522.07	1673.19
522.27	1673.19
522.47	1615.85
522.68	1722.34
522.88	1751.01
523.08	1724.39
523.29	1626.09
523.49	1673.19
523.70	1630.18
523.90	1656.81
524.10	1677.29
524.31	1630.18
524.51	1576.94
524.71	1736.68
524.92	1804.26
525.12	1585.13
525.33	1744.87
525.53	1708.01
525.73	1804.26
525.94	1667.05
526.14	1746.92
526.34	1650.66
526.55	1761.25
526.75	1640.42
526.95	1794.02
527.16	1687.53
527.36	1691.62
527.56	1675.24
527.77	1617.90
527.97	1685.48
528.17	1683.43
528.38	1708.01
528.58	1630.18
528.78	1673.19
528.99	1646.57
529.19	1613.80
529.39	1630.18
529.60	1591.27
529.80	1671.14
530.00	1601.51
530.21	1746.92
530.41	1630.18
530.61	1779.68
530.82	1576.94
531.02	1699.81
531.22	1679.33
531.43	1716.20
531.63	1716.20
531.83	1794.02
532.04	1665.00
532.24	1660.90
532.44	1712.10
532.64	1751.01
532.85	1636.33
533.05	1640.42
533.25	1687.53
533.46	1693.67
533.66	1738.73
533.86	1595.37
534.07	1796.07
534.27	1646.57
534.47	1785.83
534.67	1757.16
534.88	1720.29
535.08	1728.49
535.28	1708.01
535.49	1587.18
535.69	1771.49
535.89	1777.64
536.09	1742.82
536.30	1695.72
536.50	1669.09
536.70	1791.97
536.91	1642.47
537.11	1759.21
537.31	1691.62
537.51	1630.18
537.72	1634.28
537.92	1699.81
538.12	1742.82
538.32	1742.82
538.53	1732.58
538.73	1687.53
538.93	1652.71
539.13	1777.64
539.34	1732.58
539.54	1624.04
539.74	1748.97
539.94	1658.85
540.15	1763.30
540.35	1624.04
540.55	1652.71
540.75	1687.53
540.96	1642.47
541.16	1679.33
541.36	1656.81
541.56	1724.39
541.77	1789.92
541.97	1705.96
542.17	1658.85
542.37	1738.73
542.58	1708.01
542.78	1720.29
542.98	1642.47
543.18	1699.81
543.38	1701.86
543.59	1748.97
543.79	1599.46
543.99	1611.75
544.19	1736.68
544.40	1712.10
544.60	1675.24
544.80	1675.24
545.00	1597.42
545.20	1742.82
545.41	1759.21
545.61	1671.14
545.81	1675.24
546.01	1773.54
546.21	1687.53
546.42	1798.12
546.62	1728.49
546.82	1675.24
547.02	1642.47
547.22	1767.40
547.43	1683.43
547.63	1697.77
547.83	1658.85
548.03	1583.08
548.23	1748.97
548.44	1630.18
548.64	1693.67
548.84	1681.38
549.04	1624.04
549.24	1773.54
549.45	1843.17
549.65	1656.81
549.85	1693.67
550.05	1712.10
550.25	1548.26
550.45	1814.50
550.66	1746.92
550.86	1656.81
551.06	1718.25
551.26	1634.28
551.46	1753.06
551.66	1761.25
551.87	1681.38
552.07	1646.57
552.27	1650.66
552.47	1732.58
552.67	1640.42
552.87	1722.34
553.07	1669.09
553.28	1644.52
553.48	1781.73
553.68	1576.94
553.88	1697.77
554.08	1658.85
554.28	1695.72
554.48	1673.19
554.69	1673.19
554.89	1718.25
555.09	1634.28
555.29	1587.18
555.49	1789.92
555.69	1658.85
555.89	1744.87
556.10	1695.72
556.30	1675.24
556.50	1673.19
556.70	1818.60
556.90	1667.05
557.10	1730.53
557.30	1689.57
557.50	1689.57
557.70	1716.20
557.91	1689.57
558.11	1609.70
558.31	1779.68
558.51	1691.62
558.71	1658.85
558.91	1728.49
559.11	1566.70
559.31	1591.27
559.51	1695.72
559.72	1695.72
559.92	1642.47
560.12	1613.80
560.32	1769.44
560.52	1796.07
560.72	1662.95
560.92	1751.01
561.12	1701.86
561.32	1699.81
561.52	1630.18
561.72	1820.64
561.93	1697.77
562.13	1665.00
562.33	1634.28
562.53	1675.24
562.73	1652.71
562.93	1771.49
563.13	1744.87
563.33	1757.16
563.53	1716.20
563.73	1810.40
563.93	1759.21
564.13	1765.35
564.33	1691.62
564.53	1722.34
564.74	1763.30
564.94	1660.90
565.14	1734.63
565.34	1746.92
565.54	1695.72
565.74	1716.20
565.94	1669.09
566.14	1683.43
566.34	1730.53
566.54	1757.16
566.74	1652.71
566.94	1746.92
567.14	1722.34
567.34	1671.14
567.54	1691.62
567.74	1732.58
567.94	1679.33
568.14	1705.96
568.34	1839.08
568.54	1626.09
568.74	1716.20
568.94	1671.14
569.14	1787.88
569.34	1722.34
569.54	1576.94
569.75	1691.62
569.95	1638.38
570.15	1765.35
570.35	1679.33
570.55	1675.24
570.75	1691.62
570.95	1646.57
571.15	1753.06
571.35	1687.53
571.55	1662.95
571.75	1761.25
571.95	1648.61
572.15	1681.38
572.35	1732.58
572.55	1689.57
572.75	1634.28
572.95	1552.36
573.15	1705.96
573.35	1703.91
573.55	1761.25
573.75	1613.80
573.95	1853.41
574.15	1779.68
574.35	1589.22
574.55	1712.10
574.75	1673.19
574.95	1615.85
575.15	1687.53
575.34	1705.96
575.54	1656.81
575.74	1705.96
575.94	1701.86
576.14	1650.66
576.34	1730.53
576.54	1642.47
576.74	1816.55
576.94	1601.51
577.14	1685.48
577.34	1751.01
577.54	1613.80
577.74	1652.71
577.94	1720.29
578.14	1652.71
578.34	1771.49
578.54	1617.90
578.74	1687.53
578.94	1691.62
579.14	1710.05
579.34	1613.80
579.54	1716.20
579.74	1691.62
579.94	1642.47
580.13	1734.63
580.33	1650.66
580.53	1640.42
580.73	1669.09
580.93	1753.06
581.13	1644.52
581.33	1691.62
581.53	1675.24
581.73	1705.96
581.93	1626.09
582.13	1771.49
582.33	1722.34
582.53	1570.79
582.73	1585.13
582.92	1650.66
583.12	1738.73
583.32	1572.84
583.52	1724.39
583.72	1765.35
583.92	1755.11
584.12	1697.77
584.32	1689.57
584.52	1552.36
584.72	1581.03
584.92	1720.29
585.11	1669.09
585.31	1816.55
585.51	1572.84
585.71	1722.34
585.91	1751.01
586.11	1697.77
586.31	1708.01
586.51	1726.44
586.71	1697.77
586.91	1681.38
587.10	1695.72
587.30	1714.15
587.50	1710.05
587.70	1605.61
587.90	1699.81
588.10	1585.13
588.30	1640.42
588.50	1652.71
588.69	1710.05
588.89	1755.11
589.09	1744.87
589.29	1654.76
589.49	1722.34
589.69	1665.00
589.89	1726.44
590.08	1652.71
590.28	1583.08
590.48	1740.77
590.68	1689.57
590.88	1683.43
591.08	1718.25
591.28	1785.83
591.47	1662.95
591.67	1587.18
591.87	1691.62
592.07	1773.54
592.27	1607.66
592.47	1576.94
592.67	1781.73
592.86	1634.28
593.06	1771.49
593.26	1769.44
593.46	1716.20
593.66	1615.85
593.86	1757.16
594.05	1710.05
594.25	1736.68
594.45	1691.62
594.65	1867.75
594.85	1714.15
595.05	1695.72
595.24	1693.67
595.44	1675.24
595.64	1693.67
595.84	1699.81
596.04	1689.57
