SpectraSuite Data File
++++++++++++++++++++++++++++++++++++
Date: Fri Jun 02 14:52:23 CEST 2017
User: INFO_000
Dark Spectrum Present: No
Reference Spectrum Present: No
Number of Sampled Component Spectra: 1
Spectrometers: USB4H00879
Integration Time (usec): 80000 (USB4H00879)
Spectra Averaged: 1 (USB4H00879)
Boxcar Smoothing: 0 (USB4H00879)
Correct for Electrical Dark: No (USB4H00879)
Strobe/Lamp Enabled: No (USB4H00879)
Correct for Detector Non-linearity: No (USB4H00879)
Correct for Stray Light: No (USB4H00879)
Number of Pixels in Processed Spectrum: 3648
>>>>>Begin Processed Spectral Data<<<<<
345.13	1284.08
345.34	1284.08
345.56	1284.08
345.78	1226.73
345.99	1236.97
346.21	1705.96
346.42	1679.33
346.64	1667.05
346.86	1744.87
347.07	1617.90
347.29	1712.10
347.50	1632.23
347.72	1716.20
347.94	1748.97
348.15	1574.89
348.37	1605.61
348.59	1722.34
348.80	1638.38
349.02	1732.58
349.23	1773.54
349.45	1701.86
349.67	1834.98
349.88	1794.02
350.10	1832.93
350.31	1697.77
350.53	1720.29
350.75	1869.80
350.96	1642.47
351.18	1798.12
351.39	1691.62
351.61	1658.85
351.82	1683.43
352.04	1697.77
352.26	1708.01
352.47	1748.97
352.69	1742.82
352.90	1626.09
353.12	1656.81
353.34	1720.29
353.55	1781.73
353.77	1740.77
353.98	1675.24
354.20	1654.76
354.41	1740.77
354.63	1789.92
354.85	1837.03
355.06	1683.43
355.28	1673.19
355.49	1759.21
355.71	1734.63
355.92	1720.29
356.14	1814.50
356.35	1634.28
356.57	1675.24
356.79	1808.36
357.00	1683.43
357.22	1726.44
357.43	1646.57
357.65	1736.68
357.86	1716.20
358.08	1693.67
358.29	1765.35
358.51	1828.84
358.72	1769.44
358.94	1669.09
359.16	1697.77
359.37	1753.06
359.59	1716.20
359.80	1755.11
360.02	1642.47
360.23	1720.29
360.45	1806.31
360.66	1691.62
360.88	1572.84
361.09	1642.47
361.31	1773.54
361.52	1746.92
361.74	1816.55
361.95	1798.12
362.17	1667.05
362.38	1830.88
362.60	1771.49
362.81	1724.39
363.03	1675.24
363.24	1693.67
363.46	1748.97
363.67	1677.29
363.89	1718.25
364.10	1693.67
364.32	1718.25
364.53	1769.44
364.75	1626.09
364.96	1744.87
365.18	1798.12
365.39	1677.29
365.61	1601.51
365.82	1847.27
366.04	1685.48
366.25	1630.18
366.47	1748.97
366.68	1636.33
366.90	1638.38
367.11	1726.44
367.33	1746.92
367.54	1718.25
367.76	1677.29
367.97	1746.92
368.19	1665.00
368.40	1744.87
368.62	1691.62
368.83	1691.62
369.05	1787.88
369.26	1611.75
369.48	1632.23
369.69	1722.34
369.91	1699.81
370.12	1660.90
370.33	1767.40
370.55	1699.81
370.76	1648.61
370.98	1763.30
371.19	1732.58
371.41	1673.19
371.62	1699.81
371.84	1652.71
372.05	1806.31
372.27	1673.19
372.48	1732.58
372.69	1744.87
372.91	1744.87
373.12	1798.12
373.34	1667.05
373.55	1794.02
373.77	1699.81
373.98	1689.57
374.20	1791.97
374.41	1826.79
374.62	1679.33
374.84	1728.49
375.05	1787.88
375.27	1769.44
375.48	1679.33
375.70	1654.76
375.91	1771.49
376.12	1806.31
376.34	1675.24
376.55	1673.19
376.77	1771.49
376.98	1626.09
377.19	1642.47
377.41	1675.24
377.62	1667.05
377.84	1798.12
378.05	1787.88
378.27	1716.20
378.48	1769.44
378.69	1849.32
378.91	1757.16
379.12	1732.58
379.34	1708.01
379.55	1742.82
379.76	1757.16
379.98	1648.61
380.19	1722.34
380.41	1687.53
380.62	1726.44
380.83	1687.53
381.05	1634.28
381.26	1867.75
381.47	1703.91
381.69	1785.83
381.90	1839.08
382.12	1736.68
382.33	1716.20
382.54	1673.19
382.76	1748.97
382.97	1773.54
383.19	1607.66
383.40	1714.15
383.61	1667.05
383.83	1746.92
384.04	1714.15
384.25	1828.84
384.47	1746.92
384.68	1742.82
384.89	1642.47
385.11	1652.71
385.32	1656.81
385.54	1665.00
385.75	1658.85
385.96	1630.18
386.18	1732.58
386.39	1691.62
386.60	1671.14
386.82	1699.81
387.03	1646.57
387.24	1773.54
387.46	1701.86
387.67	1771.49
387.88	1740.77
388.10	1705.96
388.31	1726.44
388.52	1767.40
388.74	1767.40
388.95	1636.33
389.16	1695.72
389.38	1607.66
389.59	1820.64
389.80	1771.49
390.02	1761.25
390.23	1751.01
390.44	1662.95
390.66	1652.71
390.87	1601.51
391.08	1705.96
391.30	1785.83
391.51	1763.30
391.72	1687.53
391.94	1789.92
392.15	1642.47
392.36	1675.24
392.58	1632.23
392.79	1767.40
393.00	1769.44
393.22	1765.35
393.43	1742.82
393.64	1755.11
393.85	1763.30
394.07	1705.96
394.28	1748.97
394.49	1712.10
394.71	1740.77
394.92	1802.21
395.13	1683.43
395.35	1695.72
395.56	1634.28
395.77	1714.15
395.98	1789.92
396.20	1720.29
396.41	1785.83
396.62	1708.01
396.84	1658.85
397.05	1689.57
397.26	1671.14
397.47	1822.69
397.69	1703.91
397.90	1847.27
398.11	1810.40
398.32	1685.48
398.54	1681.38
398.75	1677.29
398.96	1671.14
399.18	1884.13
399.39	1652.71
399.60	1742.82
399.81	1648.61
400.03	1693.67
400.24	1939.43
400.45	1730.53
400.66	1699.81
400.88	1656.81
401.09	1853.41
401.30	1648.61
401.51	1771.49
401.73	1769.44
401.94	1794.02
402.15	1705.96
402.36	1800.16
402.58	1699.81
402.79	1773.54
403.00	1648.61
403.21	1830.88
403.43	1722.34
403.64	1779.68
403.85	1695.72
404.06	1816.55
404.27	1583.08
404.49	1656.81
404.70	1720.29
404.91	1916.90
405.12	1738.73
405.34	1710.05
405.55	1820.64
405.76	1658.85
405.97	1677.29
406.19	1814.50
406.40	1615.85
406.61	1722.34
406.82	1665.00
407.03	1699.81
407.25	1660.90
407.46	1763.30
407.67	1781.73
407.88	1781.73
408.09	1708.01
408.31	1650.66
408.52	1761.25
408.73	1701.86
408.94	1710.05
409.15	1669.09
409.37	1748.97
409.58	1697.77
409.79	1728.49
410.00	1769.44
410.21	1673.19
410.43	1789.92
410.64	1636.33
410.85	1708.01
411.06	1804.26
411.27	1753.06
411.48	1748.97
411.70	1669.09
411.91	1820.64
412.12	1732.58
412.33	1843.17
412.54	1660.90
412.76	1804.26
412.97	1861.60
413.18	1646.57
413.39	1697.77
413.60	1789.92
413.81	1820.64
414.03	1652.71
414.24	1697.77
414.45	1886.18
414.66	1685.48
414.87	1710.05
415.08	1662.95
415.30	1689.57
415.51	1779.68
415.72	1722.34
415.93	1724.39
416.14	1775.59
416.35	1796.07
416.56	1728.49
416.78	1763.30
416.99	1740.77
417.20	1746.92
417.41	1798.12
417.62	1699.81
417.83	1804.26
418.04	1773.54
418.26	1787.88
418.47	1789.92
418.68	1748.97
418.89	1804.26
419.10	1912.80
419.31	1843.17
419.52	1769.44
419.73	1695.72
419.95	1863.65
420.16	1712.10
420.37	1689.57
420.58	1761.25
420.79	1566.70
421.00	1671.14
421.21	1732.58
421.42	1630.18
421.63	1691.62
421.85	1705.96
422.06	1665.00
422.27	1744.87
422.48	1671.14
422.69	1751.01
422.90	1679.33
423.11	1697.77
423.32	1808.36
423.53	1834.98
423.75	1695.72
423.96	1828.84
424.17	1730.53
424.38	1814.50
424.59	1730.53
424.80	1718.25
425.01	1724.39
425.22	1667.05
425.43	1794.02
425.64	1802.21
425.85	1834.98
426.06	1736.68
426.28	1718.25
426.49	1703.91
426.70	1683.43
426.91	1730.53
427.12	1837.03
427.33	1736.68
427.54	1660.90
427.75	1775.59
427.96	1771.49
428.17	1802.21
428.38	1765.35
428.59	1755.11
428.80	1783.78
429.01	1679.33
429.23	1736.68
429.44	1720.29
429.65	1802.21
429.86	1691.62
430.07	1689.57
430.28	1738.73
430.49	1773.54
430.70	1736.68
430.91	1882.08
431.12	1728.49
431.33	1734.63
431.54	1832.93
431.75	1794.02
431.96	1794.02
432.17	1806.31
432.38	1832.93
432.59	1847.27
432.80	1890.28
433.01	1761.25
433.22	1746.92
433.43	1826.79
433.64	1789.92
433.85	1787.88
434.06	1822.69
434.27	1708.01
434.49	1742.82
434.70	1746.92
434.91	1843.17
435.12	1857.51
435.33	1687.53
435.54	1748.97
435.75	1667.05
435.96	1740.77
436.17	1734.63
436.38	1763.30
436.59	1761.25
436.80	1708.01
437.01	1775.59
437.22	1828.84
437.43	1779.68
437.64	1740.77
437.85	1820.64
438.06	1779.68
438.27	1703.91
438.48	1775.59
438.69	1769.44
438.90	1779.68
439.11	1710.05
439.32	1920.99
439.53	1691.62
439.74	1742.82
439.95	1755.11
440.16	1699.81
440.37	1800.16
440.57	1712.10
440.78	1816.55
440.99	1877.99
441.20	1722.34
441.41	1748.97
441.62	1677.29
441.83	1789.92
442.04	1736.68
442.25	1746.92
442.46	1710.05
442.67	1669.09
442.88	1914.85
443.09	1726.44
443.30	1648.61
443.51	1748.97
443.72	1791.97
443.93	1771.49
444.14	1830.88
444.35	1685.48
444.56	1734.63
444.77	1732.58
444.98	1785.83
445.19	1806.31
445.40	1736.68
445.61	1761.25
445.81	1761.25
446.02	1863.65
446.23	1769.44
446.44	1712.10
446.65	1822.69
446.86	1865.70
447.07	2019.30
447.28	1787.88
447.49	1732.58
447.70	1816.55
447.91	1855.46
448.12	1751.01
448.33	1837.03
448.54	1767.40
448.74	1789.92
448.95	1796.07
449.16	1791.97
449.37	1806.31
449.58	1808.36
449.79	1877.99
450.00	1794.02
450.21	1744.87
450.42	1775.59
450.63	1744.87
450.84	1787.88
451.05	1818.60
451.25	1691.62
451.46	1703.91
451.67	1869.80
451.88	1847.27
452.09	1724.39
452.30	1787.88
452.51	1714.15
452.72	1877.99
452.93	1994.72
453.13	1765.35
453.34	1785.83
453.55	1853.41
453.76	1753.06
453.97	1746.92
454.18	1724.39
454.39	1796.07
454.60	1757.16
454.81	1931.23
455.01	1837.03
455.22	1646.57
455.43	1773.54
455.64	1832.93
455.85	1832.93
456.06	1904.61
456.27	1863.65
456.48	1794.02
456.68	1839.08
456.89	1970.15
457.10	1777.64
457.31	1808.36
457.52	1736.68
457.73	1759.21
457.94	1853.41
458.14	1791.97
458.35	1976.29
458.56	1808.36
458.77	1816.55
458.98	1828.84
459.19	1925.09
459.39	1857.51
459.60	1894.37
459.81	1771.49
460.02	1904.61
460.23	1855.46
460.44	1828.84
460.65	1777.64
460.85	1800.16
461.06	1822.69
461.27	1814.50
461.48	1808.36
461.69	1808.36
461.89	1712.10
462.10	1777.64
462.31	1767.40
462.52	1800.16
462.73	1820.64
462.94	1859.56
463.14	1892.32
463.35	1839.08
463.56	2021.35
463.77	1822.69
463.98	1886.18
464.18	1789.92
464.39	2021.35
464.60	2019.30
464.81	1820.64
465.02	1941.47
465.23	1914.85
465.43	1925.09
465.64	1765.35
465.85	1767.40
466.06	1910.75
466.27	1863.65
466.47	1996.77
466.68	2015.20
466.89	1839.08
467.10	1740.77
467.30	1785.83
467.51	2072.54
467.72	1904.61
467.93	1806.31
468.14	1849.32
468.34	2095.07
468.55	1880.04
468.76	2009.06
468.97	1855.46
469.17	2093.02
469.38	1929.19
469.59	1976.29
469.80	1828.84
470.01	1990.63
470.21	1826.79
470.42	1970.15
470.63	2052.06
470.84	2131.94
471.04	1964.00
471.25	2111.46
471.46	1955.81
471.67	2170.85
471.87	2013.15
472.08	2000.87
472.29	1966.05
472.50	1943.52
472.70	2066.40
472.91	1871.84
473.12	2033.63
473.33	2023.39
473.53	2066.40
473.74	1961.95
473.95	2086.88
474.16	2109.41
474.36	1910.75
474.57	2183.13
474.78	2084.83
474.99	2228.19
475.19	1957.86
475.40	2183.13
475.61	2236.38
475.81	2004.96
476.02	2068.45
476.23	2222.05
476.44	2019.30
476.64	2068.45
476.85	2133.98
477.06	2109.41
477.27	2287.58
477.47	2336.73
477.68	2170.85
477.89	1968.10
478.09	2170.85
478.30	2082.78
478.51	2052.06
478.71	2093.02
478.92	2240.48
479.13	2254.81
479.34	2234.33
479.54	2369.50
479.75	2285.53
479.96	2340.83
480.16	2086.88
480.37	2314.20
480.58	2287.58
480.78	2475.99
480.99	2215.90
481.20	2336.73
481.41	2129.89
481.61	2199.52
481.82	2609.11
482.03	2256.86
482.23	2228.19
482.44	2322.40
482.65	2775.00
482.85	2461.66
483.06	2318.30
483.27	2400.22
483.47	2389.98
483.68	2389.98
483.89	2258.91
484.09	2627.54
484.30	2516.95
484.51	2441.18
484.71	2463.71
484.92	2420.70
485.13	2596.82
485.33	2568.15
485.54	2451.42
485.75	2353.12
485.95	2596.82
486.16	2424.80
486.37	2541.53
486.57	2330.59
486.78	2420.70
486.98	2762.71
487.19	2453.47
487.40	2658.26
487.60	2475.99
487.81	2551.77
488.02	2361.31
488.22	2598.87
488.43	2623.45
488.64	2625.50
488.84	2580.44
489.05	2770.90
489.25	2564.06
489.46	2428.89
489.67	2738.13
489.87	3020.75
490.08	2707.41
490.29	2674.65
490.49	2617.30
490.70	2863.06
490.90	2686.94
491.11	2557.91
491.32	2691.03
491.52	2535.39
491.73	2721.75
491.94	2697.17
492.14	2793.43
492.35	2775.00
492.55	2697.17
492.76	2697.17
492.97	2969.55
493.17	2754.52
493.38	2897.88
493.58	3270.61
493.79	2928.60
494.00	3047.38
494.20	2985.94
494.41	3182.54
494.61	3067.86
494.82	3065.81
495.02	2707.41
495.23	3264.46
495.44	2779.09
495.64	2934.74
495.85	2975.70
496.05	3178.45
496.26	3336.14
496.47	3039.19
496.67	2928.60
496.88	3745.73
497.08	2969.55
497.29	3147.73
497.49	3190.74
497.70	3239.89
497.91	3096.53
498.11	3246.03
498.32	3305.42
498.52	2967.51
498.73	3180.50
498.93	3401.68
499.14	3551.18
499.34	3428.30
499.55	3516.36
499.76	2901.97
499.96	3485.64
500.17	3190.74
500.37	3313.61
500.58	3350.48
500.78	3225.55
500.99	2953.17
501.19	3444.68
501.40	3653.58
501.60	3248.08
501.81	3461.07
502.02	3579.85
502.22	3241.93
502.43	3391.44
502.63	3340.24
502.84	3878.85
503.04	3352.52
503.25	3542.99
503.45	3422.16
503.66	3106.77
503.86	3387.34
504.07	3223.50
504.27	3229.65
504.48	3530.70
504.68	3540.94
504.89	3547.08
505.09	3299.28
505.30	3162.06
505.50	3608.52
505.71	3219.41
505.91	3960.77
506.12	3598.28
506.32	3528.65
506.53	3508.17
506.73	3547.08
506.94	3733.45
507.14	3391.44
507.35	3624.90
507.55	3473.36
507.76	3635.14
507.96	3682.25
508.17	3542.99
508.37	3395.53
508.58	3897.28
508.78	3532.75
508.99	4216.77
509.19	3514.31
509.40	3663.82
509.60	3809.22
509.81	3710.92
510.01	3686.34
510.22	3725.26
510.42	3835.85
510.63	3655.62
510.83	3698.63
511.04	3641.29
511.24	3928.00
511.44	3610.57
511.65	4016.07
511.85	3508.17
512.06	3923.91
512.26	3704.78
512.47	3903.43
512.67	3782.60
512.88	3817.41
513.08	3960.77
513.29	3923.91
513.49	3579.85
513.69	3706.82
513.90	3739.59
514.10	3956.68
514.31	4032.45
514.51	3850.18
514.72	4218.82
514.92	3968.96
515.13	3731.40
515.33	3794.89
515.53	3993.54
515.74	4341.69
515.94	3885.00
516.15	4188.10
516.35	3626.95
516.56	3899.33
516.76	3762.12
516.96	4149.18
517.17	4130.75
517.37	3784.65
517.58	3997.64
517.78	3948.48
517.99	4235.20
518.19	4157.38
518.39	3956.68
518.60	4808.63
518.80	4143.04
519.01	4743.10
519.21	4122.56
519.41	4530.11
519.62	3811.27
519.82	4319.17
520.03	4335.55
520.23	4333.50
520.43	4038.59
520.64	4906.93
520.84	4325.31
521.05	4196.29
521.25	4177.86
521.45	4310.97
521.66	4171.71
521.86	4251.58
522.07	4399.04
522.27	4376.51
522.47	4046.79
522.68	4239.30
522.88	4470.72
523.08	4558.78
523.29	4190.14
523.49	4280.25
523.70	4315.07
523.90	4462.52
524.10	4548.54
524.31	4310.97
524.51	4169.66
524.71	4153.28
524.92	4470.72
525.12	4274.11
525.33	4392.89
525.53	4474.81
525.73	4732.86
525.94	4587.45
526.14	4624.31
526.34	4257.73
526.55	4511.68
526.75	4906.93
526.95	4716.47
527.16	4861.88
527.36	4689.85
527.56	4685.75
527.77	4491.20
527.97	4550.59
528.17	4530.11
528.38	4542.39
528.58	4673.46
528.78	4532.15
528.99	4622.27
529.19	4794.29
529.39	4693.94
529.60	4394.94
529.80	4638.65
530.00	4517.82
530.21	4810.68
530.41	4966.32
530.61	5330.86
530.82	4822.97
531.02	4657.08
531.22	4784.06
531.43	4730.81
531.63	5099.44
531.83	4902.84
532.04	5083.06
532.24	4949.94
532.44	4685.75
532.64	4931.51
532.85	5363.63
533.05	5175.22
533.25	4859.83
533.46	5048.24
533.66	5316.53
533.86	5005.24
534.07	5392.30
534.27	4788.15
534.47	5158.83
534.67	5099.44
534.88	4771.77
535.08	5466.03
535.28	5611.43
535.49	5142.45
535.69	5418.93
535.89	5533.61
536.09	5396.40
536.30	5031.86
536.50	5267.38
536.70	5328.81
536.91	4796.34
537.11	5648.30
537.31	5617.58
537.51	5445.55
537.72	5554.09
537.92	5445.55
538.12	5730.22
538.32	5420.97
538.53	5390.25
538.73	5414.83
538.93	5400.49
539.13	5347.25
539.34	5605.29
539.54	5355.44
539.74	5468.08
539.94	5461.93
540.15	5736.36
540.35	5365.68
540.55	5343.15
540.75	5476.27
540.96	5580.71
541.16	5871.53
541.36	5627.82
541.56	5818.28
541.77	6031.27
541.97	5699.50
542.17	5539.76
542.37	5887.91
542.58	5629.87
542.78	5959.59
542.98	5713.83
543.18	5822.38
543.38	5975.97
543.59	5681.07
543.79	5461.93
543.99	5767.08
544.19	5590.95
544.40	5734.31
544.60	6123.43
544.80	5867.43
545.00	5732.26
545.20	5918.63
545.41	5924.77
545.61	5552.04
545.81	5619.63
546.01	5990.31
546.21	5908.39
546.42	5857.19
546.62	6244.26
546.82	5840.81
547.02	6039.46
547.22	5971.88
547.43	6135.71
547.63	5967.78
547.83	6012.84
548.03	5500.84
548.23	5984.16
548.44	6072.23
548.64	6037.41
548.84	5918.63
549.04	5672.87
549.24	6156.19
549.45	6578.08
549.65	5965.73
549.85	6205.35
550.05	6184.87
550.25	6068.13
550.45	6420.38
550.66	5861.29
550.86	6125.47
551.06	6057.89
551.26	6080.42
551.46	5871.53
551.66	6356.90
551.87	5986.21
552.07	6070.18
552.27	6191.01
552.47	6195.11
552.67	6082.47
552.87	6084.52
553.07	6391.71
553.28	6094.76
553.48	6416.29
553.68	5951.40
553.88	6262.69
554.08	6205.35
554.28	6514.59
554.48	6070.18
554.69	6135.71
554.89	6154.15
555.09	6307.74
555.29	6053.80
555.49	6334.37
555.69	6225.82
555.89	6573.98
556.10	5982.12
556.30	6135.71
556.50	6293.41
556.70	6369.18
556.90	6274.98
557.10	6465.44
557.30	6502.30
557.50	6508.44
557.70	6547.36
557.91	6266.78
558.11	6301.60
558.31	6721.43
558.51	6424.48
558.71	6461.34
558.91	6619.04
559.11	6389.66
559.31	6289.31
559.51	6328.22
559.72	6518.68
559.92	6352.80
560.12	6340.51
560.32	6852.50
560.52	6565.79
560.72	6336.42
560.92	6582.17
561.12	6573.98
561.32	6559.64
561.52	6393.76
561.72	6899.61
561.93	6541.21
562.13	6528.92
562.33	6475.68
562.53	6756.25
562.73	6455.20
562.93	6193.06
563.13	6565.79
563.33	6557.60
563.53	6770.58
563.73	6537.12
563.93	6723.48
564.13	6662.04
564.33	6637.47
564.53	6582.17
564.74	6764.44
564.94	6711.19
565.14	6696.86
565.34	6688.67
565.54	6449.05
565.74	6381.47
565.94	6684.57
566.14	6541.21
566.34	6483.87
566.54	6582.17
566.74	6541.21
566.94	6936.47
567.14	6516.64
567.34	6834.07
567.54	6741.91
567.74	6909.85
567.94	6756.25
568.14	6571.93
568.34	6893.46
568.54	7083.92
568.74	6467.49
568.94	6580.12
569.14	7045.01
569.34	7255.95
569.54	6864.79
569.75	6678.43
569.95	6809.50
570.15	6975.38
570.35	7036.82
570.55	6590.36
570.75	6936.47
570.95	6983.57
571.15	6688.67
571.35	6852.50
571.55	6821.78
571.75	6885.27
571.95	7163.79
572.15	6565.79
572.35	6805.40
572.55	6877.08
572.75	6909.85
572.95	6614.94
573.15	7118.74
573.35	7012.24
573.55	6651.80
573.75	6643.61
573.95	7200.66
574.15	7049.11
574.35	7180.18
574.55	6848.41
574.75	6940.57
574.95	7059.35
575.15	6750.10
575.34	6918.04
575.54	7028.63
575.74	7214.99
575.94	7020.44
576.14	6889.37
576.34	6840.22
576.54	7071.64
576.74	6920.09
576.94	7344.02
577.14	6997.91
577.34	7147.41
577.54	6829.98
577.74	6924.18
577.94	7282.58
578.14	7145.36
578.34	7217.04
578.54	6887.32
578.74	7202.71
578.94	7040.92
579.14	7106.45
579.34	6778.78
579.54	7475.09
579.74	7243.67
579.94	7028.63
580.13	7219.09
580.33	6809.50
580.53	7073.68
580.73	6971.29
580.93	7315.34
581.13	6889.37
581.33	6907.80
581.53	7434.13
581.73	7311.25
581.93	6959.00
582.13	7405.46
582.33	7147.41
582.53	7382.93
582.73	7393.17
582.92	7178.13
583.12	7534.48
583.32	7112.60
583.52	7092.12
583.72	7638.92
583.92	7376.78
584.12	6959.00
584.32	7511.95
584.52	7237.52
584.72	7552.91
584.92	7354.26
585.11	7712.65
585.31	7813.00
585.51	7354.26
585.71	7323.54
585.91	7563.15
586.11	7784.33
586.31	7362.45
586.51	7237.52
586.71	7514.00
586.91	7266.19
587.10	7856.01
587.30	7669.64
587.50	7597.96
587.70	7290.77
587.90	7614.35
588.10	7700.36
588.30	7919.50
588.50	7475.09
588.69	7395.22
588.89	7481.23
589.09	7600.01
589.29	7571.34
589.49	7542.67
589.69	7223.19
589.89	7710.60
590.08	7878.54
590.28	7806.86
590.48	7712.65
590.68	7491.47
590.88	7804.81
591.08	7802.76
591.28	7800.71
591.47	7927.69
591.67	7454.61
591.87	7866.25
592.07	7726.99
592.27	7649.16
592.47	7427.98
592.67	7640.97
592.86	7813.00
593.06	7833.48
593.26	7735.18
593.46	7683.98
593.66	7446.41
593.86	7878.54
594.05	7968.65
594.25	7997.32
594.45	7477.13
594.65	8048.52
594.85	7737.23
595.05	7712.65
595.24	7933.83
595.44	7620.49
595.64	7675.79
595.84	8234.88
596.04	7645.07
