SpectraSuite Data File
++++++++++++++++++++++++++++++++++++
Date: Fri Jun 02 14:52:24 CEST 2017
User: INFO_000
Dark Spectrum Present: No
Reference Spectrum Present: No
Number of Sampled Component Spectra: 1
Spectrometers: USB4H00879
Integration Time (usec): 80000 (USB4H00879)
Spectra Averaged: 1 (USB4H00879)
Boxcar Smoothing: 0 (USB4H00879)
Correct for Electrical Dark: No (USB4H00879)
Strobe/Lamp Enabled: No (USB4H00879)
Correct for Detector Non-linearity: No (USB4H00879)
Correct for Stray Light: No (USB4H00879)
Number of Pixels in Processed Spectrum: 3648
>>>>>Begin Processed Spectral Data<<<<<
345.13	1267.69
345.34	1267.69
345.56	1267.69
345.78	1212.40
345.99	1253.36
346.21	1703.91
346.42	1683.43
346.64	1609.70
346.86	1734.63
347.07	1705.96
347.29	1652.71
347.50	1654.76
347.72	1581.03
347.94	1742.82
348.15	1564.65
348.37	1609.70
348.59	1734.63
348.80	1710.05
349.02	1794.02
349.23	1863.65
349.45	1841.12
349.67	1865.70
349.88	1826.79
350.10	1978.34
350.31	1837.03
350.53	1783.78
350.75	1939.43
350.96	1808.36
351.18	1880.04
351.39	1855.46
351.61	1841.12
351.82	1869.80
352.04	1800.16
352.26	1857.51
352.47	1916.90
352.69	1869.80
352.90	1802.21
353.12	1849.32
353.34	1892.32
353.55	1947.62
353.77	1941.47
353.98	1875.94
354.20	1828.84
354.41	1929.19
354.63	1894.37
354.85	2052.06
355.06	1890.28
355.28	1808.36
355.49	1970.15
355.71	1939.43
355.92	1859.56
356.14	2009.06
356.35	1888.23
356.57	1875.94
356.79	1959.91
357.00	1884.13
357.22	1918.95
357.43	1851.36
357.65	1980.39
357.86	1900.52
358.08	2002.91
358.29	1988.58
358.51	2025.44
358.72	1859.56
358.94	1978.34
359.16	1955.81
359.37	1945.57
359.59	1984.48
359.80	2011.11
360.02	1941.47
360.23	1970.15
360.45	1998.82
360.66	1998.82
360.88	1884.13
361.09	1966.05
361.31	1970.15
361.52	1902.56
361.74	2004.96
361.95	1996.77
362.17	1918.95
362.38	2115.55
362.60	1990.63
362.81	1955.81
363.03	1955.81
363.24	2002.91
363.46	2078.69
363.67	2021.35
363.89	1992.67
364.10	2023.39
364.32	2070.50
364.53	2041.82
364.75	1945.57
364.96	2004.96
365.18	2068.45
365.39	2093.02
365.61	2033.63
365.82	2072.54
366.04	2054.11
366.25	2007.01
366.47	2031.58
366.68	2082.78
366.90	1939.43
367.11	2162.66
367.33	2058.21
367.54	2103.26
367.76	2056.16
367.97	2150.37
368.19	2062.30
368.40	2074.59
368.62	2019.30
368.83	1988.58
369.05	2070.50
369.26	1994.72
369.48	2062.30
369.69	1970.15
369.91	2093.02
370.12	1998.82
370.33	2148.32
370.55	2000.87
370.76	2076.64
370.98	2176.99
371.19	1992.67
371.41	2062.30
371.62	2070.50
371.84	2093.02
372.05	2174.94
372.27	1964.00
372.48	2136.03
372.69	2097.12
372.91	2121.70
373.12	2158.56
373.34	2166.75
373.55	2154.46
373.77	2154.46
373.98	2125.79
374.20	2174.94
374.41	2269.15
374.62	2107.36
374.84	2084.83
375.05	2224.09
375.27	2224.09
375.48	2234.33
375.70	2160.61
375.91	2271.20
376.12	2289.63
376.34	2150.37
376.55	2179.04
376.77	2238.43
376.98	2074.59
377.19	2181.09
377.41	2181.09
377.62	2215.90
377.84	2238.43
378.05	2320.35
378.27	2293.72
378.48	2338.78
378.69	2359.26
378.91	2299.87
379.12	2256.86
379.34	2240.48
379.55	2260.96
379.76	2355.16
379.98	2224.09
380.19	2289.63
380.41	2201.57
380.62	2322.40
380.83	2287.58
381.05	2224.09
381.26	2432.99
381.47	2232.29
381.69	2234.33
381.90	2435.03
382.12	2289.63
382.33	2357.21
382.54	2306.01
382.76	2326.49
382.97	2287.58
383.19	2297.82
383.40	2349.02
383.61	2279.39
383.83	2322.40
384.04	2275.29
384.25	2455.51
384.47	2486.23
384.68	2303.96
384.89	2330.59
385.11	2277.34
385.32	2369.50
385.54	2248.67
385.75	2408.41
385.96	2406.36
386.18	2445.27
386.39	2467.80
386.60	2340.83
386.82	2432.99
387.03	2377.69
387.24	2428.89
387.46	2379.74
387.67	2496.47
387.88	2430.94
388.10	2400.22
388.31	2512.86
388.52	2525.15
388.74	2580.44
388.95	2475.99
389.16	2496.47
389.38	2531.29
389.59	2553.82
389.80	2629.59
390.02	2590.68
390.23	2654.17
390.44	2592.73
390.66	2539.48
390.87	2576.34
391.08	2621.40
391.30	2609.11
391.51	2713.56
391.72	2734.04
391.94	2613.21
392.15	2666.46
392.36	2688.98
392.58	2543.58
392.79	2680.79
393.00	2738.13
393.22	2731.99
393.43	2807.77
393.64	2856.92
393.85	2719.70
394.07	2574.30
394.28	2768.85
394.49	2768.85
394.71	2846.68
394.92	2877.40
395.13	2695.13
395.35	2846.68
395.56	2693.08
395.77	2754.52
395.98	2781.14
396.20	2846.68
396.41	2893.78
396.62	2881.49
396.84	2861.01
397.05	2848.72
397.26	2965.46
397.47	3067.86
397.69	2840.53
397.90	2990.03
398.11	2895.83
398.32	2973.65
398.54	2891.73
398.75	2959.31
398.96	2901.97
399.18	3057.62
399.39	3043.28
399.60	2981.84
399.81	2949.08
400.03	2957.27
400.24	3317.71
400.45	3006.42
400.66	3123.15
400.88	3043.28
401.09	3370.96
401.30	3104.72
401.51	3170.26
401.73	3194.83
401.94	3237.84
402.15	3053.52
402.36	3117.01
402.58	3231.69
402.79	3194.83
403.00	3252.17
403.21	3323.85
403.43	3276.75
403.64	3358.67
403.85	3067.86
404.06	3297.23
404.27	3155.92
404.49	3330.00
404.70	3188.69
404.91	3311.57
405.12	3397.58
405.34	3319.76
405.55	3514.31
405.76	3241.93
405.97	3250.13
406.19	3524.55
406.40	3321.81
406.61	3278.80
406.82	3479.50
407.03	3416.01
407.25	3377.10
407.46	3540.94
407.67	3481.55
407.88	3551.18
408.09	3389.39
408.31	3411.92
408.52	3428.30
408.73	3370.96
408.94	3434.44
409.15	3522.51
409.37	3436.49
409.58	3608.52
409.79	3577.80
410.00	3618.76
410.21	3600.33
410.43	3590.09
410.64	3504.07
410.85	3561.42
411.06	3477.45
411.27	3678.15
411.48	3622.86
411.70	3657.67
411.91	3577.80
412.12	3760.07
412.33	3583.95
412.54	3643.34
412.76	3694.54
412.97	3635.14
413.18	3542.99
413.39	3649.48
413.60	3663.82
413.81	3749.83
414.03	3573.71
414.24	3725.26
414.45	3903.43
414.66	3610.57
414.87	3841.99
415.08	3792.84
415.30	3715.02
415.51	3829.70
415.72	3706.82
415.93	3809.22
416.14	3837.89
416.35	3960.77
416.56	3790.79
416.78	3811.27
416.99	3956.68
417.20	3919.81
417.41	3872.71
417.62	3971.01
417.83	4022.21
418.04	3870.66
418.26	3991.49
418.47	3903.43
418.68	3864.52
418.89	4007.87
419.10	4153.28
419.31	4128.70
419.52	4071.36
419.73	3981.25
419.95	4214.72
420.16	3876.80
420.37	4048.83
420.58	4192.19
420.79	3944.39
421.00	4171.71
421.21	4161.47
421.42	4079.55
421.63	4085.70
421.85	4317.12
422.06	4206.53
422.27	4179.90
422.48	4184.00
422.69	4222.91
422.90	4300.73
423.11	4235.20
423.32	4337.60
423.53	4362.17
423.75	4302.78
423.96	4454.33
424.17	4349.89
424.38	4605.88
424.59	4364.22
424.80	4476.86
425.01	4411.32
425.22	4478.91
425.43	4511.68
425.64	4648.89
425.85	4712.38
426.06	4566.97
426.28	4544.44
426.49	4540.35
426.70	4513.72
426.91	4626.36
427.12	4710.33
427.33	4693.94
427.54	4700.09
427.75	4695.99
427.96	4761.53
428.17	4739.00
428.38	4847.54
428.59	4958.13
428.80	4698.04
429.01	4900.79
429.23	4947.89
429.44	4933.56
429.65	4872.12
429.86	4933.56
430.07	4919.22
430.28	4954.04
430.49	5029.81
430.70	5146.55
430.91	5144.50
431.12	5040.05
431.33	5152.69
431.54	5201.84
431.75	5234.61
431.96	5144.50
432.17	5175.22
432.38	5296.05
432.59	5369.77
432.80	5337.01
433.01	5410.73
433.22	5334.96
433.43	5470.12
433.64	5373.87
433.85	5314.48
434.06	5636.01
434.27	5287.86
434.49	5611.43
434.70	5586.86
434.91	5480.36
435.12	5603.24
435.33	5564.33
435.54	5580.71
435.75	5390.25
435.96	5535.66
436.17	5558.19
436.38	5781.42
436.59	5777.32
436.80	5674.92
437.01	5758.89
437.22	5779.37
437.43	5834.66
437.64	5576.62
437.85	5967.78
438.06	5846.95
438.27	5779.37
438.48	5724.07
438.69	5965.73
438.90	5914.53
439.11	5715.88
439.32	6031.27
439.53	5949.35
439.74	6012.84
439.95	6045.60
440.16	6074.28
440.37	6109.09
440.57	6002.60
440.78	6098.85
440.99	6172.58
441.20	6234.02
441.41	5951.40
441.62	6049.70
441.83	6037.41
442.04	6258.59
442.25	6211.49
442.46	6262.69
442.67	6326.18
442.88	6750.10
443.09	6320.03
443.30	6350.75
443.51	6387.61
443.72	6719.39
443.93	6293.41
444.14	6627.23
444.35	6360.99
444.56	6434.72
444.77	6524.83
444.98	6444.96
445.19	6588.32
445.40	6586.27
445.61	6598.56
445.81	6659.99
446.02	6700.95
446.23	6680.47
446.44	6553.50
446.65	6719.39
446.86	6598.56
447.07	6762.39
447.28	6879.13
447.49	6971.29
447.70	6827.93
447.91	6844.31
448.12	6813.59
448.33	6942.61
448.54	7104.40
448.74	6805.40
448.95	6950.81
449.16	6903.70
449.37	7171.99
449.58	7002.01
449.79	7253.91
450.00	6993.81
450.21	7294.86
450.42	7184.27
450.63	7108.50
450.84	7118.74
451.05	7153.55
451.25	7155.60
451.46	7133.08
451.67	7391.12
451.88	7466.89
452.09	7231.38
452.30	7356.30
452.51	7258.00
452.72	7505.81
452.93	7597.96
453.13	7311.25
453.34	7276.43
453.55	7538.57
453.76	7456.65
453.97	7817.10
454.18	7335.82
454.39	7544.72
454.60	7618.44
454.81	7514.00
455.01	7874.44
455.22	7393.17
455.43	7669.64
455.64	7870.34
455.85	8021.89
456.06	8132.48
456.27	7966.60
456.48	7829.38
456.68	8042.37
456.89	8085.38
457.10	8120.20
457.31	8069.00
457.52	8122.24
457.73	8171.40
457.94	8327.04
458.14	7982.98
458.35	8542.08
458.56	8378.24
458.77	8388.48
458.98	8425.34
459.19	8417.15
459.39	8341.38
459.60	8589.18
459.81	8578.94
460.02	8714.11
460.23	8511.36
460.44	8789.88
460.65	8720.25
460.85	8787.83
461.06	8984.44
461.27	8499.07
461.48	8892.28
461.69	8927.10
461.89	8703.87
462.10	9144.18
462.31	8949.62
462.52	8812.41
462.73	8851.32
462.94	9193.33
463.14	8998.77
463.35	9049.97
463.56	9496.43
463.77	9500.53
463.98	9211.76
464.18	9359.22
464.39	9488.24
464.60	9621.36
464.81	9537.39
465.02	9748.33
465.23	9873.26
465.43	9596.78
465.64	10020.71
465.85	9973.61
466.06	9791.34
466.27	10145.64
466.47	10198.88
466.68	10141.54
466.89	10080.10
467.10	10092.39
467.30	9936.74
467.51	10282.85
467.72	10391.39
467.93	10340.19
468.14	10401.63
468.34	10479.46
468.55	10454.88
468.76	10749.79
468.97	10520.42
469.17	10897.24
469.38	10891.10
469.59	10880.86
469.80	10835.80
470.01	10862.43
470.21	10897.24
470.42	11161.43
470.63	11292.50
470.84	10870.62
471.04	11202.39
471.25	11263.83
471.46	11212.63
471.67	11525.97
471.87	11464.53
472.08	11519.82
472.29	11601.74
472.50	11538.26
472.70	11702.09
472.91	11738.96
473.12	12040.01
473.33	12066.63
473.53	12156.74
473.74	12052.30
473.95	12296.00
474.16	12259.14
474.36	12398.40
474.57	12304.20
474.78	12791.61
474.99	12633.92
475.19	12613.44
475.40	12969.79
475.61	12926.78
475.81	12996.41
476.02	13262.65
476.23	13020.99
476.44	13147.96
476.64	13344.56
476.85	13719.34
477.06	13414.20
477.27	13840.17
477.47	13963.05
477.68	13899.56
477.89	13934.38
478.09	14016.30
478.30	14036.78
478.51	14178.09
478.71	14333.73
478.92	14454.56
479.13	14360.36
479.34	14761.76
479.54	14829.34
479.75	14890.78
479.96	14659.36
480.16	14894.88
480.37	14972.70
480.58	15386.39
480.78	15531.80
480.99	15505.17
481.20	15601.43
481.41	15587.09
481.61	15929.10
481.82	15920.91
482.03	15922.96
482.23	15890.19
482.44	15986.44
482.65	16217.86
482.85	16240.39
483.06	16484.10
483.27	16279.30
483.47	16316.17
483.68	16598.79
483.89	16699.14
484.09	16764.67
484.30	16914.17
484.51	17137.40
484.71	17030.91
484.92	17075.96
485.13	17237.75
485.33	17323.77
485.54	17649.39
485.75	17610.48
485.95	18001.65
486.16	17714.93
486.37	17942.25
486.57	17782.51
486.78	17825.52
486.98	18364.14
487.19	18235.11
487.40	18341.61
487.60	18634.47
487.81	18849.50
488.02	18722.53
488.22	18626.28
488.43	18908.90
488.64	18910.94
488.84	19021.53
489.05	18999.01
489.25	19283.67
489.46	19683.03
489.67	19349.21
489.87	19789.52
490.08	19898.06
490.29	19609.30
490.49	20045.52
490.70	20123.34
490.90	20199.12
491.11	19982.03
491.32	20135.63
491.52	20489.93
491.73	20356.81
491.94	20233.93
492.14	20539.08
492.35	21063.36
492.55	21139.13
492.76	21008.06
492.97	21055.17
493.17	21143.23
493.38	21016.26
493.58	21597.88
493.79	21472.95
494.00	21407.42
494.20	21485.24
494.41	21702.32
494.61	21786.29
494.82	21782.20
495.02	21833.39
495.23	22122.16
495.44	22019.76
495.64	22300.33
495.85	22130.35
496.05	22316.72
496.26	22204.08
496.47	22662.82
496.67	22535.85
496.88	22863.52
497.08	22634.15
497.29	22851.24
497.49	22752.93
497.70	23109.28
497.91	23434.91
498.11	23072.42
498.32	23316.12
498.52	23426.71
498.73	23766.68
498.93	23633.56
499.14	23498.39
499.34	23602.84
499.55	23492.25
499.76	23869.08
499.96	24020.63
500.17	23817.88
500.37	24069.78
500.58	24057.49
500.78	24190.61
500.99	24342.16
501.19	24350.35
501.40	24360.59
501.60	24356.49
501.81	24530.57
502.02	24614.54
502.22	24413.84
502.43	24385.16
502.63	24829.57
502.84	25026.18
503.04	24796.81
503.25	25128.58
503.45	25056.90
503.66	25017.99
503.86	25038.47
504.07	25462.40
504.27	25192.06
504.48	25712.25
504.68	25552.51
504.89	25687.67
505.09	25407.10
505.30	25804.41
505.50	25841.27
505.71	26005.11
505.91	26125.94
506.12	25798.26
506.32	25847.41
506.53	26074.74
506.73	26048.11
506.94	26062.45
507.14	26064.50
507.35	26396.27
507.55	26056.31
507.76	25908.85
507.96	26218.10
508.17	26617.45
508.37	26300.01
508.58	26316.40
508.78	26578.54
508.99	26633.83
509.19	26855.01
509.40	26715.75
509.60	26672.74
509.81	26912.36
510.01	26848.87
510.22	26746.47
510.42	26771.05
510.63	27080.29
510.83	26859.11
511.04	27209.31
511.24	27088.48
511.44	27227.74
511.65	27223.65
511.85	26990.18
512.06	27270.75
512.26	27459.16
512.47	27209.31
512.67	27301.47
512.88	27709.02
513.08	27438.69
513.29	27772.50
513.49	27381.34
513.69	27418.21
513.90	27373.15
514.10	27889.24
514.31	28048.98
514.51	27962.97
514.72	27868.76
514.92	27641.43
515.13	27993.68
515.33	27960.92
515.53	28186.19
515.74	27893.33
515.94	28089.94
516.15	28225.11
516.35	27979.35
516.56	28233.30
516.76	27799.13
516.96	28579.40
517.17	28692.04
517.37	28399.18
517.58	28554.83
517.78	28624.46
517.99	28712.52
518.19	28743.24
518.39	28653.13
518.60	28550.73
518.80	29118.02
519.01	29109.83
519.21	28780.10
519.41	28976.71
519.62	29044.29
519.82	28997.19
520.03	29326.91
520.23	28876.36
520.43	29025.86
520.64	29562.43
520.84	29341.25
521.05	29249.09
521.25	29634.11
521.45	29634.11
521.66	29570.62
521.86	29902.39
522.07	29902.39
522.27	29918.78
522.47	29910.58
522.68	30006.84
522.88	29468.22
523.08	30350.90
523.29	29843.00
523.49	30015.03
523.70	30254.64
523.90	30436.91
524.10	30361.14
524.31	30639.66
524.51	30311.99
524.71	30840.36
524.92	30539.31
525.12	30725.68
525.33	30924.33
525.53	31245.86
525.73	31129.12
525.94	31307.30
526.14	30965.29
526.34	31063.59
526.55	31411.74
526.75	31548.96
526.95	31512.10
527.16	31448.61
527.36	31585.82
527.56	31927.83
527.77	31743.52
527.97	31630.88
528.17	32015.90
528.38	31981.08
528.58	32275.99
528.78	32488.98
528.99	32347.67
529.19	32763.40
529.39	32413.20
529.60	32656.91
529.80	32630.29
530.00	32677.39
530.21	32710.16
530.41	32816.65
530.61	32609.81
530.82	33111.56
531.02	33281.54
531.22	33138.18
531.43	33504.77
531.63	33084.94
531.83	33299.97
532.04	33641.98
532.24	33396.23
532.44	34217.46
532.64	34004.47
532.85	34096.63
533.05	33914.36
533.25	34070.01
533.46	33955.32
533.66	34422.26
533.86	34293.24
534.07	34954.73
534.27	34434.55
534.47	34915.82
534.67	34526.71
534.88	34872.81
535.08	34706.93
535.28	34905.58
535.49	35372.52
535.69	35605.98
535.89	35378.66
536.09	35575.27
536.30	35972.57
536.50	35612.13
536.70	36034.01
536.91	35749.34
537.11	36185.56
537.31	36201.94
537.51	36203.99
537.72	36636.11
537.92	36220.38
538.12	36539.86
538.32	36505.04
538.53	36584.91
538.73	36724.18
538.93	36855.25
539.13	36867.53
539.34	37039.56
539.54	36734.42
539.74	37129.67
539.94	37440.96
540.15	37039.56
540.35	37576.13
540.55	37510.60
540.75	37703.10
540.96	37586.37
541.16	37619.14
541.36	37449.16
541.56	38008.25
541.77	38284.73
541.97	38038.97
542.17	38151.61
542.37	38110.65
542.58	38206.90
542.78	37987.77
542.98	38393.27
543.18	38733.23
543.38	39277.99
543.59	39136.68
543.79	38766.00
543.99	38841.78
544.19	38899.12
544.40	38993.32
544.60	39325.10
544.80	39007.66
545.00	39425.45
545.20	39642.53
545.41	39499.17
545.61	39507.37
545.81	39734.69
546.01	39935.39
546.21	39699.87
546.42	39490.98
546.62	39892.38
546.82	39665.06
547.02	40498.58
547.22	40166.81
547.43	40197.53
547.63	40226.20
547.83	40600.98
548.03	40373.66
548.23	40820.11
548.44	40811.92
548.64	40678.80
548.84	40834.45
549.04	40869.26
549.24	41072.01
549.45	41192.84
549.65	40746.39
549.85	41196.94
550.05	41784.71
550.25	41266.57
550.45	41706.88
550.66	41684.36
550.86	41244.04
551.06	42198.40
551.26	41483.66
551.46	42028.41
551.66	42143.10
551.87	41665.92
552.07	41948.54
552.27	42093.95
552.47	42263.93
552.67	42222.97
552.87	41885.06
553.07	42243.45
553.28	42362.23
553.48	42507.64
553.68	42564.98
553.88	42653.05
554.08	42409.34
554.28	42853.75
554.48	42505.59
554.69	42849.65
554.89	42976.62
555.09	42906.99
555.29	42814.83
555.49	43353.45
555.69	43289.96
555.89	43017.58
556.10	43113.84
556.30	43251.05
556.50	43474.28
556.70	43468.14
556.90	43726.18
557.10	43597.16
557.30	43126.13
557.50	43847.01
557.70	43461.99
557.91	43715.94
558.11	43732.32
558.31	43947.36
558.51	43664.74
558.71	43916.64
558.91	43883.87
559.11	43603.30
559.31	43748.71
559.51	43648.36
559.72	44014.94
559.92	44234.08
560.12	44064.10
560.32	43912.55
560.52	44318.04
560.72	44369.24
560.92	44592.47
561.12	44289.37
561.32	44725.59
561.52	44430.68
561.72	45071.70
561.93	44619.10
562.13	44684.63
562.33	44705.11
562.53	45116.75
562.73	44524.89
562.93	44901.71
563.13	44916.05
563.33	44772.69
563.53	45077.84
563.73	44883.28
563.93	44494.17
564.13	45358.41
564.33	45069.65
564.53	45354.32
564.74	45309.26
564.94	45323.60
565.14	45143.38
565.34	45000.02
565.54	45135.18
565.74	45051.22
565.94	45679.94
566.14	45182.29
566.34	45616.46
566.54	46028.10
566.74	45120.85
566.94	45731.14
567.14	45747.53
567.34	45571.40
567.54	45677.90
567.74	45595.98
567.94	45327.69
568.14	46146.88
568.34	46079.30
568.54	45657.42
568.74	45978.95
568.94	45667.66
569.14	46339.39
569.34	45591.88
569.54	46331.20
569.75	46140.74
569.95	45886.79
570.15	46441.79
570.35	46531.90
570.55	46333.24
570.75	46318.91
570.95	46527.80
571.15	46130.50
571.35	46562.62
571.55	46601.53
571.75	46705.98
571.95	46789.94
572.15	46404.92
572.35	46953.78
572.55	47093.04
572.75	46460.22
572.95	46566.71
573.15	47045.94
573.35	46423.36
573.55	46738.74
573.75	46662.97
573.95	47195.44
574.15	47191.34
574.35	46953.78
574.55	46927.16
574.75	46492.99
574.95	47174.96
575.15	46685.50
575.34	47326.51
575.54	47248.69
575.74	47183.15
575.94	47256.88
576.14	46867.76
576.34	47322.41
576.54	47346.99
576.74	47416.62
576.94	47666.47
577.14	47281.45
577.34	47768.87
577.54	47316.27
577.74	47889.70
577.94	47797.54
578.14	47482.16
578.34	47938.85
578.54	47033.65
578.74	47674.66
578.94	48274.72
579.14	47684.90
579.34	47641.90
579.54	48106.79
579.74	47621.42
579.94	48162.08
580.13	48012.58
580.33	47820.07
580.53	47977.76
580.73	48272.67
580.93	48157.99
581.13	48586.01
581.33	48299.30
581.53	48485.66
581.73	48123.17
581.93	48434.46
582.13	48354.59
582.33	48411.93
582.53	48583.96
582.73	48538.91
582.92	48700.70
583.12	48868.63
583.32	48543.00
583.52	48686.36
583.72	48641.31
583.92	48833.81
584.12	49055.00
584.32	49249.55
584.52	49122.58
584.72	48907.54
584.92	48989.46
585.11	49366.29
585.31	49034.52
585.51	48942.36
585.71	48710.94
585.91	49310.99
586.11	48870.68
586.31	49048.85
586.51	48985.36
586.71	49128.72
586.91	49577.23
587.10	49304.85
587.30	49300.75
587.50	49288.46
587.70	49521.93
587.90	49919.24
588.10	49722.63
588.30	49333.52
588.50	49886.47
