SpectraSuite Data File
++++++++++++++++++++++++++++++++++++
Date: Fri Jun 02 14:52:29 CEST 2017
User: INFO_000
Dark Spectrum Present: No
Reference Spectrum Present: No
Number of Sampled Component Spectra: 1
Spectrometers: USB4H00879
Integration Time (usec): 80000 (USB4H00879)
Spectra Averaged: 1 (USB4H00879)
Boxcar Smoothing: 0 (USB4H00879)
Correct for Electrical Dark: No (USB4H00879)
Strobe/Lamp Enabled: No (USB4H00879)
Correct for Detector Non-linearity: No (USB4H00879)
Correct for Stray Light: No (USB4H00879)
Number of Pixels in Processed Spectrum: 3648
>>>>>Begin Processed Spectral Data<<<<<
345.13	1341.42
345.34	1341.42
345.56	1341.42
345.78	1298.41
345.99	1329.13
346.21	1734.63
346.42	1691.62
346.64	1648.61
346.86	1781.73
347.07	1748.97
347.29	1687.53
347.50	1585.13
347.72	1689.57
347.94	1789.92
348.15	1632.23
348.37	1693.67
348.59	1732.58
348.80	1648.61
349.02	1736.68
349.23	1871.84
349.45	1859.56
349.67	1900.52
349.88	1824.74
350.10	1986.53
350.31	1777.64
350.53	1869.80
350.75	1933.28
350.96	1771.49
351.18	1820.64
351.39	1798.12
351.61	1789.92
351.82	1890.28
352.04	1873.89
352.26	1814.50
352.47	1861.60
352.69	1877.99
352.90	1787.88
353.12	1761.25
353.34	1861.60
353.55	1945.57
353.77	1920.99
353.98	1818.60
354.20	1853.41
354.41	1892.32
354.63	1951.71
354.85	2007.01
355.06	1939.43
355.28	1851.36
355.49	1898.47
355.71	1880.04
355.92	1925.09
356.14	1986.53
356.35	1916.90
356.57	1839.08
356.79	1970.15
357.00	1855.46
357.22	2009.06
357.43	1847.27
357.65	1910.75
357.86	1929.19
358.08	1869.80
358.29	1984.48
358.51	2007.01
358.72	1943.52
358.94	1968.10
359.16	1904.61
359.37	1916.90
359.59	1949.67
359.80	2023.39
360.02	1943.52
360.23	1978.34
360.45	1978.34
360.66	2025.44
360.88	1873.89
361.09	1939.43
361.31	2060.26
361.52	1882.08
361.74	2047.97
361.95	2056.16
362.17	1904.61
362.38	2043.87
362.60	2011.11
362.81	1923.04
363.03	2000.87
363.24	1920.99
363.46	2039.78
363.67	1994.72
363.89	2033.63
364.10	2033.63
364.32	1976.29
364.53	2002.91
364.75	2007.01
364.96	2064.35
365.18	2097.12
365.39	2015.20
365.61	1998.82
365.82	2113.50
366.04	1947.62
366.25	1986.53
366.47	2027.49
366.68	2070.50
366.90	1984.48
367.11	2068.45
367.33	2072.54
367.54	2086.88
367.76	1998.82
367.97	2127.84
368.19	2064.35
368.40	2080.74
368.62	2107.36
368.83	1957.86
369.05	2058.21
369.26	2080.74
369.48	2045.92
369.69	1959.91
369.91	2074.59
370.12	2002.91
370.33	2107.36
370.55	1982.43
370.76	2033.63
370.98	2084.83
371.19	2027.49
371.41	2033.63
371.62	2068.45
371.84	2031.58
372.05	2174.94
372.27	2035.68
372.48	2064.35
372.69	2068.45
372.91	2146.27
373.12	2131.94
373.34	2064.35
373.55	2199.52
373.77	2209.76
373.98	2004.96
374.20	2170.85
374.41	2217.95
374.62	2123.74
374.84	2105.31
375.05	2308.06
375.27	2226.14
375.48	2174.94
375.70	2119.65
375.91	2207.71
376.12	2222.05
376.34	2105.31
376.55	2119.65
376.77	2209.76
376.98	2052.06
377.19	2123.74
377.41	2148.32
377.62	2172.89
377.84	2099.17
378.05	2291.68
378.27	2207.71
378.48	2254.81
378.69	2326.49
378.91	2287.58
379.12	2158.56
379.34	2170.85
379.55	2207.71
379.76	2240.48
379.98	2314.20
380.19	2265.05
380.41	2224.09
380.62	2260.96
380.83	2172.89
381.05	2228.19
381.26	2285.53
381.47	2207.71
381.69	2226.14
381.90	2338.78
382.12	2252.77
382.33	2242.53
382.54	2303.96
382.76	2277.34
382.97	2301.92
383.19	2267.10
383.40	2310.11
383.61	2394.08
383.83	2318.30
384.04	2326.49
384.25	2308.06
384.47	2365.40
384.68	2355.16
384.89	2396.12
385.11	2355.16
385.32	2314.20
385.54	2342.88
385.75	2316.25
385.96	2414.56
386.18	2443.23
386.39	2496.47
386.60	2478.04
386.82	2383.84
387.03	2437.08
387.24	2449.37
387.46	2344.92
387.67	2580.44
387.88	2498.52
388.10	2549.72
388.31	2435.03
388.52	2500.57
388.74	2525.15
388.95	2506.71
389.16	2637.78
389.38	2500.57
389.59	2598.87
389.80	2654.17
390.02	2502.62
390.23	2656.22
390.44	2549.72
390.66	2406.36
390.87	2428.89
391.08	2623.45
391.30	2584.54
391.51	2723.80
391.72	2721.75
391.94	2605.02
392.15	2539.48
392.36	2637.78
392.58	2570.20
392.79	2676.70
393.00	2723.80
393.22	2662.36
393.43	2797.53
393.64	2772.95
393.85	2838.48
394.07	2707.41
394.28	2766.81
394.49	2633.69
394.71	2754.52
394.92	2820.05
395.13	2678.74
395.35	2721.75
395.56	2691.03
395.77	2750.42
395.98	2803.67
396.20	2768.85
396.41	2809.81
396.62	2901.97
396.84	2785.24
397.05	2779.09
397.26	2869.20
397.47	3002.32
397.69	2836.44
397.90	3006.42
398.11	2932.69
398.32	2824.15
398.54	2797.53
398.75	2885.59
398.96	2938.84
399.18	3174.35
399.39	2928.60
399.60	2953.17
399.81	2861.01
400.03	2908.12
400.24	3196.88
400.45	3026.90
400.66	3045.33
400.88	2967.51
401.09	3233.74
401.30	3043.28
401.51	3162.06
401.73	3141.58
401.94	3100.62
402.15	3166.16
402.36	3045.33
402.58	3135.44
402.79	3178.45
403.00	3162.06
403.21	3260.37
403.43	3225.55
403.64	3196.88
403.85	3110.86
404.06	3170.26
404.27	3190.74
404.49	3117.01
404.70	3291.09
404.91	3221.45
405.12	3307.47
405.34	3303.37
405.55	3456.97
405.76	3205.07
405.97	3223.50
406.19	3330.00
406.40	3207.12
406.61	3250.13
406.82	3211.22
407.03	3309.52
407.25	3239.89
407.46	3426.25
407.67	3452.88
407.88	3422.16
408.09	3264.46
408.31	3418.06
408.52	3356.62
408.73	3317.71
408.94	3330.00
409.15	3375.05
409.37	3315.66
409.58	3479.50
409.79	3487.69
410.00	3487.69
410.21	3317.71
410.43	3551.18
410.64	3379.15
410.85	3489.74
411.06	3452.88
411.27	3526.60
411.48	3610.57
411.70	3508.17
411.91	3559.37
412.12	3694.54
412.33	3553.23
412.54	3532.75
412.76	3612.62
412.97	3657.67
413.18	3418.06
413.39	3571.66
413.60	3573.71
413.81	3710.92
414.03	3590.09
414.24	3614.66
414.45	3823.56
414.66	3538.89
414.87	3694.54
415.08	3674.06
415.30	3706.82
415.51	3774.41
415.72	3723.21
415.93	3622.86
416.14	3692.49
416.35	3678.15
416.56	3778.50
416.78	3846.09
416.99	3782.60
417.20	3688.39
417.41	3872.71
417.62	3858.37
417.83	3907.52
418.04	3913.67
418.26	3889.09
418.47	3839.94
418.68	3907.52
418.89	3942.34
419.10	4065.22
419.31	3966.92
419.52	3854.28
419.73	3934.15
419.95	4014.02
420.16	3893.19
420.37	4005.83
420.58	3942.34
420.79	3856.33
421.00	4014.02
421.21	4073.41
421.42	4040.64
421.63	4061.12
421.85	4079.55
422.06	4124.61
422.27	4071.36
422.48	4112.32
422.69	4200.38
422.90	4110.27
423.11	4198.34
423.32	4298.69
423.53	4343.74
423.75	4253.63
423.96	4409.28
424.17	4335.55
424.38	4462.52
424.59	4409.28
424.80	4603.83
425.01	4294.59
425.22	4181.95
425.43	4345.79
425.64	4480.96
425.85	4560.83
426.06	4554.68
426.28	4552.63
426.49	4491.20
426.70	4442.04
426.91	4550.59
427.12	4601.79
427.33	4544.44
427.54	4616.12
427.75	4634.55
427.96	4622.27
428.17	4777.91
428.38	4829.11
428.59	4775.86
428.80	4564.92
429.01	4812.73
429.23	4708.28
429.44	4816.82
429.65	4945.84
429.86	4870.07
430.07	4771.77
430.28	4626.36
430.49	4964.28
430.70	5083.06
430.91	5054.39
431.12	4859.83
431.33	5216.18
431.54	4960.18
431.75	5187.50
431.96	5066.67
432.17	4919.22
432.38	5066.67
432.59	5261.23
432.80	5181.36
433.01	5195.70
433.22	5253.04
433.43	5205.94
433.64	5281.71
433.85	5259.18
434.06	5416.88
434.27	5214.13
434.49	5380.01
434.70	5490.60
434.91	5334.96
435.12	5445.55
435.33	5306.29
435.54	5304.24
435.75	5175.22
435.96	5443.50
436.17	5394.35
436.38	5590.95
436.59	5574.57
436.80	5455.79
437.01	5693.35
437.22	5681.07
437.43	5611.43
437.64	5543.85
437.85	5719.98
438.06	5748.65
438.27	5545.90
438.48	5691.31
438.69	5754.79
438.90	5640.11
439.11	5625.77
439.32	5924.77
439.53	5767.08
439.74	5797.80
439.95	5898.15
440.16	5867.43
440.37	5814.18
440.57	5777.32
440.78	5973.92
440.99	6027.17
441.20	5908.39
441.41	5920.68
441.62	5894.05
441.83	5791.66
442.04	5928.87
442.25	6041.51
442.46	6025.12
442.67	6188.96
442.88	6365.09
443.09	6068.13
443.30	6068.13
443.51	6191.01
443.72	6481.82
443.93	6139.81
444.14	6377.37
444.35	6156.19
444.56	6473.63
444.77	6289.31
444.98	6377.37
445.19	6356.90
445.40	6229.92
445.61	6299.55
445.81	6582.17
446.02	6504.35
446.23	6397.85
446.44	6297.50
446.65	6496.16
446.86	6348.70
447.07	6483.87
447.28	6664.09
447.49	6541.21
447.70	6629.27
447.91	6623.13
448.12	6571.93
448.33	6735.77
448.54	6770.58
448.74	6616.99
448.95	6737.82
449.16	6664.09
449.37	7004.05
449.58	6676.38
449.79	7040.92
450.00	6784.92
450.21	6999.96
450.42	7047.06
450.63	7194.51
450.84	6748.06
451.05	6997.91
451.25	6862.74
451.46	6897.56
451.67	7116.69
451.88	7149.46
452.09	7122.84
452.30	7016.34
452.51	7096.21
452.72	7288.72
452.93	7563.15
453.13	7085.97
453.34	7034.77
453.55	7225.23
453.76	7137.17
453.97	7618.44
454.18	7288.72
454.39	7528.33
454.60	7448.46
454.81	7413.65
455.01	7681.93
455.22	7341.97
455.43	7663.50
455.64	7790.47
455.85	7866.25
456.06	7982.98
456.27	7874.44
456.48	7808.90
456.68	7894.92
456.89	7821.19
457.10	7966.60
457.31	7966.60
457.52	7982.98
457.73	7888.78
457.94	8226.69
458.14	7894.92
458.35	8359.81
458.56	8062.85
458.77	8202.11
458.98	8226.69
459.19	8150.92
459.39	8281.99
459.60	8189.83
459.81	8185.73
460.02	8529.79
460.23	8351.62
460.44	8544.13
460.65	8675.20
460.85	8793.98
461.06	8556.41
461.27	8548.22
461.48	8931.19
461.69	8986.49
461.89	8574.85
462.10	8822.65
462.31	8667.00
462.52	8732.54
462.73	8701.82
462.94	8961.91
463.14	9064.31
463.35	9172.85
463.56	9383.79
463.77	9322.35
463.98	9080.69
464.18	9152.37
464.39	9287.54
464.60	9383.79
464.81	9379.70
465.02	9326.45
465.23	9551.73
465.43	9586.54
465.64	9809.77
465.85	9697.13
466.06	9318.26
466.27	9901.93
466.47	9955.18
466.68	9805.67
466.89	9807.72
467.10	10141.54
467.30	9787.24
467.51	10082.15
467.72	10182.50
467.93	10035.05
468.14	10153.83
468.34	10499.94
468.55	10297.19
468.76	10321.76
468.97	10297.19
469.17	10563.42
469.38	10524.51
469.59	10850.14
469.80	10567.52
470.01	10624.86
470.21	10723.16
470.42	10829.66
470.63	10979.16
470.84	10825.56
471.04	10989.40
471.25	11009.88
471.46	10991.45
471.67	11210.58
471.87	11163.48
472.08	11472.72
472.29	11650.89
472.50	11306.84
472.70	11351.89
472.91	11446.10
473.12	11593.55
473.33	11495.25
473.53	12080.97
473.74	11702.09
473.95	12019.53
474.16	12144.45
474.36	12271.43
474.57	12216.13
474.78	12302.15
474.99	12189.51
475.19	12310.34
475.40	12470.08
475.61	12670.78
475.81	12711.74
476.02	12828.48
476.23	12769.09
476.44	12910.40
476.64	13170.49
476.85	13193.01
477.06	13254.45
477.27	13289.27
477.47	13545.27
477.68	13584.18
477.89	13616.94
478.09	13602.61
478.30	13760.30
478.51	13760.30
478.71	13823.79
478.92	13956.91
479.13	13993.77
479.34	14165.80
479.54	13997.87
479.75	14260.01
479.96	14239.53
480.16	14303.01
480.37	14571.30
480.58	14728.99
480.78	14796.57
480.99	14849.82
481.20	14827.29
481.41	15052.57
481.61	15300.37
481.82	15265.56
482.03	15105.82
482.23	15218.46
482.44	15621.91
482.65	15529.75
482.85	15611.67
483.06	15724.30
483.27	15830.80
483.47	15664.91
483.68	15937.29
483.89	16166.67
484.09	16131.85
484.30	16199.43
484.51	16660.23
484.71	16498.44
484.92	16690.95
485.13	16523.01
485.33	16895.74
485.54	16789.25
485.75	16881.41
485.95	17280.76
486.16	17147.64
486.37	17313.53
486.57	17241.85
486.78	17243.90
486.98	17243.90
487.19	17471.22
487.40	17893.10
487.60	17399.54
487.81	17843.95
488.02	17821.42
488.22	17762.03
488.43	18333.42
488.64	18349.80
488.84	18312.94
489.05	18331.37
489.25	18583.27
489.46	18536.17
489.67	18544.36
489.87	18609.89
490.08	18837.22
490.29	18743.01
490.49	19152.60
490.70	19211.99
490.90	19408.60
491.11	19179.23
491.32	19343.06
491.52	19394.26
491.73	19437.27
491.94	19578.58
492.14	19693.27
492.35	19853.01
492.55	20135.63
492.76	20039.37
492.97	20238.03
493.17	20172.49
493.38	20289.23
493.58	20657.86
493.79	20717.25
494.00	20342.47
494.20	20950.72
494.41	20854.47
494.61	20995.78
494.82	20782.79
495.02	20842.18
495.23	21266.11
495.44	21253.82
495.64	21253.82
495.85	21163.71
496.05	21499.58
496.26	21528.25
496.47	21790.39
496.67	21274.30
496.88	22091.44
497.08	21687.99
497.29	21999.28
497.49	21681.85
497.70	22126.25
497.91	22064.82
498.11	22507.18
498.32	22562.47
498.52	22595.24
498.73	22800.04
498.93	22732.45
499.14	22701.73
499.34	22861.48
499.55	23029.41
499.76	23072.42
499.96	23269.02
500.17	22941.35
500.37	23322.27
500.58	23033.50
500.78	23312.03
500.99	23703.19
501.19	23682.71
501.40	23355.04
501.60	23651.99
501.81	23674.52
502.02	23541.40
502.22	23402.14
502.43	23891.60
502.63	24258.19
502.84	23885.46
503.04	23916.18
503.25	24260.24
503.45	24034.96
503.66	24108.69
503.86	24157.84
504.07	24637.06
504.27	24225.42
504.48	24327.82
504.68	24899.20
504.89	24878.72
505.09	24833.67
505.30	24737.41
505.50	25024.13
505.71	24993.41
505.91	25001.60
506.12	25087.62
506.32	25157.25
506.53	25390.72
506.73	25337.47
506.94	25370.24
507.14	25497.21
507.35	25523.83
507.55	25597.56
507.76	25726.58
507.96	25538.17
508.17	25626.23
508.37	25773.69
508.58	25892.47
508.78	26003.06
508.99	26273.39
509.19	26121.84
509.40	26254.96
509.60	26197.62
509.81	26271.34
510.01	26031.73
510.22	26226.29
510.42	26134.13
510.63	26728.04
510.83	26267.25
511.04	26275.44
511.24	26734.18
511.44	26502.76
511.65	26564.20
511.85	26605.16
512.06	26938.98
512.26	26783.34
512.47	26994.28
512.67	26924.65
512.88	26975.84
513.08	26779.24
513.29	27070.05
513.49	27096.67
513.69	27139.68
513.90	27434.59
514.10	27127.39
514.31	27422.30
514.51	27340.38
514.72	27237.98
514.92	27414.11
515.13	27336.29
515.33	27276.90
515.53	27262.56
515.74	27831.90
515.94	27741.78
516.15	27981.40
516.35	27795.03
516.56	27901.53
516.76	27938.39
516.96	27983.44
517.17	27973.21
517.37	28051.03
517.58	28464.72
517.78	28124.75
517.99	28415.57
518.19	28474.96
518.39	28372.56
518.60	28651.08
518.80	28452.43
519.01	28491.34
519.21	28716.62
519.41	28438.09
519.62	28534.35
519.82	28573.26
520.03	28823.11
520.23	28859.98
520.43	29111.88
520.64	29556.28
520.84	29361.73
521.05	29132.36
521.25	29384.26
521.45	29480.51
521.66	29351.49
521.86	29316.67
522.07	29367.87
522.27	29419.07
522.47	29382.21
522.68	29898.30
522.88	29527.61
523.08	29867.58
523.29	29955.64
523.49	29967.93
523.70	29775.42
523.90	30268.98
524.10	29861.43
524.31	30166.58
524.51	30285.36
524.71	30570.03
524.92	30488.11
525.12	30477.87
525.33	30584.37
525.53	30684.72
525.73	30860.84
525.94	30400.05
526.14	30840.36
526.34	30864.94
526.55	30821.93
526.75	30895.66
526.95	31338.02
527.16	31170.08
527.36	31266.34
527.56	31428.13
527.77	31495.71
527.97	31362.59
528.17	31198.76
528.38	31686.17
528.58	31858.20
528.78	32149.01
528.99	31774.24
529.19	32151.06
529.39	31854.11
529.60	31866.39
529.80	32079.38
530.00	32249.36
530.21	32400.91
530.41	32304.66
530.61	32312.85
530.82	32601.61
531.02	32298.52
531.22	32716.30
531.43	32810.51
531.63	32806.41
531.83	33168.90
532.04	33263.11
532.24	32886.28
532.44	33490.43
532.64	33342.98
532.85	33668.61
533.05	33496.58
533.25	33515.01
533.46	33555.97
533.66	33783.29
533.86	33865.21
534.07	33865.21
534.27	34088.44
534.47	34117.11
534.67	34119.16
534.88	33732.09
535.08	34264.57
535.28	34332.15
535.49	34541.04
535.69	34813.42
535.89	34663.92
536.09	34393.59
536.30	35376.61
536.50	35128.81
536.70	35247.59
536.91	34909.68
537.11	35098.09
537.31	35550.69
537.51	35020.27
537.72	35646.94
537.92	35118.57
538.12	35648.99
538.32	35595.74
538.53	35773.92
538.73	35483.11
538.93	35665.38
539.13	35569.12
539.34	35937.76
539.54	35700.19
539.74	36357.59
539.94	36128.22
540.15	35904.99
540.35	36271.57
540.55	36236.76
540.75	36216.28
540.96	36537.81
541.16	36730.32
541.36	36597.20
541.56	36634.06
541.77	36980.17
541.97	36709.84
542.17	36621.78
542.37	36976.08
542.58	37213.64
542.78	37197.26
542.98	37213.64
543.18	36931.02
543.38	37731.78
543.59	37510.60
543.79	37451.20
543.99	37608.90
544.19	37354.95
544.40	37621.19
544.60	37850.56
544.80	37637.57
545.00	37414.34
545.20	38049.21
545.41	38092.22
545.61	38256.06
545.81	38159.80
546.01	38307.26
546.21	38110.65
546.42	37922.24
546.62	38278.58
546.82	38272.44
547.02	38421.94
547.22	38878.64
547.43	38577.59
547.63	38985.13
547.83	38614.45
548.03	38731.18
548.23	38958.51
548.44	38886.83
548.64	39101.87
548.84	39429.54
549.04	38989.23
549.24	39378.34
549.45	39347.62
549.65	38884.78
549.85	38886.83
550.05	39626.15
550.25	38913.45
550.45	39835.04
550.66	39642.53
550.86	39288.23
551.06	39554.47
551.26	39935.39
551.46	39826.85
551.66	39605.67
551.87	39998.88
552.07	39912.86
552.27	40048.03
552.47	39902.62
552.67	39929.25
552.87	40332.70
553.07	40310.17
553.28	40258.97
553.48	40347.03
553.68	40594.84
553.88	41016.72
554.08	40510.87
554.28	40637.84
554.48	40463.77
554.69	40594.84
554.89	41076.11
555.09	40777.11
555.29	40355.22
555.49	40904.08
555.69	40723.86
555.89	40899.98
556.10	41426.31
556.30	40777.11
556.50	41321.87
556.70	40920.46
556.90	41592.20
557.10	41602.44
557.30	41051.53
557.50	41262.47
557.70	41289.10
557.91	41776.51
558.11	41383.30
558.31	41596.29
558.51	41371.02
558.71	41725.32
558.91	41864.58
559.11	41866.63
559.31	41547.14
559.51	41528.71
559.72	41944.45
559.92	42145.15
560.12	41854.34
560.32	41987.46
560.52	41598.34
560.72	42089.85
560.92	41899.39
561.12	42425.72
561.32	42597.75
561.52	41964.93
561.72	42646.90
561.93	41858.43
562.13	42196.35
562.33	42206.59
562.53	42849.65
562.73	42771.83
562.93	42952.05
563.13	42626.42
563.33	42712.44
563.53	42620.28
563.73	42632.57
563.93	42976.62
564.13	42976.62
564.33	43140.46
564.53	42741.11
564.74	43302.25
564.94	42798.45
565.14	42968.43
565.34	43230.57
565.54	42694.00
565.74	43554.15
565.94	44053.86
566.14	43232.62
566.34	42767.73
566.54	43740.52
566.74	43269.48
566.94	43664.74
567.14	43816.29
567.34	43543.91
567.54	43746.66
567.74	43892.07
567.94	44051.81
568.14	44186.97
568.34	44176.73
568.54	43967.84
568.74	43916.64
568.94	43859.30
569.14	44152.16
569.34	43855.20
569.54	44307.80
569.75	43447.66
569.95	44254.56
570.15	44670.29
570.35	44666.20
570.55	44168.54
570.75	44619.10
570.95	44316.00
571.15	44629.34
571.35	44965.20
571.55	44778.84
571.75	44895.57
571.95	44836.18
572.15	44770.64
572.35	44658.01
572.55	44711.25
572.75	44950.87
572.95	45139.28
573.15	45161.81
573.35	45061.46
573.55	44877.14
573.75	45358.41
573.95	45126.99
574.15	45405.52
574.35	45491.53
574.55	45210.96
574.75	45694.28
574.95	45602.12
575.15	45374.80
575.34	45583.69
575.54	45729.09
575.74	45901.12
575.94	46134.59
576.14	45630.79
576.34	46161.22
576.54	46177.60
576.74	46261.57
576.94	46292.29
577.14	46398.78
577.34	46540.09
577.54	46265.66
577.74	46286.14
577.94	46413.12
578.14	46835.00
578.34	46662.97
578.54	46314.81
578.74	46507.32
578.94	46703.93
579.14	46243.13
579.34	46419.26
579.54	46654.78
579.74	47314.22
579.94	46814.52
580.13	47406.38
580.33	46986.55
580.53	47232.30
580.73	47095.09
580.93	47269.17
581.13	47336.75
581.33	47637.80
581.53	47627.56
581.73	47529.26
581.93	48061.73
582.13	48039.20
582.33	47893.80
582.53	47762.73
582.73	47693.10
582.92	47858.98
583.12	48002.34
583.32	47908.13
583.52	47705.38
583.72	48581.91
583.92	47988.00
584.12	47988.00
584.32	48749.85
584.52	48147.75
584.72	48522.52
584.92	48592.15
585.11	48618.78
585.31	48092.45
585.51	48477.47
585.71	48467.23
585.91	48747.80
586.11	48583.96
586.31	48641.31
586.51	48393.50
586.71	49161.49
586.91	48928.02
587.10	48985.36
587.30	48940.31
587.50	49110.29
587.70	49339.66
587.90	49566.99
588.10	49413.39
588.30	48915.73
588.50	49575.18
