SpectraSuite Data File
++++++++++++++++++++++++++++++++++++
Date: Fri Jun 02 14:57:21 CEST 2017
User: INFO_000
Dark Spectrum Present: No
Reference Spectrum Present: No
Number of Sampled Component Spectra: 1
Spectrometers: USB4H00879
Integration Time (usec): 80000 (USB4H00879)
Spectra Averaged: 1 (USB4H00879)
Boxcar Smoothing: 0 (USB4H00879)
Correct for Electrical Dark: No (USB4H00879)
Strobe/Lamp Enabled: No (USB4H00879)
Correct for Detector Non-linearity: No (USB4H00879)
Correct for Stray Light: No (USB4H00879)
Number of Pixels in Processed Spectrum: 3648
>>>>>Begin Processed Spectral Data<<<<<
345.13	1284.08
345.34	1284.08
345.56	1284.08
345.78	1310.70
345.99	1335.28
346.21	1675.24
346.42	1716.20
346.64	1767.40
346.86	1806.31
347.07	1585.13
347.29	1679.33
347.50	1675.24
347.72	1753.06
347.94	1710.05
348.15	1591.27
348.37	1638.38
348.59	1693.67
348.80	1634.28
349.02	1785.83
349.23	1781.73
349.45	1920.99
349.67	1947.62
349.88	1759.21
350.10	1972.19
350.31	1851.36
350.53	1812.45
350.75	1972.19
350.96	1773.54
351.18	1908.71
351.39	1796.07
351.61	1873.89
351.82	1863.65
352.04	1900.52
352.26	1798.12
352.47	1875.94
352.69	1828.84
352.90	1779.68
353.12	1841.12
353.34	1886.18
353.55	1951.71
353.77	1914.85
353.98	1822.69
354.20	1810.40
354.41	1943.52
354.63	1953.76
354.85	1976.29
355.06	1966.05
355.28	1810.40
355.49	1875.94
355.71	1875.94
355.92	1826.79
356.14	1968.10
356.35	1834.98
356.57	1886.18
356.79	1968.10
357.00	1875.94
357.22	1937.38
357.43	1902.56
357.65	2000.87
357.86	1910.75
358.08	1902.56
358.29	1941.47
358.51	2027.49
358.72	1947.62
358.94	1949.67
359.16	1920.99
359.37	1943.52
359.59	1914.85
359.80	2050.02
360.02	1920.99
360.23	1945.57
360.45	2025.44
360.66	1896.42
360.88	1918.95
361.09	1931.23
361.31	1875.94
361.52	1986.53
361.74	2015.20
361.95	1996.77
362.17	1957.86
362.38	2093.02
362.60	1970.15
362.81	2011.11
363.03	1884.13
363.24	2021.35
363.46	2101.22
363.67	2000.87
363.89	1943.52
364.10	2021.35
364.32	1976.29
364.53	2074.59
364.75	1914.85
364.96	2033.63
365.18	2013.15
365.39	2027.49
365.61	2043.87
365.82	2060.26
366.04	1980.39
366.25	2033.63
366.47	2009.06
366.68	2002.91
366.90	1961.95
367.11	2066.40
367.33	2142.18
367.54	2097.12
367.76	2058.21
367.97	2097.12
368.19	2060.26
368.40	2109.41
368.62	2025.44
368.83	2000.87
369.05	2101.22
369.26	2047.97
369.48	2060.26
369.69	1959.91
369.91	2121.70
370.12	2047.97
370.33	2086.88
370.55	1990.63
370.76	2039.78
370.98	2156.51
371.19	2037.73
371.41	2023.39
371.62	2039.78
371.84	1974.24
372.05	2199.52
372.27	2054.11
372.48	2138.08
372.69	2088.93
372.91	2164.70
373.12	2236.38
373.34	2050.02
373.55	2125.79
373.77	2172.89
373.98	2125.79
374.20	2181.09
374.41	2252.77
374.62	2117.60
374.84	2256.86
375.05	2248.67
375.27	2181.09
375.48	2187.23
375.70	2207.71
375.91	2244.57
376.12	2308.06
376.34	2254.81
376.55	2123.74
376.77	2260.96
376.98	2150.37
377.19	2131.94
377.41	2195.42
377.62	2228.19
377.84	2322.40
378.05	2346.97
378.27	2228.19
378.48	2338.78
378.69	2367.45
378.91	2244.57
379.12	2269.15
379.34	2236.38
379.55	2285.53
379.76	2303.96
379.98	2238.43
380.19	2297.82
380.41	2199.52
380.62	2330.59
380.83	2289.63
381.05	2199.52
381.26	2412.51
381.47	2269.15
381.69	2308.06
381.90	2422.75
382.12	2252.77
382.33	2287.58
382.54	2222.05
382.76	2314.20
382.97	2322.40
383.19	2217.95
383.40	2457.56
383.61	2271.20
383.83	2310.11
384.04	2439.13
384.25	2461.66
384.47	2402.27
384.68	2336.73
384.89	2371.55
385.11	2232.29
385.32	2426.84
385.54	2379.74
385.75	2363.36
385.96	2406.36
386.18	2457.56
386.39	2469.85
386.60	2346.97
386.82	2478.04
387.03	2439.13
387.24	2475.99
387.46	2426.84
387.67	2502.62
387.88	2492.38
388.10	2453.47
388.31	2457.56
388.52	2590.68
388.74	2521.05
388.95	2443.23
389.16	2510.81
389.38	2617.30
389.59	2559.96
389.80	2639.83
390.02	2559.96
390.23	2635.74
390.44	2576.34
390.66	2568.15
390.87	2502.62
391.08	2584.54
391.30	2725.85
391.51	2668.50
391.72	2641.88
391.94	2719.70
392.15	2598.87
392.36	2613.21
392.58	2598.87
392.79	2652.12
393.00	2666.46
393.22	2645.98
393.43	2813.91
393.64	2738.13
393.85	2828.24
394.07	2678.74
394.28	2549.72
394.49	2752.47
394.71	2820.05
394.92	2783.19
395.13	2758.61
395.35	2615.26
395.56	2725.85
395.77	2828.24
395.98	2844.63
396.20	2879.44
396.41	2879.44
396.62	2883.54
396.84	2805.72
397.05	2811.86
397.26	2861.01
397.47	2967.51
397.69	2672.60
397.90	2983.89
398.11	2967.51
398.32	2994.13
398.54	2904.02
398.75	2906.07
398.96	2942.93
399.18	3110.86
399.39	2930.64
399.60	2961.36
399.81	2920.40
400.03	2918.36
400.24	3233.74
400.45	2940.88
400.66	3033.04
400.88	2895.83
401.09	3151.82
401.30	2965.46
401.51	3205.07
401.73	3086.29
401.94	3057.62
402.15	3139.54
402.36	3063.76
402.58	3153.87
402.79	3190.74
403.00	3221.45
403.21	3192.78
403.43	3213.26
403.64	3284.94
403.85	3092.43
404.06	3188.69
404.27	3209.17
404.49	3211.22
404.70	3166.16
404.91	3254.22
405.12	3192.78
405.34	3190.74
405.55	3377.10
405.76	3149.78
405.97	3260.37
406.19	3340.24
406.40	3258.32
406.61	3186.64
406.82	3346.38
407.03	3237.84
407.25	3307.47
407.46	3416.01
407.67	3383.24
407.88	3375.05
408.09	3348.43
408.31	3377.10
408.52	3379.15
408.73	3375.05
408.94	3383.24
409.15	3538.89
409.37	3520.46
409.58	3436.49
409.79	3497.93
410.00	3467.21
410.21	3405.77
410.43	3567.56
410.64	3401.68
410.85	3493.83
411.06	3583.95
411.27	3553.23
411.48	3567.56
411.70	3526.60
411.91	3542.99
412.12	3704.78
412.33	3665.86
412.54	3510.22
412.76	3712.97
412.97	3592.14
413.18	3481.55
413.39	3647.43
413.60	3755.97
413.81	3805.13
414.03	3739.59
414.24	3651.53
414.45	3829.70
414.66	3561.42
414.87	3731.40
415.08	3764.17
415.30	3690.44
415.51	3698.63
415.72	3747.78
415.93	3678.15
416.14	3704.78
416.35	3790.79
416.56	3848.13
416.78	3815.37
416.99	3911.62
417.20	3835.85
417.41	3977.16
417.62	3837.89
417.83	4040.64
418.04	3835.85
418.26	4061.12
418.47	3899.33
418.68	3958.72
418.89	3850.18
419.10	4083.65
419.31	4093.89
419.52	4102.08
419.73	3942.34
419.95	4171.71
420.16	3841.99
420.37	4009.92
420.58	4079.55
420.79	3948.48
421.00	4130.75
421.21	4190.14
421.42	4030.40
421.63	4229.06
421.85	4204.48
422.06	4175.81
422.27	4120.51
422.48	4138.94
422.69	4308.93
422.90	4153.28
423.11	4321.21
423.32	4347.84
423.53	4376.51
423.75	4298.69
423.96	4521.92
424.17	4435.90
424.38	4499.39
424.59	4378.56
424.80	4511.68
425.01	4456.38
425.22	4333.50
425.43	4370.37
425.64	4743.10
425.85	4767.67
426.06	4671.42
426.28	4616.12
426.49	4483.00
426.70	4556.73
426.91	4712.38
427.12	4771.77
427.33	4718.52
427.54	4581.31
427.75	4820.92
427.96	4886.45
428.17	4800.44
428.38	4777.91
428.59	4894.65
428.80	4849.59
429.01	4913.08
429.23	4708.28
429.44	5052.34
429.65	5013.43
429.86	4954.04
430.07	4808.63
430.28	4908.98
430.49	4841.40
430.70	5175.22
430.91	5072.82
431.12	4968.37
431.33	5240.75
431.54	5101.49
431.75	5113.78
431.96	4974.52
432.17	5324.72
432.38	5001.14
432.59	5302.19
432.80	5298.10
433.01	5427.12
433.22	5404.59
433.43	5271.47
433.64	5193.65
433.85	5322.67
434.06	5369.77
434.27	5255.09
434.49	5392.30
434.70	5468.08
434.91	5398.45
435.12	5638.06
435.33	5476.27
435.54	5433.26
435.75	5402.54
435.96	5439.40
436.17	5468.08
436.38	5523.37
436.59	5695.40
436.80	5541.80
437.01	5717.93
437.22	5779.37
437.43	5644.20
437.64	5494.70
437.85	5785.51
438.06	5664.68
438.27	5734.31
438.48	5574.57
438.69	5812.14
438.90	5844.90
439.11	5672.87
439.32	5869.48
439.53	5816.23
439.74	5805.99
439.95	5916.58
440.16	5830.57
440.37	5881.77
440.57	5885.86
440.78	5824.42
440.99	6008.74
441.20	5975.97
441.41	5842.85
441.62	5922.73
441.83	5838.76
442.04	6035.36
442.25	5935.01
442.46	5957.54
442.67	6098.85
442.88	6551.45
443.09	6070.18
443.30	6098.85
443.51	6256.54
443.72	6434.72
443.93	6125.47
444.14	6442.91
444.35	6133.67
444.56	6381.47
444.77	6367.13
444.98	6580.12
445.19	6303.65
445.40	6324.13
445.61	6430.62
445.81	6449.05
446.02	6406.05
446.23	6510.49
446.44	6430.62
446.65	6512.54
446.86	6481.82
447.07	6623.13
447.28	6604.70
447.49	6631.32
447.70	6635.42
447.91	6668.19
448.12	6567.84
448.33	6688.67
448.54	6664.09
448.74	6533.02
448.95	6672.28
449.16	6674.33
449.37	6959.00
449.58	6760.34
449.79	6948.76
450.00	6827.93
450.21	6983.57
450.42	7169.94
450.63	6909.85
450.84	6803.35
451.05	6915.99
451.25	7131.03
451.46	6893.46
451.67	6975.38
451.88	7264.15
452.09	7131.03
452.30	7161.75
452.51	6956.95
452.72	7325.58
452.93	7495.57
453.13	7167.89
453.34	7128.98
453.55	7260.05
453.76	7231.38
453.97	7667.60
454.18	7174.03
454.39	7528.33
454.60	7393.17
454.81	7501.71
455.01	7509.90
455.22	7258.00
455.43	7507.85
455.64	7724.94
455.85	7831.43
456.06	7948.17
456.27	7645.07
456.48	7532.43
456.68	7776.14
456.89	7860.10
457.10	8007.56
457.31	7794.57
457.52	7894.92
457.73	8007.56
457.94	8191.88
458.14	7925.64
458.35	8314.75
458.56	8103.81
458.77	8122.24
458.98	8265.60
459.19	8236.93
459.39	8198.02
459.60	8320.90
459.81	8257.41
460.02	8472.45
460.23	8355.71
460.44	8613.76
460.65	8546.17
460.85	8707.96
461.06	8675.20
461.27	8370.05
461.48	8779.64
461.69	8890.23
461.89	8548.22
462.10	8859.51
462.31	8662.91
462.52	8707.96
462.73	8857.46
462.94	9156.47
463.14	9097.08
463.35	9072.50
463.56	9326.45
463.77	9293.68
463.98	9168.76
464.18	9105.27
464.39	9535.34
464.60	9678.70
464.81	9310.07
465.02	9494.38
465.23	9836.39
465.43	9842.54
465.64	9658.22
465.85	9695.08
466.06	9779.05
466.27	9940.84
466.47	10080.10
466.68	9920.36
466.89	10049.38
467.10	10065.77
467.30	9797.48
467.51	10155.88
467.72	10422.11
467.93	10059.62
468.14	10291.04
468.34	10551.14
468.55	10477.41
468.76	10354.53
468.97	10256.23
469.17	10676.06
469.38	10674.01
469.59	10858.33
469.80	10522.46
470.01	10624.86
470.21	10866.52
470.42	11073.37
470.63	11159.38
470.84	11050.84
471.04	11104.09
471.25	11251.54
471.46	11173.72
471.67	11646.80
471.87	11308.88
472.08	11468.62
472.29	11849.55
472.50	11509.58
472.70	11681.61
472.91	11724.62
473.12	11898.70
473.33	11882.31
473.53	12214.09
473.74	11984.71
473.95	12195.65
474.16	12605.25
474.36	12293.96
474.57	12369.73
474.78	12623.68
474.99	12373.83
475.19	12363.59
475.40	12734.27
475.61	12683.07
475.81	12973.88
476.02	13119.29
476.23	12840.76
476.44	12959.55
476.64	13315.89
476.85	13526.83
477.06	13248.31
477.27	13711.15
477.47	13821.74
477.68	13653.81
477.89	13872.94
478.09	13860.65
478.30	13885.23
478.51	14280.49
478.71	14288.68
478.92	14182.18
479.13	14520.10
479.34	14372.64
479.54	14589.73
479.75	14714.66
479.96	14882.59
480.16	14925.60
480.37	14882.59
480.58	14860.06
480.78	15337.24
480.99	15060.76
481.20	15234.84
481.41	15367.96
481.61	15599.38
481.82	15853.33
482.03	15769.36
482.23	15679.25
482.44	15957.77
482.65	16148.23
482.85	16123.66
483.06	15898.38
483.27	16051.98
483.47	16152.33
483.68	16226.06
483.89	16545.54
484.09	16348.93
484.30	16463.62
484.51	16768.77
484.71	16785.15
484.92	16983.80
485.13	16983.80
485.33	17123.07
485.54	17250.04
485.75	17442.55
485.95	17665.78
486.16	17444.60
486.37	17526.52
486.57	17483.51
486.78	17506.04
486.98	17876.72
487.19	17991.41
487.40	18024.17
487.60	17901.29
487.81	18370.28
488.02	18026.22
488.22	18218.73
488.43	18417.38
488.64	18386.66
488.84	18585.32
489.05	18730.72
489.25	18779.87
489.46	18749.15
489.67	18857.70
489.87	19134.17
490.08	19091.16
490.29	19156.70
490.49	19488.47
490.70	19556.05
490.90	19683.03
491.11	19455.70
491.32	19652.31
491.52	20121.29
491.73	19783.38
491.94	20102.86
492.14	19898.06
492.35	20309.71
492.55	19855.06
492.76	20313.80
492.97	20326.09
493.17	20459.21
493.38	20598.47
493.58	20721.35
493.79	20862.66
494.00	20702.92
494.20	20928.19
494.41	21020.35
494.61	21104.32
494.82	21102.27
495.02	21204.67
495.23	21442.23
495.44	21251.77
495.64	21470.90
495.85	21550.78
496.05	21687.99
496.26	21591.73
496.47	21958.32
496.67	21771.96
496.88	22126.25
497.08	21659.32
497.29	22443.69
497.49	22116.01
497.70	22056.62
497.91	22412.97
498.11	22550.18
498.32	22505.13
498.52	22476.46
498.73	22795.94
498.93	22621.86
499.14	22990.50
499.34	22945.44
499.55	22957.73
499.76	23111.33
499.96	23277.21
500.17	22847.14
500.37	23232.16
500.58	23178.91
500.78	23408.28
500.99	23570.07
501.19	23451.29
501.40	23744.15
501.60	23527.06
501.81	23477.91
502.02	23785.11
502.22	23412.38
502.43	23940.75
502.63	23701.14
502.84	24284.81
503.04	24024.72
503.25	24080.02
503.45	24430.22
503.66	24338.06
503.86	24239.76
504.07	24489.61
504.27	24462.99
504.48	24655.50
504.68	24661.64
504.89	25233.02
505.09	25079.43
505.30	24792.71
505.50	24966.79
505.71	25030.27
505.91	25054.85
506.12	25259.65
506.32	24802.95
506.53	24956.55
506.73	25390.72
506.94	25366.14
507.14	25339.52
507.35	25507.45
507.55	25370.24
507.76	25654.90
507.96	25679.48
508.17	25767.54
508.37	25687.67
508.58	25904.76
508.78	25833.08
508.99	26070.64
509.19	25939.57
509.40	26252.91
509.60	26060.40
509.81	26187.38
510.01	26168.94
510.22	26205.81
510.42	26168.94
510.63	26170.99
510.83	26201.71
511.04	26193.52
511.24	26465.90
511.44	26465.90
511.65	26338.93
511.85	26494.57
512.06	26943.08
512.26	26482.28
512.47	26752.62
512.67	26795.62
512.88	26814.05
513.08	26713.70
513.29	27047.52
513.49	27016.80
513.69	27123.30
513.90	27205.22
514.10	27283.04
514.31	27246.18
514.51	27164.26
514.72	27358.81
514.92	27510.36
515.13	27364.96
515.33	27643.48
515.53	27598.43
515.74	27586.14
515.94	27868.76
516.15	27897.43
516.35	27405.92
516.56	27690.59
516.76	27518.56
516.96	27934.29
517.17	28102.23
517.37	28051.03
517.58	28067.41
517.78	28153.43
517.99	28374.61
518.19	28223.06
518.39	28501.58
518.60	28462.67
518.80	28253.78
519.01	28565.07
519.21	28554.83
519.41	28509.77
519.62	28354.13
519.82	29093.44
520.03	28870.22
520.23	28937.80
520.43	28876.36
520.64	29111.88
520.84	29132.36
521.05	28935.75
521.25	29470.27
521.45	29531.71
521.66	29781.56
521.86	29011.53
522.07	29320.77
522.27	29089.35
522.47	29541.95
522.68	30021.17
522.88	29881.91
523.08	30076.47
523.29	29888.06
523.49	30230.07
523.70	30101.04
523.90	30387.76
524.10	30299.70
524.31	30606.89
524.51	30076.47
524.71	30783.02
524.92	30387.76
525.12	30789.16
525.33	30428.72
525.53	31108.65
525.73	31112.74
525.94	31047.21
526.14	30955.05
526.34	30893.61
526.55	30979.62
526.75	31139.36
526.95	31645.21
527.16	31274.53
527.36	31039.01
527.56	31532.57
527.77	31839.77
527.97	31860.25
528.17	31493.66
528.38	32044.57
528.58	31987.22
528.78	31987.22
528.99	32089.62
529.19	32181.78
529.39	32284.18
529.60	32374.29
529.80	32415.25
530.00	32226.84
530.21	32364.05
530.41	32650.77
530.61	32736.78
530.82	32603.66
531.02	32955.91
531.22	32880.14
531.43	33078.79
531.63	33320.45
531.83	33357.32
532.04	33807.87
532.24	33562.11
532.44	33850.88
532.64	33691.13
532.85	33949.18
533.05	34108.92
533.25	34039.29
533.46	33850.88
533.66	34538.99
533.86	34309.62
534.07	34645.49
534.27	34354.68
534.47	34764.27
534.67	34727.41
534.88	34944.49
535.08	34674.16
535.28	35153.38
535.49	34885.10
535.69	35171.82
535.89	35231.21
536.09	35360.23
536.30	35266.02
536.50	35702.24
536.70	35991.00
536.91	35337.70
537.11	35665.38
537.31	36011.48
537.51	35982.81
537.72	36386.26
537.92	36126.17
538.12	36296.15
538.32	36333.01
538.53	36365.78
538.73	36163.03
538.93	36533.71
539.13	36447.70
539.34	36177.37
539.54	36476.37
539.74	37205.45
539.94	36900.30
540.15	36722.13
540.35	37041.61
540.55	37127.63
540.75	37400.01
540.96	37299.65
541.16	37354.95
541.36	37361.09
541.56	37664.19
541.77	37860.80
541.97	37877.18
542.17	37696.96
542.37	37610.95
542.58	37840.32
542.78	37686.72
542.98	37977.53
543.18	38098.36
543.38	38436.28
543.59	38243.77
543.79	37782.98
543.99	38254.01
544.19	38565.30
544.40	38366.65
544.60	38696.37
544.80	38426.04
545.00	38692.27
545.20	38958.51
545.41	38622.64
545.61	39024.04
545.81	39216.55
546.01	39140.78
546.21	38712.75
546.42	39148.97
546.62	39116.20
546.82	39144.87
547.02	39503.27
547.22	39005.61
547.43	39353.77
547.63	39458.21
547.83	39441.83
548.03	39630.24
548.23	40230.30
548.44	39921.05
548.64	40039.84
548.84	40088.99
549.04	40068.51
549.24	40357.27
549.45	40160.67
549.65	40297.88
549.85	39914.91
550.05	40199.58
550.25	40189.34
550.45	40564.12
550.66	40140.19
550.86	40605.08
551.06	40568.21
551.26	40527.25
551.46	40758.67
551.66	40736.15
551.87	40631.70
552.07	40975.76
552.27	41239.95
552.47	40719.76
552.67	40785.30
552.87	41065.87
553.07	40738.19
553.28	41168.27
553.48	40951.18
553.68	41010.57
553.88	41624.96
554.08	41321.87
554.28	41227.66
554.48	41133.45
554.69	41526.66
554.89	41325.96
555.09	41270.67
555.29	41389.45
555.49	42104.19
555.69	41694.60
555.89	41528.71
556.10	42112.38
556.30	41506.18
556.50	41883.01
556.70	41784.71
556.90	42253.69
557.10	42020.22
557.30	42071.42
557.50	42417.53
557.70	42440.06
557.91	42354.04
558.11	42259.84
558.31	42470.78
558.51	42196.35
558.71	42405.24
558.91	42618.23
559.11	42317.18
559.31	42272.12
559.51	42259.84
559.72	42663.28
559.92	42739.06
560.12	43066.73
560.32	42863.99
560.52	42579.32
560.72	42669.43
560.92	42616.18
561.12	43165.04
561.32	42980.72
561.52	42294.65
561.72	43488.62
561.93	42796.40
562.13	42845.55
562.33	42892.66
562.53	43580.78
562.73	42675.57
562.93	43025.78
563.13	43427.18
563.33	43212.14
563.53	43400.55
563.73	43101.55
563.93	43863.39
564.13	43842.92
564.33	43386.22
564.53	43674.98
564.74	43877.73
564.94	43480.42
565.14	43715.94
565.34	43382.12
565.54	44098.91
565.74	43871.59
565.94	44252.51
566.14	43689.32
566.34	43701.61
566.54	44445.02
566.74	43591.01
566.94	43865.44
567.14	44365.15
567.34	43599.21
567.54	44508.50
567.74	43865.44
567.94	44066.14
568.14	44537.18
568.34	44684.63
568.54	44006.75
568.74	44461.40
568.94	44617.05
569.14	44645.72
569.34	44334.43
569.54	44658.01
569.75	44238.17
569.95	44563.80
570.15	44758.36
570.35	44559.70
570.55	44459.35
570.75	44776.79
570.95	44885.33
571.15	44997.97
571.35	45098.32
571.55	44780.88
571.75	44655.96
571.95	45020.50
572.15	45030.74
572.35	44862.80
572.55	44854.61
572.75	45172.05
572.95	44975.44
573.15	45043.02
573.35	45014.35
573.55	45120.85
573.75	45389.13
573.95	45260.11
574.15	45174.09
574.35	45491.53
574.55	45301.07
574.75	45458.76
574.95	45579.59
575.15	45569.35
575.34	45430.09
575.54	45880.64
575.74	46062.91
575.94	46007.62
576.14	45520.20
576.34	46511.42
576.54	46083.39
576.74	45991.23
576.94	45950.27
577.14	46378.30
577.34	46363.96
577.54	46028.10
577.74	46320.96
577.94	46171.46
578.14	46265.66
578.34	46581.05
578.54	45645.13
578.74	46310.72
578.94	46765.37
579.14	46607.67
579.34	46896.44
579.54	46511.42
579.74	47043.89
579.94	46740.79
580.13	46697.78
580.33	46593.34
580.53	47123.76
580.73	47029.55
580.93	47226.16
581.13	46882.10
581.33	47371.57
581.53	47336.75
581.73	47371.57
581.93	47645.99
582.13	47514.92
582.33	47699.24
582.53	47471.92
582.73	47682.86
582.92	47570.22
583.12	47717.67
583.32	47490.35
583.52	47326.51
583.72	47875.37
583.92	47664.42
584.12	47854.89
584.32	48334.11
584.52	48041.25
584.72	47799.59
584.92	48315.68
585.11	48340.25
585.31	48248.10
585.51	48260.38
585.71	48000.29
585.91	48284.96
586.11	48272.67
586.31	48162.08
586.51	48039.20
586.71	48330.01
586.91	48715.03
587.10	48633.11
587.30	49120.53
587.50	48532.76
587.70	48459.04
587.90	48633.11
588.10	48616.73
588.30	48788.76
588.50	48817.43
