SpectraSuite Data File
++++++++++++++++++++++++++++++++++++
Date: Fri Jun 02 14:57:19 CEST 2017
User: INFO_000
Dark Spectrum Present: No
Reference Spectrum Present: No
Number of Sampled Component Spectra: 1
Spectrometers: USB4H00879
Integration Time (usec): 80000 (USB4H00879)
Spectra Averaged: 1 (USB4H00879)
Boxcar Smoothing: 0 (USB4H00879)
Correct for Electrical Dark: No (USB4H00879)
Strobe/Lamp Enabled: No (USB4H00879)
Correct for Detector Non-linearity: No (USB4H00879)
Correct for Stray Light: No (USB4H00879)
Number of Pixels in Processed Spectrum: 3648
>>>>>Begin Processed Spectral Data<<<<<
345.13	1243.12
345.34	1243.12
345.56	1243.12
345.78	1239.02
345.99	1304.56
346.21	1667.05
346.42	1691.62
346.64	1607.66
346.86	1812.45
347.07	1687.53
347.29	1728.49
347.50	1624.04
347.72	1642.47
347.94	1744.87
348.15	1564.65
348.37	1632.23
348.59	1601.51
348.80	1699.81
349.02	1767.40
349.23	1898.47
349.45	1828.84
349.67	1900.52
349.88	1791.97
350.10	1986.53
350.31	1961.95
350.53	1816.55
350.75	1959.91
350.96	1742.82
351.18	1888.23
351.39	1925.09
351.61	1787.88
351.82	1925.09
352.04	1900.52
352.26	1904.61
352.47	1890.28
352.69	1984.48
352.90	1738.73
353.12	1863.65
353.34	1832.93
353.55	1994.72
353.77	1914.85
353.98	1894.37
354.20	1816.55
354.41	1902.56
354.63	1941.47
354.85	1986.53
355.06	1957.86
355.28	1738.73
355.49	1904.61
355.71	1929.19
355.92	1845.22
356.14	1947.62
356.35	1785.83
356.57	1847.27
356.79	1912.80
357.00	1869.80
357.22	2031.58
357.43	1920.99
357.65	1964.00
357.86	1853.41
358.08	1867.75
358.29	1894.37
358.51	1982.43
358.72	1994.72
358.94	1998.82
359.16	1976.29
359.37	2025.44
359.59	1957.86
359.80	1964.00
360.02	1964.00
360.23	1984.48
360.45	1980.39
360.66	1880.04
360.88	1955.81
361.09	1964.00
361.31	1892.32
361.52	1990.63
361.74	2062.30
361.95	2025.44
362.17	1910.75
362.38	2035.68
362.60	1953.76
362.81	1910.75
363.03	1918.95
363.24	1925.09
363.46	2154.46
363.67	2050.02
363.89	1939.43
364.10	1937.38
364.32	1978.34
364.53	2039.78
364.75	1982.43
364.96	1994.72
365.18	1941.47
365.39	2031.58
365.61	1957.86
365.82	2105.31
366.04	2041.82
366.25	1964.00
366.47	1978.34
366.68	2009.06
366.90	1978.34
367.11	2035.68
367.33	2109.41
367.54	2119.65
367.76	2007.01
367.97	2062.30
368.19	2105.31
368.40	2054.11
368.62	1994.72
368.83	1982.43
369.05	2027.49
369.26	1980.39
369.48	1935.33
369.69	2076.64
369.91	2060.26
370.12	1949.67
370.33	2154.46
370.55	1984.48
370.76	2060.26
370.98	2097.12
371.19	2088.93
371.41	2101.22
371.62	2058.21
371.84	2050.02
372.05	2148.32
372.27	2090.98
372.48	2043.87
372.69	2136.03
372.91	2170.85
373.12	2138.08
373.34	2191.33
373.55	2174.94
373.77	2099.17
373.98	2076.64
374.20	2174.94
374.41	2244.57
374.62	2080.74
374.84	2136.03
375.05	2207.71
375.27	2164.70
375.48	2203.61
375.70	2123.74
375.91	2207.71
376.12	2271.20
376.34	2199.52
376.55	2246.62
376.77	2148.32
376.98	2056.16
377.19	2158.56
377.41	2099.17
377.62	2158.56
377.84	2244.57
378.05	2355.16
378.27	2168.80
378.48	2303.96
378.69	2308.06
378.91	2203.61
379.12	2213.85
379.34	2191.33
379.55	2285.53
379.76	2230.24
379.98	2236.38
380.19	2269.15
380.41	2271.20
380.62	2279.39
380.83	2269.15
381.05	2250.72
381.26	2377.69
381.47	2336.73
381.69	2252.77
381.90	2394.08
382.12	2320.35
382.33	2242.53
382.54	2349.02
382.76	2295.77
382.97	2375.64
383.19	2240.48
383.40	2408.41
383.61	2394.08
383.83	2234.33
384.04	2328.54
384.25	2398.17
384.47	2361.31
384.68	2367.45
384.89	2332.64
385.11	2359.26
385.32	2398.17
385.54	2375.64
385.75	2275.29
385.96	2414.56
386.18	2416.60
386.39	2455.51
386.60	2394.08
386.82	2396.12
387.03	2412.51
387.24	2490.33
387.46	2504.67
387.67	2449.37
387.88	2541.53
388.10	2471.90
388.31	2537.43
388.52	2596.82
388.74	2461.66
388.95	2508.76
389.16	2568.15
389.38	2570.20
389.59	2562.01
389.80	2748.37
390.02	2486.23
390.23	2695.13
390.44	2457.56
390.66	2547.67
390.87	2568.15
391.08	2641.88
391.30	2580.44
391.51	2609.11
391.72	2664.41
391.94	2633.69
392.15	2703.32
392.36	2670.55
392.58	2523.10
392.79	2633.69
393.00	2721.75
393.22	2801.62
393.43	2691.03
393.64	2789.33
393.85	2772.95
394.07	2688.98
394.28	2822.10
394.49	2799.57
394.71	2770.90
394.92	2813.91
395.13	2740.18
395.35	2820.05
395.56	2891.73
395.77	2777.05
395.98	2768.85
396.20	2877.40
396.41	2760.66
396.62	2908.12
396.84	2775.00
397.05	2830.29
397.26	2852.82
397.47	2854.87
397.69	2789.33
397.90	3037.14
398.11	2899.92
398.32	2879.44
398.54	2924.50
398.75	3010.51
398.96	2985.94
399.18	3049.43
399.39	2963.41
399.60	3041.23
399.81	2901.97
400.03	3000.27
400.24	3237.84
400.45	2897.88
400.66	3096.53
400.88	3037.14
401.09	3133.39
401.30	2977.75
401.51	3164.11
401.73	3131.34
401.94	3178.45
402.15	2901.97
402.36	3145.68
402.58	3196.88
402.79	3196.88
403.00	3157.97
403.21	3235.79
403.43	3174.35
403.64	3420.11
403.85	3035.09
404.06	3190.74
404.27	3106.77
404.49	3239.89
404.70	3182.54
404.91	3334.09
405.12	3280.85
405.34	3239.89
405.55	3444.68
405.76	3211.22
405.97	3219.41
406.19	3311.57
406.40	3289.04
406.61	3295.18
406.82	3418.06
407.03	3362.76
407.25	3313.61
407.46	3399.63
407.67	3411.92
407.88	3426.25
408.09	3391.44
408.31	3305.42
408.52	3411.92
408.73	3424.20
408.94	3319.76
409.15	3375.05
409.37	3559.37
409.58	3540.94
409.79	3454.92
410.00	3682.25
410.21	3436.49
410.43	3395.53
410.64	3416.01
410.85	3590.09
411.06	3516.36
411.27	3522.51
411.48	3643.34
411.70	3553.23
411.91	3514.31
412.12	3508.17
412.33	3547.08
412.54	3598.28
412.76	3694.54
412.97	3495.88
413.18	3520.46
413.39	3565.51
413.60	3727.30
413.81	3659.72
414.03	3624.90
414.24	3561.42
414.45	3801.03
414.66	3590.09
414.87	3676.10
415.08	3647.43
415.30	3743.69
415.51	3770.31
415.72	3655.62
415.93	3758.02
416.14	3760.07
416.35	3821.51
416.56	3735.50
416.78	3723.21
416.99	3893.19
417.20	3846.09
417.41	3792.84
417.62	3971.01
417.83	3917.76
418.04	3942.34
418.26	3954.63
418.47	3901.38
418.68	3885.00
418.89	3977.16
419.10	4069.31
419.31	3950.53
419.52	4026.31
419.73	4042.69
419.95	4136.90
420.16	3960.77
420.37	4007.87
420.58	3987.40
420.79	4087.75
421.00	4081.60
421.21	4181.95
421.42	4079.55
421.63	4175.81
421.85	4192.19
422.06	4300.73
422.27	4202.43
422.48	4222.91
422.69	4257.73
422.90	4100.03
423.11	4239.30
423.32	4259.78
423.53	4333.50
423.75	4366.27
423.96	4419.52
424.17	4411.32
424.38	4433.85
424.59	4431.80
424.80	4620.22
425.01	4521.92
425.22	4353.98
425.43	4466.62
425.64	4642.75
425.85	4534.20
426.06	4515.77
426.28	4577.21
426.49	4466.62
426.70	4372.41
426.91	4640.70
427.12	4691.90
427.33	4628.41
427.54	4554.68
427.75	4609.98
427.96	4798.39
428.17	4732.86
428.38	4882.36
428.59	4947.89
428.80	4835.25
429.01	4839.35
429.23	4825.01
429.44	5046.20
429.65	5021.62
429.86	4900.79
430.07	4749.24
430.28	4882.36
430.49	4978.61
430.70	5081.01
430.91	5107.63
431.12	4855.73
431.33	5197.74
431.54	5072.82
431.75	5158.83
431.96	5097.39
432.17	5083.06
432.38	5203.89
432.59	5281.71
432.80	5220.27
433.01	5265.33
433.22	5226.42
433.43	5171.12
433.64	5128.11
433.85	5330.86
434.06	5355.44
434.27	5326.77
434.49	5304.24
434.70	5361.58
434.91	5484.46
435.12	5486.51
435.33	5400.49
435.54	5447.60
435.75	5398.45
435.96	5306.29
436.17	5455.79
436.38	5705.64
436.59	5521.32
436.80	5476.27
437.01	5687.21
437.22	5683.11
437.43	5717.93
437.64	5681.07
437.85	5767.08
438.06	5818.28
438.27	5535.66
438.48	5724.07
438.69	5914.53
438.90	5652.39
439.11	5769.13
439.32	5883.81
439.53	5822.38
439.74	5851.05
439.95	5896.10
440.16	5883.81
440.37	6037.41
440.57	5644.20
440.78	5980.07
440.99	6008.74
441.20	5935.01
441.41	5816.23
441.62	5738.41
441.83	6025.12
442.04	6129.57
442.25	6053.80
442.46	6170.53
442.67	6252.45
442.88	6496.16
443.09	6127.52
443.30	6064.04
443.51	6137.76
443.72	6309.79
443.93	6064.04
444.14	6522.78
444.35	6135.71
444.56	6315.94
444.77	6418.33
444.98	6238.11
445.19	6422.43
445.40	6360.99
445.61	6387.61
445.81	6463.39
446.02	6561.69
446.23	6426.53
446.44	6449.05
446.65	6582.17
446.86	6471.58
447.07	6592.41
447.28	6676.38
447.49	6627.23
447.70	6700.95
447.91	6514.59
448.12	6754.20
448.33	6805.40
448.54	6664.09
448.74	6557.60
448.95	6815.64
449.16	6717.34
449.37	7135.12
449.58	6774.68
449.79	6793.11
450.00	6590.36
450.21	6893.46
450.42	7020.44
450.63	7055.25
450.84	6989.72
451.05	6985.62
451.25	6905.75
451.46	6987.67
451.67	7182.23
451.88	7139.22
452.09	7098.26
452.30	7229.33
452.51	7094.16
452.72	7407.50
452.93	7417.74
453.13	7198.61
453.34	7190.42
453.55	7344.02
453.76	7208.85
453.97	7528.33
454.18	7307.15
454.39	7499.66
454.60	7505.81
454.81	7497.61
455.01	7698.31
455.22	7305.10
455.43	7634.83
455.64	7856.01
455.85	7784.33
456.06	8011.65
456.27	7767.95
456.48	7718.79
456.68	7792.52
456.89	7962.50
457.10	7806.86
457.31	8048.52
457.52	7866.25
457.73	7978.89
457.94	8101.76
458.14	7874.44
458.35	8243.07
458.56	8152.96
458.77	8126.34
458.98	8277.89
459.19	8265.60
459.39	8439.68
459.60	8458.11
459.81	8320.90
460.02	8599.42
460.23	8449.92
460.44	8677.24
460.65	8429.44
460.85	8638.33
461.06	8869.75
461.27	8529.79
461.48	9019.25
461.69	9027.45
461.89	8474.49
462.10	8843.13
462.31	8580.99
462.52	8771.45
462.73	8879.99
462.94	9138.04
463.14	9033.59
463.35	8882.04
463.56	9379.70
463.77	9461.62
463.98	9179.00
464.18	9250.67
464.39	9267.06
464.60	9553.77
464.81	9512.81
465.02	9502.58
465.23	9840.49
465.43	9582.45
465.64	9850.73
465.85	9674.60
466.06	9719.66
466.27	10063.72
466.47	9914.22
466.68	9789.29
466.89	10073.96
467.10	10008.42
467.30	9961.32
467.51	10125.16
467.72	10364.77
467.93	10051.43
468.14	10329.95
468.34	10295.14
468.55	10399.59
468.76	10512.22
468.97	10260.32
469.17	10590.05
469.38	10510.18
469.59	10821.47
469.80	10573.66
470.01	10727.26
470.21	10872.67
470.42	10893.15
470.63	11249.49
470.84	10973.02
471.04	11288.40
471.25	11206.48
471.46	11323.22
471.67	11349.84
471.87	11398.99
472.08	11550.54
472.29	11702.09
472.50	11380.56
472.70	11552.59
472.91	11671.37
473.12	11917.13
473.33	11812.68
473.53	12232.52
473.74	11900.75
473.95	12201.80
474.16	12048.20
474.36	12422.98
474.57	12595.01
474.78	12609.34
474.99	12386.12
475.19	12408.64
475.40	12695.36
475.61	12728.13
475.81	12838.72
476.02	13215.54
476.23	12803.90
476.44	13053.75
476.64	13276.98
476.85	13604.66
477.06	13426.48
477.27	13877.04
477.47	13612.85
477.68	13643.57
477.89	13606.70
478.09	13696.82
478.30	13971.24
478.51	14026.54
478.71	14182.18
478.92	14333.73
479.13	13999.91
479.34	14352.16
479.54	14544.67
479.75	14356.26
479.96	14688.03
480.16	14614.30
480.37	14649.12
480.58	14868.25
480.78	15091.48
480.99	15054.62
481.20	15114.01
481.41	15378.20
481.61	15191.83
481.82	15247.13
482.03	15486.74
482.23	15404.82
482.44	15925.00
482.65	15904.53
482.85	16054.03
483.06	15773.46
483.27	15896.33
483.47	16191.24
483.68	16271.11
483.89	16256.78
484.09	16244.49
484.30	16461.57
484.51	16723.71
484.71	16764.67
484.92	16570.12
485.13	16637.70
485.33	16951.04
485.54	16637.70
485.75	17217.27
485.95	17211.13
486.16	17231.61
486.37	17553.14
486.57	17270.52
486.78	17207.03
486.98	17825.52
487.19	17645.30
487.40	18175.72
487.60	17637.11
487.81	18149.10
488.02	17848.05
488.22	17807.09
488.43	18003.69
488.64	18206.44
488.84	18407.14
489.05	18730.72
489.25	18548.45
489.46	18886.37
489.67	18573.03
489.87	19074.78
490.08	18966.24
490.29	18906.85
490.49	19574.49
490.70	19312.35
490.90	19472.09
491.11	19332.82
491.32	19343.06
491.52	19511.00
491.73	19797.71
491.94	19748.56
492.14	19715.80
492.35	20170.44
492.55	20066.00
492.76	20205.26
492.97	20408.01
493.17	20180.68
493.38	20334.28
493.58	20555.46
493.79	20637.38
494.00	20590.28
494.20	20850.37
494.41	20885.19
494.61	21061.31
494.82	21067.45
495.02	20926.14
495.23	20960.96
495.44	21419.71
495.64	21540.54
495.85	21384.89
496.05	21556.92
496.26	21405.37
496.47	21493.43
496.67	21569.21
496.88	21907.12
497.08	21948.08
497.29	22230.70
497.49	22296.24
497.70	22070.96
497.91	22435.50
498.11	22367.91
498.32	22587.05
498.52	22331.05
498.73	22877.86
498.93	22617.77
499.14	22761.12
499.34	22656.68
499.55	22980.26
499.76	22884.00
499.96	23105.18
500.17	22970.02
500.37	23309.98
500.58	23342.75
500.78	23088.80
500.99	23422.62
501.19	23588.50
501.40	23543.45
501.60	23649.94
501.81	23764.63
502.02	23733.91
502.22	23604.89
502.43	23832.21
502.63	24026.77
502.84	24104.59
503.04	23977.62
503.25	23830.16
503.45	24436.36
503.66	24489.61
503.86	24262.29
504.07	24706.70
504.27	24188.56
504.48	24559.24
504.68	24612.49
504.89	24888.96
505.09	24929.92
505.30	24850.05
505.50	25196.16
505.71	24913.54
505.91	25249.41
506.12	25386.62
506.32	25163.39
506.53	25050.75
506.73	25540.22
506.94	25589.37
507.14	25091.71
507.35	25343.61
507.55	25538.17
507.76	25919.09
507.96	25806.45
508.17	25636.47
508.37	25499.26
508.58	25826.93
508.78	25949.81
508.99	25900.66
509.19	26117.75
509.40	26039.92
509.60	26199.66
509.81	26293.87
510.01	26037.87
510.22	26533.48
510.42	26429.04
510.63	26398.32
510.83	26678.89
511.04	26504.81
511.24	26875.49
511.44	26705.51
511.65	26650.22
511.85	26670.70
512.06	26799.72
512.26	26879.59
512.47	27086.43
512.67	27160.16
512.88	26863.21
513.08	26844.77
513.29	27092.58
513.49	27119.20
513.69	27598.43
513.90	26986.08
514.10	27268.70
514.31	27436.64
514.51	27545.18
514.72	27356.77
514.92	27483.74
515.13	27725.40
515.33	27639.39
515.53	27625.05
515.74	28046.93
515.94	27803.22
516.15	27700.83
516.35	27811.42
516.56	27983.44
516.76	27954.77
516.96	28036.69
517.17	28163.67
517.37	28155.47
517.58	28372.56
517.78	28487.25
517.99	28231.25
518.19	28427.85
518.39	28665.42
518.60	28477.01
518.80	28589.64
519.01	28673.61
519.21	28663.37
519.41	28667.47
519.62	28505.68
519.82	28640.84
520.03	29175.36
520.23	28819.02
520.43	29296.19
520.64	29394.50
520.84	29320.77
521.05	29251.14
521.25	29541.95
521.45	29855.29
521.66	29832.76
521.86	29873.72
522.07	29787.71
522.27	29638.20
522.47	29771.32
522.68	30094.90
522.88	30019.13
523.08	30205.49
523.29	29826.62
523.49	29877.82
523.70	30365.23
523.90	30400.05
524.10	30334.51
524.31	30676.52
524.51	30682.67
524.71	30912.04
524.92	30785.07
525.12	31065.64
525.33	30924.33
525.53	31159.84
525.73	31211.04
525.94	31290.91
526.14	31196.71
526.34	31407.65
526.55	31276.58
526.75	31370.79
526.95	31577.63
527.16	31559.20
527.36	31579.68
527.56	32013.85
527.77	32325.14
527.97	31905.31
528.17	31890.97
528.38	32454.16
528.58	32222.74
528.78	32232.98
528.99	32101.91
529.19	32599.57
529.39	32042.52
529.60	32757.26
529.80	32249.36
530.00	32595.47
530.21	33252.87
530.41	33312.26
530.61	32917.00
530.82	33076.74
531.02	33013.26
531.22	33027.59
531.43	33527.30
531.63	33613.31
531.83	33680.89
532.04	34129.40
532.24	33504.77
532.44	34174.45
532.64	34035.19
532.85	34260.47
533.05	33951.23
533.25	34254.33
533.46	33943.03
533.66	34420.21
533.86	34170.36
534.07	34745.84
534.27	34403.83
534.47	34872.81
534.67	34891.24
534.88	34827.76
535.08	34881.00
535.28	34909.68
535.49	35122.66
535.69	35407.33
535.89	35331.56
536.09	35239.40
536.30	35462.63
536.50	35694.05
536.70	36136.41
536.91	35624.42
537.11	35718.62
537.31	35966.43
537.51	35739.10
537.72	36283.86
537.92	36269.53
538.12	36277.72
538.32	36261.33
538.53	36576.72
538.73	36365.78
538.93	36292.05
539.13	36423.12
539.34	36636.11
539.54	36144.60
539.74	36908.49
539.94	36709.84
540.15	37002.70
540.35	37334.47
540.55	36980.17
540.75	36791.76
540.96	37395.91
541.16	37199.30
541.36	37264.84
541.56	37985.72
541.77	37543.36
541.97	37975.48
542.17	37819.84
542.37	37559.75
542.58	37629.38
542.78	37948.86
542.98	37842.37
543.18	38012.35
543.38	38297.02
543.59	38469.04
543.79	38540.72
543.99	38456.76
544.19	38460.85
544.40	38243.77
544.60	38692.27
544.80	38460.85
545.00	38370.74
545.20	38612.40
545.41	38593.97
545.61	38487.48
545.81	38886.83
546.01	39298.47
546.21	39083.44
546.42	38487.48
546.62	39409.06
546.82	38886.83
547.02	38946.22
547.22	39138.73
547.43	39605.67
547.63	38833.58
547.83	39220.65
548.03	39259.56
548.23	39404.97
548.44	39794.08
548.64	40023.45
548.84	39822.75
549.04	39548.32
549.24	39933.34
549.45	40222.11
549.65	40132.00
549.85	39990.69
550.05	40285.59
550.25	40201.63
550.45	40390.04
550.66	40279.45
550.86	40269.21
551.06	40703.38
551.26	40713.62
551.46	40447.38
551.66	40895.89
551.87	40572.31
552.07	40486.29
552.27	40480.15
552.47	40635.80
552.67	40338.84
552.87	40910.22
553.07	40750.48
553.28	40961.42
553.48	41074.06
553.68	40969.61
553.88	41588.10
554.08	41076.11
554.28	41180.56
554.48	40916.37
554.69	41231.75
554.89	40992.14
555.09	41538.95
555.29	41098.64
555.49	41225.61
555.69	41465.22
555.89	41526.66
556.10	41541.00
556.30	41276.81
556.50	41813.38
556.70	41360.78
556.90	41649.54
557.10	41627.01
557.30	41354.63
557.50	41942.40
557.70	41969.02
557.91	41932.16
558.11	41690.50
558.31	42114.43
558.51	41930.11
558.71	42143.10
558.91	42231.16
559.11	41764.23
559.31	42200.44
559.51	42069.37
559.72	42134.91
559.92	42483.06
560.12	42220.92
560.32	42827.12
560.52	42323.32
560.72	42200.44
560.92	42759.54
561.12	42655.09
561.32	42755.44
561.52	42362.23
561.72	43283.82
561.93	42489.21
562.13	42366.33
562.33	42687.86
562.53	43054.45
562.73	42743.16
562.93	42712.44
563.13	42855.79
563.33	42526.07
563.53	43146.61
563.73	42544.50
563.93	42497.40
564.13	43429.23
564.33	42847.60
564.53	42767.73
564.74	43314.54
564.94	42952.05
565.14	43451.75
565.34	43038.06
565.54	43398.51
565.74	43076.97
565.94	43437.42
566.14	43103.60
566.34	43328.87
566.54	43691.37
566.74	43390.31
566.94	43963.75
567.14	43892.07
567.34	43769.19
567.54	43732.32
567.74	44023.14
567.94	43427.18
568.14	43988.32
568.34	43963.75
568.54	43703.65
568.74	43668.84
568.94	43756.90
569.14	44119.39
569.34	43779.43
569.54	44082.53
569.75	44060.00
569.95	43926.88
570.15	44584.28
570.35	44234.08
570.55	44176.73
570.75	44420.44
570.95	44055.90
571.15	44735.83
571.35	44559.70
571.55	44262.75
571.75	44533.08
571.95	44320.09
572.15	44447.07
572.35	44815.70
572.55	44434.78
572.75	44371.29
572.95	44723.54
573.15	45016.40
573.35	44664.15
573.55	44766.55
573.75	44907.86
573.95	45047.12
574.15	44895.57
574.35	45198.67
574.55	45014.35
574.75	44954.96
574.95	44973.39
575.15	44991.83
575.34	45317.45
575.54	45552.97
575.74	45600.07
575.94	45794.63
576.14	45331.79
576.34	45555.02
576.54	45528.39
576.74	46056.77
576.94	45557.06
577.14	45888.84
577.34	46181.70
577.54	45651.27
577.74	45794.63
577.94	46050.63
578.14	46406.97
578.34	46187.84
578.54	45784.39
578.74	45913.41
578.94	46026.05
579.14	46146.88
579.34	45976.90
579.54	46587.19
579.74	46628.15
579.94	46449.98
580.13	46523.71
580.33	46761.27
580.53	46681.40
580.73	46957.88
580.93	47080.75
581.13	46740.79
581.33	47136.05
581.53	47295.79
581.73	46890.29
581.93	47426.86
582.13	47125.81
582.33	47269.17
582.53	47303.98
582.73	47785.25
582.92	47484.20
583.12	47539.50
583.32	47600.94
583.52	47279.41
583.72	47672.62
583.92	47740.20
584.12	47506.73
584.32	48125.22
584.52	47645.99
584.72	47492.40
584.92	47738.15
585.11	48200.99
585.31	47756.58
585.51	48211.23
585.71	47947.04
585.91	48362.78
586.11	47979.81
586.31	48235.81
586.51	48170.27
586.71	48846.10
586.91	48624.92
587.10	48497.95
587.30	48848.15
587.50	48702.74
587.70	48659.74
587.90	48438.56
588.10	48657.69
588.30	48774.42
588.50	48495.90
