SpectraSuite Data File
++++++++++++++++++++++++++++++++++++
Date: Fri Jun 02 14:57:20 CEST 2017
User: INFO_000
Dark Spectrum Present: No
Reference Spectrum Present: No
Number of Sampled Component Spectra: 1
Spectrometers: USB4H00879
Integration Time (usec): 80000 (USB4H00879)
Spectra Averaged: 1 (USB4H00879)
Boxcar Smoothing: 0 (USB4H00879)
Correct for Electrical Dark: No (USB4H00879)
Strobe/Lamp Enabled: No (USB4H00879)
Correct for Detector Non-linearity: No (USB4H00879)
Correct for Stray Light: No (USB4H00879)
Number of Pixels in Processed Spectrum: 3648
>>>>>Begin Processed Spectral Data<<<<<
345.13	1296.36
345.34	1296.36
345.56	1296.36
345.78	1282.03
345.99	1271.79
346.21	1687.53
346.42	1777.64
346.64	1650.66
346.86	1761.25
347.07	1658.85
347.29	1744.87
347.50	1720.29
347.72	1728.49
347.94	1787.88
348.15	1558.50
348.37	1605.61
348.59	1740.77
348.80	1628.14
349.02	1826.79
349.23	1918.95
349.45	1802.21
349.67	1816.55
349.88	1837.03
350.10	1935.33
350.31	1941.47
350.53	1884.13
350.75	1982.43
350.96	1791.97
351.18	1871.84
351.39	1796.07
351.61	1787.88
351.82	1943.52
352.04	1894.37
352.26	1898.47
352.47	1910.75
352.69	1951.71
352.90	1816.55
353.12	1814.50
353.34	1927.14
353.55	1898.47
353.77	1904.61
353.98	1880.04
354.20	1816.55
354.41	1933.28
354.63	1970.15
354.85	2072.54
355.06	1955.81
355.28	1757.16
355.49	1875.94
355.71	1912.80
355.92	1880.04
356.14	1925.09
356.35	1894.37
356.57	1896.42
356.79	1947.62
357.00	1920.99
357.22	1992.67
357.43	1884.13
357.65	1884.13
357.86	1927.14
358.08	1966.05
358.29	1943.52
358.51	1943.52
358.72	1957.86
358.94	1900.52
359.16	1978.34
359.37	1972.19
359.59	1961.95
359.80	1994.72
360.02	1986.53
360.23	1970.15
360.45	2043.87
360.66	1945.57
360.88	1904.61
361.09	2021.35
361.31	1916.90
361.52	1920.99
361.74	2009.06
361.95	2136.03
362.17	1912.80
362.38	2080.74
362.60	1937.38
362.81	1980.39
363.03	2011.11
363.24	1970.15
363.46	2050.02
363.67	2052.06
363.89	2011.11
364.10	2027.49
364.32	2002.91
364.53	2019.30
364.75	1912.80
364.96	2033.63
365.18	2045.92
365.39	2047.97
365.61	1953.76
365.82	2119.65
366.04	1982.43
366.25	1976.29
366.47	2052.06
366.68	2088.93
366.90	2047.97
367.11	2133.98
367.33	2064.35
367.54	2054.11
367.76	2027.49
367.97	2144.22
368.19	2035.68
368.40	2095.07
368.62	2019.30
368.83	1945.57
369.05	2047.97
369.26	2039.78
369.48	1994.72
369.69	2000.87
369.91	2074.59
370.12	1949.67
370.33	2113.50
370.55	2041.82
370.76	2009.06
370.98	2152.42
371.19	2090.98
371.41	2025.44
371.62	2052.06
371.84	1970.15
372.05	2148.32
372.27	2037.73
372.48	2107.36
372.69	2090.98
372.91	2129.89
373.12	2164.70
373.34	2064.35
373.55	2250.72
373.77	2183.13
373.98	2017.25
374.20	2195.42
374.41	2215.90
374.62	2170.85
374.84	2142.18
375.05	2160.61
375.27	2166.75
375.48	2217.95
375.70	2142.18
375.91	2172.89
376.12	2324.44
376.34	2170.85
376.55	2131.94
376.77	2220.00
376.98	2191.33
377.19	2090.98
377.41	2205.66
377.62	2172.89
377.84	2187.23
378.05	2299.87
378.27	2189.28
378.48	2377.69
378.69	2326.49
378.91	2273.25
379.12	2289.63
379.34	2258.91
379.55	2252.77
379.76	2306.01
379.98	2246.62
380.19	2215.90
380.41	2236.38
380.62	2346.97
380.83	2265.05
381.05	2199.52
381.26	2396.12
381.47	2195.42
381.69	2234.33
381.90	2428.89
382.12	2357.21
382.33	2306.01
382.54	2263.01
382.76	2310.11
382.97	2398.17
383.19	2256.86
383.40	2486.23
383.61	2297.82
383.83	2318.30
384.04	2285.53
384.25	2312.16
384.47	2451.42
384.68	2383.84
384.89	2306.01
385.11	2330.59
385.32	2217.95
385.54	2328.54
385.75	2357.21
385.96	2381.79
386.18	2467.80
386.39	2449.37
386.60	2303.96
386.82	2420.70
387.03	2475.99
387.24	2451.42
387.46	2412.51
387.67	2455.51
387.88	2541.53
388.10	2408.41
388.31	2519.00
388.52	2531.29
388.74	2557.91
388.95	2541.53
389.16	2531.29
389.38	2568.15
389.59	2631.64
389.80	2541.53
390.02	2619.35
390.23	2652.12
390.44	2582.49
390.66	2539.48
390.87	2523.10
391.08	2629.59
391.30	2656.22
391.51	2682.84
391.72	2666.46
391.94	2670.55
392.15	2645.98
392.36	2625.50
392.58	2568.15
392.79	2680.79
393.00	2770.90
393.22	2711.51
393.43	2820.05
393.64	2828.24
393.85	2789.33
394.07	2803.67
394.28	2738.13
394.49	2746.33
394.71	2713.56
394.92	2830.29
395.13	2633.69
395.35	2777.05
395.56	2795.48
395.77	2869.20
395.98	2848.72
396.20	2906.07
396.41	2844.63
396.62	2887.64
396.84	2775.00
397.05	2910.16
397.26	2940.88
397.47	2994.13
397.69	2836.44
397.90	3071.95
398.11	2901.97
398.32	2877.40
398.54	2918.36
398.75	2996.18
398.96	3045.33
399.18	3000.27
399.39	2895.83
399.60	3100.62
399.81	2955.22
400.03	3035.09
400.24	3188.69
400.45	2985.94
400.66	3127.25
400.88	3018.71
401.09	3145.68
401.30	3088.34
401.51	3160.02
401.73	3092.43
401.94	3237.84
402.15	3090.38
402.36	3186.64
402.58	3149.78
402.79	3172.30
403.00	3084.24
403.21	3219.41
403.43	3303.37
403.64	3162.06
403.85	3211.22
404.06	3317.71
404.27	3086.29
404.49	3176.40
404.70	3225.55
404.91	3243.98
405.12	3303.37
405.34	3291.09
405.55	3522.51
405.76	3135.44
405.97	3256.27
406.19	3350.48
406.40	3237.84
406.61	3239.89
406.82	3330.00
407.03	3313.61
407.25	3325.90
407.46	3444.68
407.67	3530.70
407.88	3522.51
408.09	3370.96
408.31	3424.20
408.52	3499.98
408.73	3344.33
408.94	3209.17
409.15	3475.40
409.37	3491.79
409.58	3424.20
409.79	3499.98
410.00	3655.62
410.21	3483.59
410.43	3479.50
410.64	3313.61
410.85	3545.03
411.06	3567.56
411.27	3571.66
411.48	3559.37
411.70	3612.62
411.91	3522.51
412.12	3551.18
412.33	3536.84
412.54	3540.94
412.76	3649.48
412.97	3747.78
413.18	3514.31
413.39	3647.43
413.60	3674.06
413.81	3647.43
414.03	3585.99
414.24	3635.14
414.45	3782.60
414.66	3491.79
414.87	3762.12
415.08	3727.30
415.30	3764.17
415.51	3702.73
415.72	3657.67
415.93	3702.73
416.14	3606.47
416.35	3803.08
416.56	3733.45
416.78	3758.02
416.99	3811.27
417.20	3829.70
417.41	3858.37
417.62	3876.80
417.83	3940.29
418.04	3899.33
418.26	3844.04
418.47	3968.96
418.68	3899.33
418.89	3891.14
419.10	4061.12
419.31	4014.02
419.52	4061.12
419.73	3942.34
419.95	4118.47
420.16	3831.75
420.37	3864.52
420.58	4016.07
420.79	3913.67
421.00	3944.39
421.21	4173.76
421.42	4061.12
421.63	4161.47
421.85	4089.79
422.06	4081.60
422.27	4167.62
422.48	4206.53
422.69	4128.70
422.90	4270.01
423.11	4093.89
423.32	4302.78
423.53	4259.78
423.75	4329.41
423.96	4519.87
424.17	4231.10
424.38	4411.32
424.59	4392.89
424.80	4538.30
425.01	4274.11
425.22	4257.73
425.43	4370.37
425.64	4591.55
425.85	4630.46
426.06	4503.48
426.28	4542.39
426.49	4442.04
426.70	4413.37
426.91	4491.20
427.12	4747.19
427.33	4579.26
427.54	4509.63
427.75	4566.97
427.96	4878.26
428.17	4759.48
428.38	4691.90
428.59	4804.53
428.80	4640.70
429.01	4794.29
429.23	4818.87
429.44	4874.17
429.65	4906.93
429.86	4941.75
430.07	4822.97
430.28	4751.29
430.49	4925.36
430.70	5113.78
430.91	5105.59
431.12	5025.72
431.33	5142.45
431.54	5126.07
431.75	5017.52
431.96	5062.58
432.17	5156.79
432.38	5081.01
432.59	5369.77
432.80	5031.86
433.01	5275.57
433.22	5222.32
433.43	5279.66
433.64	5377.97
433.85	5167.03
434.06	5300.14
434.27	5115.83
434.49	5365.68
434.70	5347.25
434.91	5410.73
435.12	5316.53
435.33	5384.11
435.54	5451.69
435.75	5199.79
435.96	5402.54
436.17	5181.36
436.38	5558.19
436.59	5631.91
436.80	5517.23
437.01	5760.94
437.22	5623.72
437.43	5609.39
437.64	5664.68
437.85	5752.74
438.06	5898.15
438.27	5615.53
438.48	5623.72
438.69	5892.01
438.90	5803.94
439.11	5664.68
439.32	5892.01
439.53	5853.09
439.74	5812.14
439.95	5935.01
440.16	5896.10
440.37	5998.50
440.57	5709.74
440.78	6004.64
440.99	5959.59
441.20	5951.40
441.41	5822.38
441.62	5971.88
441.83	5892.01
442.04	6135.71
442.25	5965.73
442.46	6080.42
442.67	6078.37
442.88	6510.49
443.09	5984.16
443.30	6057.89
443.51	6223.78
443.72	6492.06
443.93	6191.01
444.14	6471.58
444.35	6360.99
444.56	6279.07
444.77	6360.99
444.98	6469.53
445.19	6408.09
445.40	6399.90
445.61	6514.59
445.81	6725.53
446.02	6627.23
446.23	6580.12
446.44	6326.18
446.65	6610.84
446.86	6549.40
447.07	6645.66
447.28	6866.84
447.49	6762.39
447.70	6639.51
447.91	6791.06
448.12	6780.82
448.33	6965.14
448.54	6805.40
448.74	6758.30
448.95	6834.07
449.16	6676.38
449.37	7114.64
449.58	6842.26
449.79	6983.57
450.00	6801.30
450.21	7122.84
450.42	7032.72
450.63	7137.17
450.84	7131.03
451.05	6899.61
451.25	7045.01
451.46	7088.02
451.67	7278.48
451.88	7255.95
452.09	7378.83
452.30	7133.08
452.51	7092.12
452.72	7344.02
452.93	7561.10
453.13	7217.04
453.34	7507.85
453.55	7415.69
453.76	7370.64
453.97	7802.76
454.18	7561.10
454.39	7636.88
454.60	7503.76
454.81	7561.10
455.01	7808.90
455.22	7432.08
455.43	7726.99
455.64	7853.96
455.85	7964.55
456.06	8122.24
456.27	8050.57
456.48	7884.68
456.68	7942.02
456.89	8095.62
457.10	8075.14
457.31	8021.89
457.52	8069.00
457.73	8277.89
457.94	8445.82
458.14	7999.37
458.35	8599.42
458.56	8314.75
458.77	8261.51
458.98	8607.61
459.19	8314.75
459.39	8499.07
459.60	8712.06
459.81	8454.02
460.02	8714.11
460.23	8591.23
460.44	9002.87
460.65	8796.03
460.85	8742.78
461.06	8828.79
461.27	8681.34
461.48	8982.39
461.69	9052.02
461.89	8910.71
462.10	9156.47
462.31	8753.02
462.52	9037.69
462.73	9109.36
462.94	9201.52
463.14	9125.75
463.35	9095.03
463.56	9510.77
463.77	9582.45
463.98	9289.59
464.18	9449.33
464.39	9760.62
464.60	9748.33
464.81	9590.64
465.02	9539.44
465.23	9801.58
465.43	9711.47
465.64	9883.50
465.85	9748.33
466.06	9668.46
466.27	9985.90
466.47	10004.33
466.68	10094.44
466.89	9793.39
467.10	10149.73
467.30	9820.01
467.51	10213.22
467.72	10530.66
467.93	10108.77
468.14	10399.59
468.34	10508.13
468.55	10442.59
468.76	10631.01
468.97	10477.41
469.17	10534.75
469.38	10821.47
469.59	10680.16
469.80	10626.91
470.01	10891.10
470.21	10798.94
470.42	11024.22
470.63	11229.01
470.84	10833.75
471.04	11409.23
471.25	11067.22
471.46	11112.28
471.67	11272.02
471.87	11450.19
472.08	11646.80
472.29	11624.27
472.50	11358.03
472.70	11599.70
472.91	11607.89
473.12	12044.10
473.33	11800.40
473.53	12152.65
473.74	11974.47
473.95	12115.78
474.16	12230.47
474.36	12189.51
474.57	12451.65
474.78	12552.00
474.99	12130.12
475.19	12449.60
475.40	12580.67
475.61	12619.58
475.81	12685.12
476.02	13035.32
476.23	12762.94
476.44	13166.39
476.64	13416.24
476.85	13559.60
477.06	13381.43
477.27	13410.10
477.47	13412.15
477.68	13498.16
477.89	13762.35
478.09	13791.02
478.30	13967.15
478.51	13610.80
478.71	14004.01
478.92	14141.22
479.13	14272.29
479.34	14042.92
479.54	14378.79
479.75	14190.38
479.96	14554.91
480.16	14440.23
480.37	14626.59
480.58	14819.10
480.78	14890.78
480.99	14778.14
481.20	15032.09
481.41	15030.04
481.61	15259.42
481.82	15175.45
482.03	15306.52
482.23	15298.33
482.44	15281.94
482.65	15525.65
482.85	15718.16
483.06	15671.06
483.27	15679.25
483.47	15736.59
483.68	15937.29
483.89	16051.98
484.09	16039.69
484.30	16199.43
484.51	16506.63
484.71	16465.67
484.92	16357.13
485.13	16889.60
485.33	16609.03
485.54	16508.68
485.75	16971.52
485.95	16946.94
486.16	16805.63
486.37	17391.35
486.57	17082.11
486.78	17096.44
486.98	16971.52
487.19	17630.96
487.40	17698.55
487.60	17667.83
487.81	17856.24
488.02	17673.97
488.22	17743.60
488.43	18067.18
488.64	17786.61
488.84	18181.87
489.05	18345.70
489.25	18188.01
489.46	18589.41
489.67	18413.29
489.87	18693.86
490.08	18478.82
490.29	18697.95
490.49	19181.28
490.70	19046.11
490.90	19125.98
491.11	18941.66
491.32	19386.07
491.52	19304.15
491.73	19453.66
491.94	19603.16
492.14	19410.65
492.35	19764.95
492.55	19760.85
492.76	20031.18
492.97	20049.61
493.17	19955.41
493.38	19984.08
493.58	20182.73
493.79	20164.30
494.00	20045.52
494.20	20233.93
494.41	20608.71
494.61	20582.09
494.82	20702.92
495.02	20645.57
495.23	20778.69
495.44	20915.90
495.64	21092.03
495.85	21180.09
496.05	21415.61
496.26	21225.15
496.47	21546.68
496.67	21350.07
496.88	21604.02
497.08	21325.50
497.29	21835.44
497.49	21796.53
497.70	21829.30
497.91	22019.76
498.11	22159.02
498.32	22171.31
498.52	22177.45
498.73	22742.69
498.93	22388.39
499.14	22609.58
499.34	22513.32
499.55	22847.14
499.76	22462.12
499.96	22679.21
500.17	22865.57
500.37	22996.64
500.58	22884.00
500.78	23078.56
500.99	23148.19
501.19	23445.15
501.40	23418.52
501.60	23418.52
501.81	23520.92
502.02	23762.58
502.22	23475.87
502.43	23690.90
502.63	23738.01
502.84	24080.02
503.04	24305.29
503.25	24112.78
503.45	24149.65
503.66	24411.79
503.86	24168.08
504.07	24323.72
504.27	24190.61
504.48	24823.43
504.68	24497.80
504.89	24688.26
505.09	24815.24
505.30	24876.68
505.50	24954.50
505.71	24907.40
505.91	24854.15
506.12	25138.82
506.32	25046.66
506.53	24925.83
506.73	25450.11
506.94	25237.12
507.14	25165.44
507.35	25536.12
507.55	25468.54
507.76	25538.17
507.96	25529.98
508.17	25798.26
508.37	25392.76
508.58	25794.17
508.78	26031.73
508.99	26142.32
509.19	26177.14
509.40	26580.59
509.60	26164.85
509.81	26467.95
510.01	25876.09
510.22	26170.99
510.42	26631.79
510.63	26707.56
510.83	26476.14
511.04	26510.96
511.24	26986.08
511.44	26543.72
511.65	26736.23
511.85	26873.45
512.06	27045.48
512.26	27215.46
512.47	27289.18
512.67	27053.67
512.88	27280.99
513.08	27016.80
513.29	27414.11
513.49	27666.01
513.69	27104.87
513.90	27512.41
514.10	27883.09
514.31	27592.28
514.51	27676.25
514.72	27934.29
514.92	27698.78
515.13	28069.46
515.33	28120.66
515.53	27776.60
515.74	27924.05
515.94	28294.74
516.15	28218.96
516.35	27864.66
516.56	28575.31
516.76	28354.13
516.96	28354.13
517.17	28548.68
517.37	28825.16
517.58	28292.69
517.78	28567.12
517.99	28773.96
518.19	28999.24
518.39	29009.48
518.60	29433.41
518.80	28890.70
519.01	29281.86
519.21	29255.23
519.41	29363.78
519.62	29476.41
519.82	29556.28
520.03	29826.62
520.23	29707.83
520.43	29716.03
520.64	30006.84
520.84	30086.71
521.05	29828.66
521.25	29777.47
521.45	30248.50
521.66	30244.40
521.86	30049.85
522.07	30195.25
522.27	30451.25
522.47	30488.11
522.68	30907.94
522.88	30563.89
523.08	30848.55
523.29	30823.98
523.49	30856.75
523.70	30826.03
523.90	31313.44
524.10	30885.42
524.31	31458.85
524.51	30586.41
524.71	31698.46
524.92	31176.23
525.12	31501.86
525.33	31417.89
525.53	31634.97
525.73	31815.19
525.94	31796.76
526.14	32058.90
526.34	32120.34
526.55	31893.02
526.75	31950.36
526.95	32056.85
527.16	32284.18
527.36	32421.39
527.56	32671.25
527.77	32421.39
527.97	32351.76
528.17	32847.37
528.38	32720.40
528.58	32951.82
528.78	33056.26
528.99	32777.74
529.19	33283.59
529.39	33046.02
529.60	33482.24
529.80	33316.36
530.00	33349.12
530.21	33652.22
530.41	33576.45
530.61	33586.69
530.82	33605.12
531.02	33687.04
531.22	33682.94
531.43	33918.46
531.63	33814.01
531.83	34215.41
532.04	34547.18
532.24	34227.70
532.44	34395.64
532.64	34698.73
532.85	34993.64
533.05	34489.84
533.25	34962.92
533.46	34694.64
533.66	35268.07
533.86	35089.90
534.07	35341.80
534.27	35159.53
534.47	35491.30
534.67	35837.41
534.88	35147.24
535.08	35526.11
535.28	35339.75
535.49	35722.72
535.69	36109.78
535.89	36001.24
536.09	36142.55
536.30	36322.77
536.50	36079.07
536.70	36304.34
536.91	36384.21
537.11	36558.29
537.31	36591.06
537.51	36492.76
537.72	36969.93
537.92	37043.66
538.12	37158.34
538.32	36992.46
538.53	37256.65
538.73	37051.85
538.93	37060.04
539.13	37305.80
539.34	36988.36
539.54	37113.29
539.74	37234.12
539.94	37397.96
540.15	37238.22
540.35	37883.33
540.55	37725.63
540.75	37664.19
540.96	37914.05
541.16	37774.78
541.36	37705.15
541.56	37891.52
541.77	38204.86
541.97	38053.31
542.17	38206.90
542.37	38231.48
542.58	37973.44
542.78	38432.18
542.98	38428.09
543.18	38401.46
543.38	38815.15
543.59	38649.27
543.79	38350.26
543.99	38815.15
544.19	38622.64
544.40	38663.60
544.60	39304.62
544.80	38970.80
545.00	38874.54
545.20	39314.86
545.41	38479.28
545.61	39259.56
545.81	39478.69
546.01	39194.03
546.21	39474.60
546.42	38944.17
546.62	39251.37
546.82	39126.44
547.02	39388.58
547.22	39490.98
547.43	39585.19
547.63	39640.48
547.83	39507.37
548.03	39208.36
548.23	39921.05
548.44	39763.36
548.64	39966.11
548.84	39681.44
549.04	40037.79
549.24	40031.65
549.45	40355.22
549.65	39796.13
549.85	39937.44
550.05	40172.96
550.25	40109.47
550.45	40775.06
550.66	40707.47
550.86	40291.74
551.06	40252.83
551.26	40469.91
551.46	40572.31
551.66	40338.84
551.87	40447.38
552.07	40365.46
552.27	40291.74
552.47	40261.02
552.67	40893.84
552.87	40471.96
553.07	40957.33
553.28	40605.08
553.48	40840.59
553.68	40379.80
553.88	41067.92
554.08	40793.49
554.28	40572.31
554.48	40611.22
554.69	40844.69
554.89	40830.35
555.09	41022.86
555.29	40711.57
555.49	41031.05
555.69	41579.91
555.89	40945.04
556.10	41497.99
556.30	40787.35
556.50	40893.84
556.70	40990.09
556.90	41108.88
557.10	41598.34
557.30	41135.50
557.50	41602.44
557.70	41739.65
557.91	42055.04
558.11	41272.71
558.31	41698.69
558.51	41530.76
558.71	41872.77
558.91	42128.77
559.11	41729.41
559.31	41809.28
559.51	41645.44
559.72	41770.37
559.92	42018.17
560.12	41510.28
560.32	41952.64
560.52	41694.60
560.72	41815.43
560.92	41690.50
561.12	41934.21
561.32	42874.23
561.52	42368.38
561.72	42419.58
561.93	41979.26
562.13	41944.45
562.33	42265.98
562.53	42628.47
562.73	42085.76
562.93	42001.79
563.13	42198.40
563.33	41878.91
563.53	42300.79
563.73	41647.49
563.93	42042.75
564.13	42403.19
564.33	42489.21
564.53	42253.69
564.74	42964.34
564.94	42311.03
565.14	42780.02
565.34	42308.99
565.54	42761.59
565.74	42980.72
565.94	42767.73
566.14	42689.91
566.34	42749.30
566.54	42886.51
566.74	42284.41
566.94	42802.55
567.14	42919.28
567.34	42737.01
567.54	42892.66
567.74	43199.85
567.94	42890.61
568.14	43001.20
568.34	43089.26
568.54	43234.67
568.74	43244.91
568.94	43066.73
569.14	43181.42
569.34	43550.06
569.54	43160.94
569.75	42683.76
569.95	43242.86
570.15	43787.62
570.35	43525.48
570.55	43558.25
570.75	43455.85
570.95	43658.60
571.15	43789.67
571.35	43855.20
571.55	43933.03
571.75	43287.92
571.95	43779.43
572.15	43896.16
572.35	44248.41
572.55	43593.06
572.75	43627.88
572.95	44258.65
573.15	44086.62
573.35	43865.44
573.55	43771.24
573.75	43963.75
573.95	44299.61
574.15	43930.98
574.35	44262.75
574.55	44184.93
574.75	44098.91
574.95	44148.06
575.15	44301.66
575.34	44877.14
575.54	44623.19
575.74	44782.93
575.94	44793.17
576.14	44440.92
576.34	44776.79
576.54	44981.59
576.74	45020.50
576.94	44580.18
577.14	45004.11
577.34	45399.37
577.54	44936.53
577.74	45090.13
577.94	45282.64
578.14	45004.11
578.34	45364.56
578.54	44991.83
578.74	45231.44
578.94	45413.71
579.14	45483.34
579.34	45550.92
579.54	45552.97
579.74	45868.36
579.94	45878.60
580.13	46034.24
580.33	45925.70
580.53	45798.73
580.73	45935.94
580.93	45755.72
581.13	45931.84
581.33	46167.36
581.53	46189.89
581.73	46499.13
581.93	46185.79
582.13	46495.03
582.33	46288.19
582.53	46714.17
582.73	46462.27
582.92	46329.15
583.12	46665.02
583.32	46619.96
583.52	46533.95
583.72	47293.74
583.92	46634.30
584.12	46923.06
584.32	47660.33
584.52	46726.46
584.72	47246.64
584.92	47101.23
585.11	47748.39
585.31	47535.40
585.51	47242.54
585.71	46921.01
585.91	47514.92
586.11	47357.23
586.31	47613.23
586.51	47734.06
586.71	47828.26
586.91	47936.80
587.10	48049.44
587.30	47928.61
587.50	48274.72
587.70	48276.77
587.90	48094.50
588.10	48301.34
588.30	48235.81
588.50	48395.55
