SpectraSuite Data File
++++++++++++++++++++++++++++++++++++
Date: Fri Jun 02 14:57:23 CEST 2017
User: INFO_000
Dark Spectrum Present: No
Reference Spectrum Present: No
Number of Sampled Component Spectra: 1
Spectrometers: USB4H00879
Integration Time (usec): 80000 (USB4H00879)
Spectra Averaged: 1 (USB4H00879)
Boxcar Smoothing: 0 (USB4H00879)
Correct for Electrical Dark: No (USB4H00879)
Strobe/Lamp Enabled: No (USB4H00879)
Correct for Detector Non-linearity: No (USB4H00879)
Correct for Stray Light: No (USB4H00879)
Number of Pixels in Processed Spectrum: 3648
>>>>>Begin Processed Spectral Data<<<<<
345.13	1361.90
345.34	1361.90
345.56	1361.90
345.78	1224.69
345.99	1277.93
346.21	1691.62
346.42	1703.91
346.64	1656.81
346.86	1800.16
347.07	1640.42
347.29	1677.29
347.50	1660.90
347.72	1662.95
347.94	1751.01
348.15	1576.94
348.37	1619.94
348.59	1679.33
348.80	1621.99
349.02	1798.12
349.23	1912.80
349.45	1785.83
349.67	1859.56
349.88	1871.84
350.10	2000.87
350.31	1925.09
350.53	1822.69
350.75	2093.02
350.96	1781.73
351.18	1871.84
351.39	1863.65
351.61	1779.68
351.82	1931.23
352.04	1972.19
352.26	1826.79
352.47	1820.64
352.69	1931.23
352.90	1763.30
353.12	1810.40
353.34	1890.28
353.55	1947.62
353.77	2019.30
353.98	1912.80
354.20	1824.74
354.41	1961.95
354.63	1927.14
354.85	1996.77
355.06	1910.75
355.28	1810.40
355.49	1884.13
355.71	1798.12
355.92	1855.46
356.14	1904.61
356.35	1933.28
356.57	1896.42
356.79	1957.86
357.00	1880.04
357.22	1959.91
357.43	1918.95
357.65	1998.82
357.86	1810.40
358.08	1939.43
358.29	1906.66
358.51	2015.20
358.72	1959.91
358.94	1955.81
359.16	1869.80
359.37	1951.71
359.59	2023.39
359.80	2011.11
360.02	1964.00
360.23	2011.11
360.45	1929.19
360.66	1984.48
360.88	1873.89
361.09	1955.81
361.31	2013.15
361.52	2060.26
361.74	1998.82
361.95	2138.08
362.17	1914.85
362.38	2105.31
362.60	2039.78
362.81	1931.23
363.03	1957.86
363.24	2084.83
363.46	2133.98
363.67	2025.44
363.89	1974.24
364.10	2009.06
364.32	1949.67
364.53	2041.82
364.75	1925.09
364.96	2090.98
365.18	1990.63
365.39	2004.96
365.61	1953.76
365.82	2119.65
366.04	2066.40
366.25	1927.14
366.47	2031.58
366.68	2037.73
366.90	1953.76
367.11	2121.70
367.33	2088.93
367.54	2064.35
367.76	1945.57
367.97	2072.54
368.19	2064.35
368.40	2064.35
368.62	1982.43
368.83	1904.61
369.05	1947.62
369.26	2066.40
369.48	1980.39
369.69	1990.63
369.91	2097.12
370.12	2007.01
370.33	2107.36
370.55	2013.15
370.76	2115.55
370.98	2060.26
371.19	2099.17
371.41	2078.69
371.62	2125.79
371.84	2013.15
372.05	2215.90
372.27	2015.20
372.48	2023.39
372.69	2027.49
372.91	2191.33
373.12	2197.47
373.34	1998.82
373.55	2093.02
373.77	2197.47
373.98	2097.12
374.20	2156.51
374.41	2220.00
374.62	2117.60
374.84	2103.26
375.05	2164.70
375.27	2179.04
375.48	2209.76
375.70	2209.76
375.91	2220.00
376.12	2293.72
376.34	2140.13
376.55	2236.38
376.77	2195.42
376.98	2150.37
377.19	2197.47
377.41	2078.69
377.62	2301.92
377.84	2295.77
378.05	2365.40
378.27	2246.62
378.48	2349.02
378.69	2355.16
378.91	2252.77
379.12	2217.95
379.34	2199.52
379.55	2289.63
379.76	2297.82
379.98	2263.01
380.19	2269.15
380.41	2299.87
380.62	2279.39
380.83	2199.52
381.05	2150.37
381.26	2422.75
381.47	2281.44
381.69	2303.96
381.90	2416.60
382.12	2332.64
382.33	2224.09
382.54	2301.92
382.76	2283.49
382.97	2326.49
383.19	2328.54
383.40	2375.64
383.61	2301.92
383.83	2207.71
384.04	2213.85
384.25	2314.20
384.47	2322.40
384.68	2486.23
384.89	2254.81
385.11	2303.96
385.32	2303.96
385.54	2291.68
385.75	2322.40
385.96	2412.51
386.18	2420.70
386.39	2363.36
386.60	2426.84
386.82	2387.93
387.03	2510.81
387.24	2514.91
387.46	2428.89
387.67	2484.19
387.88	2439.13
388.10	2486.23
388.31	2473.95
388.52	2465.75
388.74	2508.76
388.95	2512.86
389.16	2494.43
389.38	2463.71
389.59	2617.30
389.80	2557.91
390.02	2516.95
390.23	2621.40
390.44	2574.30
390.66	2504.67
390.87	2512.86
391.08	2547.67
391.30	2697.17
391.51	2633.69
391.72	2701.27
391.94	2617.30
392.15	2650.07
392.36	2648.02
392.58	2514.91
392.79	2635.74
393.00	2719.70
393.22	2713.56
393.43	2721.75
393.64	2691.03
393.85	2779.09
394.07	2760.66
394.28	2830.29
394.49	2734.04
394.71	2723.80
394.92	2838.48
395.13	2727.89
395.35	2815.96
395.56	2721.75
395.77	2887.64
395.98	2856.92
396.20	2820.05
396.41	2856.92
396.62	2818.00
396.84	2799.57
397.05	2867.16
397.26	2881.49
397.47	3006.42
397.69	2826.20
397.90	2959.31
398.11	2877.40
398.32	2932.69
398.54	2848.72
398.75	2830.29
398.96	2920.40
399.18	3053.52
399.39	2977.75
399.60	3004.37
399.81	2934.74
400.03	2928.60
400.24	3299.28
400.45	2938.84
400.66	3090.38
400.88	2994.13
401.09	3145.68
401.30	3137.49
401.51	3127.25
401.73	3069.91
401.94	3143.63
402.15	3121.10
402.36	3139.54
402.58	3200.98
402.79	3137.49
403.00	3180.50
403.21	3194.83
403.43	3221.45
403.64	3243.98
403.85	3037.14
404.06	3137.49
404.27	3176.40
404.49	3239.89
404.70	3141.58
404.91	3223.50
405.12	3325.90
405.34	3231.69
405.55	3438.54
405.76	3131.34
405.97	3227.60
406.19	3334.09
406.40	3192.78
406.61	3280.85
406.82	3338.19
407.03	3297.23
407.25	3246.03
407.46	3336.14
407.67	3346.38
407.88	3508.17
408.09	3317.71
408.31	3403.72
408.52	3469.26
408.73	3373.00
408.94	3481.55
409.15	3416.01
409.37	3542.99
409.58	3610.57
409.79	3477.45
410.00	3508.17
410.21	3499.98
410.43	3512.27
410.64	3579.85
410.85	3629.00
411.06	3536.84
411.27	3612.62
411.48	3653.58
411.70	3536.84
411.91	3659.72
412.12	3604.42
412.33	3659.72
412.54	3762.12
412.76	3770.31
412.97	3723.21
413.18	3506.12
413.39	3590.09
413.60	3700.68
413.81	3686.34
414.03	3751.88
414.24	3641.29
414.45	3831.75
414.66	3528.65
414.87	3755.97
415.08	3682.25
415.30	3813.32
415.51	3807.17
415.72	3798.98
415.93	3878.85
416.14	3817.41
416.35	3821.51
416.56	3870.66
416.78	3885.00
416.99	3915.72
417.20	3854.28
417.41	3858.37
417.62	4024.26
417.83	4009.92
418.04	3803.08
418.26	4032.45
418.47	3928.00
418.68	3975.11
418.89	4022.21
419.10	4077.51
419.31	4005.83
419.52	3954.63
419.73	4069.31
419.95	4196.29
420.16	3950.53
420.37	4057.03
420.58	4087.75
420.79	3973.06
421.00	4034.50
421.21	4149.18
421.42	4048.83
421.63	4097.99
421.85	4222.91
422.06	4214.72
422.27	4120.51
422.48	4247.49
422.69	4212.67
422.90	4323.26
423.11	4210.62
423.32	4274.11
423.53	4485.05
423.75	4306.88
423.96	4446.14
424.17	4364.22
424.38	4466.62
424.59	4450.24
424.80	4483.00
425.01	4450.24
425.22	4437.95
425.43	4505.53
425.64	4493.24
425.85	4538.30
426.06	4589.50
426.28	4630.46
426.49	4505.53
426.70	4427.71
426.91	4548.54
427.12	4583.35
427.33	4677.56
427.54	4618.17
427.75	4558.78
427.96	4847.54
428.17	4558.78
428.38	4693.94
428.59	4904.89
428.80	4706.23
429.01	4843.45
429.23	4890.55
429.44	4796.34
429.65	4956.08
429.86	4843.45
430.07	4695.99
430.28	4829.11
430.49	4958.13
430.70	4943.80
430.91	5109.68
431.12	4886.45
431.33	4984.76
431.54	5058.48
431.75	4974.52
431.96	5187.50
432.17	5042.10
432.38	5144.50
432.59	5279.66
432.80	5207.98
433.01	5279.66
433.22	5246.90
433.43	5263.28
433.64	5060.53
433.85	5148.59
434.06	5347.25
434.27	5144.50
434.49	5296.05
434.70	5554.09
434.91	5263.28
435.12	5386.16
435.33	5380.01
435.54	5377.97
435.75	5330.86
435.96	5482.41
436.17	5326.77
436.38	5437.36
436.59	5498.80
436.80	5390.25
437.01	5627.82
437.22	5494.70
437.43	5568.43
437.64	5504.94
437.85	5722.02
438.06	5789.61
438.27	5576.62
438.48	5658.54
438.69	5740.46
438.90	5611.43
439.11	5625.77
439.32	5898.15
439.53	5791.66
439.74	5812.14
439.95	5816.23
440.16	5828.52
440.37	5894.05
440.57	5787.56
440.78	5754.79
440.99	5836.71
441.20	5932.97
441.41	5787.56
441.62	5965.73
441.83	5842.85
442.04	5924.77
442.25	6092.71
442.46	6061.99
442.67	5982.12
442.88	6373.28
443.09	5816.23
443.30	6082.47
443.51	6191.01
443.72	6287.26
443.93	6012.84
444.14	6385.57
444.35	6051.75
444.56	6227.87
444.77	6293.41
444.98	6354.85
445.19	6297.50
445.40	6172.58
445.61	6338.46
445.81	6510.49
446.02	6490.01
446.23	6305.70
446.44	6158.24
446.65	6432.67
446.86	6442.91
447.07	6420.38
447.28	6633.37
447.49	6510.49
447.70	6504.35
447.91	6678.43
448.12	6553.50
448.33	6500.25
448.54	6651.80
448.74	6453.15
448.95	6729.63
449.16	6666.14
449.37	6991.77
449.58	6694.81
449.79	6922.13
450.00	6713.24
450.21	6881.18
450.42	6963.09
450.63	7040.92
450.84	7135.12
451.05	6895.51
451.25	6954.90
451.46	6922.13
451.67	7073.68
451.88	7020.44
452.09	7192.47
452.30	6907.80
452.51	7128.98
452.72	7356.30
452.93	7421.84
453.13	7042.96
453.34	7163.79
453.55	7319.44
453.76	7229.33
453.97	7688.07
454.18	7497.61
454.39	7532.43
454.60	7292.82
454.81	7491.47
455.01	7575.44
455.22	7335.82
455.43	7514.00
455.64	7706.51
455.85	7720.84
456.06	7993.22
456.27	7753.61
456.48	7743.37
456.68	7843.72
456.89	7858.06
457.10	7995.27
457.31	7921.54
457.52	8005.51
457.73	8226.69
457.94	8245.12
458.14	7948.17
458.35	8322.94
458.56	8261.51
458.77	8138.63
458.98	8247.17
459.19	8372.10
459.39	8314.75
459.60	8417.15
459.81	8447.87
460.02	8697.72
460.23	8396.67
460.44	8769.40
460.65	8470.40
460.85	8552.32
461.06	8720.25
461.27	8447.87
461.48	8851.32
461.69	8916.86
461.89	8736.63
462.10	8875.90
462.31	8783.74
462.52	8947.58
462.73	9129.84
462.94	9201.52
463.14	9146.23
463.35	8980.34
463.56	9529.20
463.77	9594.73
463.98	9269.11
464.18	9387.89
464.39	9414.51
464.60	9695.08
464.81	9561.97
465.02	9578.35
465.23	9688.94
465.43	9473.90
465.64	9992.04
465.85	9842.54
466.06	9748.33
466.27	10178.40
466.47	10043.24
466.68	9994.09
466.89	9914.22
467.10	10235.75
467.30	10006.38
467.51	10415.97
467.72	10649.44
467.93	10256.23
468.14	10397.54
468.34	10663.77
468.55	10575.71
468.76	10465.12
468.97	10538.85
469.17	10684.25
469.38	10940.25
469.59	10831.71
469.80	10757.98
470.01	10979.16
470.21	11001.69
470.42	11464.53
470.63	10973.02
470.84	11075.42
471.04	11452.24
471.25	11337.56
471.46	11419.47
471.67	11544.40
471.87	11636.56
472.08	11730.76
472.29	11929.42
472.50	11595.60
472.70	11646.80
472.91	11652.94
473.12	11947.85
473.33	12166.98
473.53	12214.09
473.74	12103.50
473.95	12441.41
474.16	12367.68
474.36	12451.65
474.57	12599.10
474.78	12695.36
474.99	12674.88
475.19	12482.37
475.40	13170.49
475.61	12799.80
475.81	12865.34
476.02	13178.68
476.23	13016.89
476.44	13383.48
476.64	13625.14
476.85	13745.97
477.06	13438.77
477.27	13932.33
477.47	13731.63
477.68	13711.15
477.89	14047.02
478.09	14018.35
478.30	13956.91
478.51	14247.72
478.71	14417.70
478.92	14397.22
479.13	14264.10
479.34	14464.80
479.54	14577.44
479.75	14534.43
479.96	14569.25
480.16	14634.78
480.37	15013.66
480.58	14980.89
480.78	15353.62
480.99	14987.04
481.20	15507.22
481.41	15404.82
481.61	15517.46
481.82	15779.60
482.03	15548.18
482.23	15603.47
482.44	15726.35
482.65	15974.16
482.85	16039.69
483.06	15943.44
483.27	16191.24
483.47	15941.39
483.68	16310.02
483.89	16314.12
484.09	16303.88
484.30	16340.74
484.51	16582.40
484.71	17024.76
484.92	16695.04
485.13	16926.46
485.33	17057.53
485.54	16969.47
485.75	17198.84
485.95	17321.72
486.16	17225.47
486.37	17503.99
486.57	17454.84
486.78	17620.72
486.98	17409.78
487.19	17919.73
487.40	17901.29
487.60	17737.46
487.81	17944.30
488.02	17940.21
488.22	18091.76
488.43	18413.29
488.64	18140.91
488.84	18452.20
489.05	18470.63
489.25	18659.04
489.46	18992.86
489.67	18675.43
489.87	18976.48
490.08	19031.77
490.29	18806.50
490.49	19371.74
490.70	19246.81
490.90	19220.19
491.11	19132.12
491.32	19310.30
491.52	19527.38
491.73	19642.07
491.94	19670.74
492.14	19699.41
492.35	20014.80
492.55	20211.40
492.76	19842.77
492.97	20160.20
493.17	20082.38
493.38	20131.53
493.58	20436.68
493.79	20309.71
494.00	20491.98
494.20	20666.05
494.41	20862.66
494.61	20768.45
494.82	20637.38
495.02	20760.26
495.23	20948.67
495.44	21024.45
495.64	21163.71
495.85	21106.37
496.05	21315.26
496.26	21327.55
496.47	21186.24
496.67	21272.25
496.88	21659.32
497.08	21524.15
497.29	21855.92
497.49	21563.06
497.70	21841.59
497.91	21620.41
498.11	21864.11
498.32	22206.13
498.52	22070.96
498.73	22447.79
498.93	22212.27
499.14	22349.48
499.34	22347.44
499.55	22554.28
499.76	22451.88
499.96	22619.81
500.17	22664.87
500.37	22939.30
500.58	22777.51
500.78	22990.50
500.99	22892.19
501.19	23221.92
501.40	23039.65
501.60	22884.00
501.81	23338.65
502.02	23137.95
502.22	22992.55
502.43	23164.57
502.63	23756.44
502.84	23590.55
503.04	23545.50
503.25	23625.37
503.45	23824.02
503.66	23938.71
503.86	23838.36
504.07	23852.69
504.27	24000.15
504.48	24192.65
504.68	24336.01
504.89	24460.94
505.09	24544.91
505.30	24241.81
505.50	24374.92
505.71	24348.30
505.91	24673.93
506.12	24696.46
506.32	24528.52
506.53	24575.62
506.73	24770.18
506.94	24764.04
507.14	25005.70
507.35	24833.67
507.55	24989.31
507.76	25134.72
507.96	24938.12
508.17	25087.62
508.37	25335.42
508.58	25292.41
508.78	25212.54
508.99	25587.32
509.19	25605.75
509.40	25636.47
509.60	25558.65
509.81	25622.14
510.01	25654.90
510.22	25538.17
510.42	25937.52
510.63	25996.92
510.83	25708.15
511.04	25912.95
511.24	26220.14
511.44	26199.66
511.65	26320.49
511.85	26134.13
512.06	25976.44
512.26	26498.67
512.47	26392.17
512.67	26388.08
512.88	26193.52
513.08	25921.14
513.29	26850.92
513.49	26959.46
513.69	26533.48
513.90	27172.45
514.10	26703.46
514.31	27295.33
514.51	26680.94
514.72	26570.35
514.92	27084.39
515.13	27256.42
515.33	27000.42
515.53	27455.07
515.74	27383.39
515.94	27588.19
516.15	27498.08
516.35	27367.01
516.56	27745.88
516.76	27493.98
516.96	27461.21
517.17	27776.60
517.37	28073.56
517.58	27790.94
517.78	28081.75
517.99	27774.55
518.19	28212.82
518.39	28083.80
518.60	28350.03
518.80	28319.31
519.01	28413.52
519.21	28567.12
519.41	28653.13
519.62	28100.18
519.82	28601.93
520.03	28814.92
520.23	28583.50
520.43	28718.67
520.64	29130.31
520.84	29134.40
521.05	28921.41
521.25	29488.70
521.45	29345.34
521.66	29552.19
521.86	28989.00
522.07	29351.49
522.27	29650.49
522.47	29615.68
522.68	29974.07
522.88	29810.23
523.08	29984.31
523.29	29777.47
523.49	30268.98
523.70	29845.05
523.90	30334.51
524.10	30256.69
524.31	30354.99
524.51	30068.28
524.71	30789.16
524.92	30619.18
525.12	31069.73
525.33	30842.41
525.53	30856.75
525.73	31276.58
525.94	30891.56
526.14	30881.32
526.34	31249.96
526.55	31309.35
526.75	31055.40
526.95	31665.69
527.16	31301.15
527.36	31645.21
527.56	31772.19
527.77	32212.50
527.97	31888.92
528.17	31673.88
528.38	31983.13
528.58	32161.30
528.78	32542.22
528.99	32550.42
529.19	32685.58
529.39	32253.46
529.60	32736.78
529.80	32794.12
530.00	32552.46
530.21	32783.88
530.41	33154.57
530.61	33041.93
530.82	33160.71
531.02	33515.01
531.22	33662.46
531.43	33351.17
531.63	33416.71
531.83	33742.33
532.04	33869.31
532.24	33447.43
532.44	34084.34
532.64	33973.75
532.85	34199.03
533.05	33797.63
533.25	34149.88
533.46	34344.44
533.66	35010.03
533.86	34723.31
534.07	35366.37
534.27	35061.22
534.47	34973.16
534.67	34930.16
534.88	35220.97
535.08	35139.05
535.28	35319.27
535.49	35550.69
535.69	35904.99
535.89	35657.18
536.09	35960.28
536.30	36111.83
536.50	35982.81
536.70	36390.36
536.91	36333.01
537.11	36218.33
537.31	36290.01
537.51	36472.28
537.72	36715.98
537.92	36677.07
538.12	37197.26
538.32	37010.89
538.53	37195.21
538.73	36500.95
538.93	36877.77
539.13	37170.63
539.34	37330.37
539.54	37199.30
539.74	37447.11
539.94	37166.54
540.15	37502.40
540.35	37621.19
540.55	37770.69
540.75	37768.64
540.96	37746.11
541.16	37684.67
541.36	37823.93
541.56	38014.40
541.77	38628.79
541.97	38133.18
542.17	38280.63
542.37	38237.62
542.58	38407.61
542.78	38266.30
542.98	38659.51
543.18	38647.22
543.38	39181.74
543.59	39089.58
543.79	39022.00
543.99	38798.77
544.19	39310.76
544.40	38862.26
544.60	39490.98
544.80	39265.70
545.00	39433.64
545.20	39857.57
545.41	39128.49
545.61	39208.36
545.81	39685.54
546.01	39761.31
546.21	39867.81
546.42	39749.03
546.62	39892.38
546.82	39832.99
547.02	40086.94
547.22	39994.78
547.43	39806.37
547.63	39947.68
547.83	40228.25
548.03	39857.57
548.23	40457.62
548.44	40494.49
548.64	40269.21
548.84	40633.75
549.04	40666.52
549.24	40844.69
549.45	40865.17
549.65	40547.73
549.85	41168.27
550.05	41254.28
550.25	40914.32
550.45	41518.47
550.66	41215.37
550.86	40832.40
551.06	41471.37
551.26	41129.36
551.46	41254.28
551.66	41301.39
551.87	40994.19
552.07	41266.57
552.27	41502.09
552.47	41289.10
552.67	41205.13
552.87	41917.82
553.07	41911.68
553.28	41731.46
553.48	41848.19
553.68	41385.35
553.88	42259.84
554.08	41809.28
554.28	41663.88
554.48	41893.25
554.69	41670.02
554.89	41524.61
555.09	42343.80
555.29	42050.94
555.49	42022.27
555.69	42106.24
555.89	42220.92
556.10	42411.38
556.30	42052.99
556.50	42243.45
556.70	42063.23
556.90	42734.96
557.10	42315.13
557.30	42390.91
557.50	42909.04
557.70	42732.92
557.91	43046.26
558.11	42638.71
558.31	42712.44
558.51	42628.47
558.71	42741.11
558.91	42759.54
559.11	42382.71
559.31	42804.59
559.51	42440.06
559.72	42993.01
559.92	42861.94
560.12	42911.09
560.32	42775.92
560.52	42790.26
560.72	42632.57
560.92	42941.81
561.12	43136.37
561.32	43533.67
561.52	42786.16
561.72	43337.07
561.93	42681.72
562.13	42906.99
562.33	42911.09
562.53	43304.30
562.73	43099.50
562.93	43226.48
563.13	43273.58
563.33	43208.04
563.53	43218.28
563.73	43390.31
563.93	43511.14
564.13	43865.44
564.33	43644.26
564.53	43324.78
564.74	43619.69
564.94	43140.46
565.14	43699.56
565.34	43554.15
565.54	43631.97
565.74	43533.67
565.94	44031.33
566.14	43623.78
566.34	43474.28
566.54	44258.65
566.74	43275.63
566.94	44105.06
567.14	44019.04
567.34	43683.17
567.54	44115.29
567.74	43916.64
567.94	43910.50
568.14	44283.23
568.34	44041.57
568.54	44293.47
568.74	44266.84
568.94	44295.52
569.14	44387.67
569.34	44223.84
569.54	44326.24
569.75	44318.04
569.95	44272.99
570.15	44838.23
570.35	44762.45
570.55	44336.48
570.75	44473.69
570.95	44617.05
571.15	44455.26
571.35	44445.02
571.55	44887.38
571.75	44574.04
571.95	44488.03
572.15	44621.14
572.35	44926.29
572.55	44258.65
572.75	44905.81
572.95	44729.69
573.15	44412.25
573.35	44895.57
573.55	44729.69
573.75	44877.14
573.95	45016.40
574.15	44580.18
574.35	45186.38
574.55	45057.36
574.75	44832.08
574.95	45170.00
575.15	44604.76
575.34	45372.75
575.54	45520.20
575.74	45241.68
575.94	45241.68
576.14	45149.52
576.34	45268.30
576.54	45573.45
576.74	45323.60
576.94	45737.29
577.14	45684.04
577.34	45976.90
577.54	45122.90
577.74	45606.22
577.94	45450.57
578.14	45634.89
578.34	45905.22
578.54	45165.90
578.74	45512.01
578.94	45880.64
579.14	45720.90
579.34	45817.16
579.54	45696.33
579.74	46204.22
579.94	45811.01
580.13	46679.35
580.33	46228.80
580.53	46413.12
580.73	46341.44
580.93	46163.26
581.13	46312.77
581.33	46384.44
581.53	46916.92
581.73	46791.99
581.93	47015.22
582.13	46409.02
582.33	46933.30
582.53	46847.29
582.73	46724.41
582.92	46787.89
583.12	47109.43
583.32	46906.68
583.52	46855.48
583.72	47246.64
583.92	46916.92
584.12	46824.76
584.32	47797.54
584.52	47152.43
584.72	47162.67
584.92	47052.08
585.11	47562.03
585.31	47263.02
585.51	47541.55
585.71	47510.83
585.91	47533.35
586.11	47238.45
586.31	47267.12
586.51	47449.39
586.71	47443.24
586.91	47953.19
587.10	47820.07
587.30	47977.76
587.50	47770.92
587.70	47994.15
587.90	48094.50
588.10	48141.60
588.30	47736.10
588.50	48141.60
