SpectraSuite Data File
++++++++++++++++++++++++++++++++++++
Date: Fri Jun 02 14:57:22 CEST 2017
User: INFO_000
Dark Spectrum Present: No
Reference Spectrum Present: No
Number of Sampled Component Spectra: 1
Spectrometers: USB4H00879
Integration Time (usec): 80000 (USB4H00879)
Spectra Averaged: 1 (USB4H00879)
Boxcar Smoothing: 0 (USB4H00879)
Correct for Electrical Dark: No (USB4H00879)
Strobe/Lamp Enabled: No (USB4H00879)
Correct for Detector Non-linearity: No (USB4H00879)
Correct for Stray Light: No (USB4H00879)
Number of Pixels in Processed Spectrum: 3648
>>>>>Begin Processed Spectral Data<<<<<
345.13	1286.12
345.34	1286.12
345.56	1286.12
345.78	1255.40
345.99	1304.56
346.21	1658.85
346.42	1712.10
346.64	1646.57
346.86	1773.54
347.07	1628.14
347.29	1775.59
347.50	1626.09
347.72	1572.84
347.94	1769.44
348.15	1605.61
348.37	1656.81
348.59	1773.54
348.80	1624.04
349.02	1757.16
349.23	1886.18
349.45	1847.27
349.67	1822.69
349.88	1810.40
350.10	1978.34
350.31	1847.27
350.53	1843.17
350.75	2007.01
350.96	1822.69
351.18	1859.56
351.39	1888.23
351.61	1871.84
351.82	1949.67
352.04	1871.84
352.26	1814.50
352.47	1894.37
352.69	1941.47
352.90	1800.16
353.12	1931.23
353.34	1953.76
353.55	1896.42
353.77	1841.12
353.98	1865.70
354.20	1794.02
354.41	1974.24
354.63	1877.99
354.85	2031.58
355.06	1900.52
355.28	1880.04
355.49	1855.46
355.71	1896.42
355.92	1849.32
356.14	1951.71
356.35	1904.61
356.57	1837.03
356.79	1875.94
357.00	1871.84
357.22	1953.76
357.43	1798.12
357.65	1966.05
357.86	1914.85
358.08	1925.09
358.29	1832.93
358.51	2000.87
358.72	1968.10
358.94	1920.99
359.16	1892.32
359.37	1869.80
359.59	1910.75
359.80	1992.67
360.02	1957.86
360.23	1982.43
360.45	1916.90
360.66	1920.99
360.88	1871.84
361.09	1904.61
361.31	2019.30
361.52	1998.82
361.74	2021.35
361.95	2076.64
362.17	2025.44
362.38	2058.21
362.60	2007.01
362.81	1896.42
363.03	1902.56
363.24	1994.72
363.46	2045.92
363.67	1929.19
363.89	1964.00
364.10	2029.54
364.32	2035.68
364.53	2093.02
364.75	1918.95
364.96	2007.01
365.18	1959.91
365.39	1998.82
365.61	2007.01
365.82	2101.22
366.04	1998.82
366.25	1920.99
366.47	2039.78
366.68	2037.73
366.90	1968.10
367.11	2060.26
367.33	2025.44
367.54	2146.27
367.76	2031.58
367.97	2164.70
368.19	2027.49
368.40	2121.70
368.62	1968.10
368.83	1947.62
369.05	2111.46
369.26	1896.42
369.48	2050.02
369.69	2007.01
369.91	2076.64
370.12	1939.43
370.33	2072.54
370.55	2027.49
370.76	2027.49
370.98	2174.94
371.19	2068.45
371.41	1953.76
371.62	2074.59
371.84	2000.87
372.05	2199.52
372.27	2029.54
372.48	2017.25
372.69	2082.78
372.91	2131.94
373.12	2164.70
373.34	2072.54
373.55	2084.83
373.77	2181.09
373.98	2050.02
374.20	2144.22
374.41	2258.91
374.62	2127.84
374.84	2150.37
375.05	2246.62
375.27	2158.56
375.48	2193.37
375.70	2166.75
375.91	2252.77
376.12	2303.96
376.34	2164.70
376.55	2211.81
376.77	2207.71
376.98	2119.65
377.19	2213.85
377.41	2140.13
377.62	2201.57
377.84	2271.20
378.05	2369.50
378.27	2260.96
378.48	2371.55
378.69	2371.55
378.91	2332.64
379.12	2275.29
379.34	2260.96
379.55	2306.01
379.76	2234.33
379.98	2140.13
380.19	2310.11
380.41	2185.18
380.62	2254.81
380.83	2252.77
381.05	2224.09
381.26	2418.65
381.47	2176.99
381.69	2303.96
381.90	2453.47
382.12	2314.20
382.33	2271.20
382.54	2322.40
382.76	2265.05
382.97	2293.72
383.19	2308.06
383.40	2396.12
383.61	2314.20
383.83	2293.72
384.04	2291.68
384.25	2369.50
384.47	2383.84
384.68	2351.07
384.89	2361.31
385.11	2332.64
385.32	2316.25
385.54	2349.02
385.75	2361.31
385.96	2426.84
386.18	2473.95
386.39	2523.10
386.60	2402.27
386.82	2467.80
387.03	2492.38
387.24	2414.56
387.46	2475.99
387.67	2537.43
387.88	2486.23
388.10	2475.99
388.31	2490.33
388.52	2570.20
388.74	2533.34
388.95	2500.57
389.16	2566.10
389.38	2480.09
389.59	2541.53
389.80	2619.35
390.02	2527.19
390.23	2658.26
390.44	2547.67
390.66	2598.87
390.87	2557.91
391.08	2590.68
391.30	2699.22
391.51	2650.07
391.72	2691.03
391.94	2652.12
392.15	2674.65
392.36	2619.35
392.58	2633.69
392.79	2699.22
393.00	2695.13
393.22	2840.53
393.43	2803.67
393.64	2797.53
393.85	2660.31
394.07	2639.83
394.28	2779.09
394.49	2758.61
394.71	2748.37
394.92	2873.30
395.13	2779.09
395.35	2750.42
395.56	2717.65
395.77	2768.85
395.98	2830.29
396.20	2832.34
396.41	2840.53
396.62	2797.53
396.84	2740.18
397.05	2807.77
397.26	2936.79
397.47	2936.79
397.69	2826.20
397.90	3082.19
398.11	2867.16
398.32	2893.78
398.54	2893.78
398.75	2994.13
398.96	2850.77
399.18	3035.09
399.39	2885.59
399.60	3166.16
399.81	2983.89
400.03	2916.31
400.24	3272.65
400.45	2861.01
400.66	3135.44
400.88	3012.56
401.09	3241.93
401.30	3037.14
401.51	3194.83
401.73	3131.34
401.94	3110.86
402.15	3112.91
402.36	3035.09
402.58	3209.17
402.79	3233.74
403.00	3168.21
403.21	3221.45
403.43	3209.17
403.64	3223.50
403.85	3141.58
404.06	3305.42
404.27	3172.30
404.49	3186.64
404.70	3078.10
404.91	3219.41
405.12	3217.36
405.34	3254.22
405.55	3356.62
405.76	3207.12
405.97	3160.02
406.19	3362.76
406.40	3217.36
406.61	3274.70
406.82	3413.96
407.03	3278.80
407.25	3190.74
407.46	3370.96
407.67	3340.24
407.88	3518.41
408.09	3325.90
408.31	3403.72
408.52	3420.11
408.73	3303.37
408.94	3377.10
409.15	3469.26
409.37	3442.64
409.58	3522.51
409.79	3452.88
410.00	3536.84
410.21	3469.26
410.43	3442.64
410.64	3258.32
410.85	3448.78
411.06	3547.08
411.27	3418.06
411.48	3639.24
411.70	3510.22
411.91	3469.26
412.12	3641.29
412.33	3606.47
412.54	3618.76
412.76	3672.01
412.97	3772.36
413.18	3499.98
413.39	3522.51
413.60	3688.39
413.81	3608.52
414.03	3639.24
414.24	3588.04
414.45	3749.83
414.66	3573.71
414.87	3721.16
415.08	3604.42
415.30	3702.73
415.51	3669.96
415.72	3788.74
415.93	3743.69
416.14	3729.35
416.35	3866.56
416.56	3913.67
416.78	3962.82
416.99	3854.28
417.20	3825.61
417.41	3903.43
417.62	3944.39
417.83	3985.35
418.04	3907.52
418.26	3934.15
418.47	3846.09
418.68	3897.28
418.89	3856.33
419.10	4118.47
419.31	3923.91
419.52	4046.79
419.73	4071.36
419.95	4032.45
420.16	3921.86
420.37	3997.64
420.58	4116.42
420.79	3968.96
421.00	4042.69
421.21	4179.90
421.42	3956.68
421.63	4227.01
421.85	4067.27
422.06	4227.01
422.27	4188.10
422.48	4165.57
422.69	4267.97
422.90	4177.86
423.11	4179.90
423.32	4284.35
423.53	4468.67
423.75	4274.11
423.96	4593.59
424.17	4333.50
424.38	4564.92
424.59	4491.20
424.80	4589.50
425.01	4433.85
425.22	4435.90
425.43	4452.28
425.64	4747.19
425.85	4622.27
426.06	4513.72
426.28	4583.35
426.49	4495.29
426.70	4503.48
426.91	4579.26
427.12	4724.66
427.33	4667.32
427.54	4571.07
427.75	4743.10
427.96	4939.70
428.17	4685.75
428.38	4739.00
428.59	4857.78
428.80	4827.06
429.01	4876.21
429.23	4825.01
429.44	5027.76
429.65	4935.60
429.86	4933.56
430.07	4863.93
430.28	4874.17
430.49	4933.56
430.70	5220.27
430.91	5042.10
431.12	5124.02
431.33	5128.11
431.54	5201.84
431.75	5029.81
431.96	5173.17
432.17	5226.42
432.38	5158.83
432.59	5287.86
432.80	5273.52
433.01	5369.77
433.22	5214.13
433.43	5294.00
433.64	5302.19
433.85	5265.33
434.06	5400.49
434.27	5201.84
434.49	5498.80
434.70	5480.36
434.91	5470.12
435.12	5498.80
435.33	5410.73
435.54	5537.71
435.75	5230.51
435.96	5461.93
436.17	5300.14
436.38	5646.25
436.59	5613.48
436.80	5486.51
437.01	5705.64
437.22	5597.10
437.43	5732.26
437.64	5431.21
437.85	5576.62
438.06	5746.60
438.27	5597.10
438.48	5668.78
438.69	5773.22
438.90	5664.68
439.11	5615.53
439.32	5836.71
439.53	5773.22
439.74	5732.26
439.95	5896.10
440.16	5955.49
440.37	5939.11
440.57	5945.25
440.78	5984.16
440.99	5947.30
441.20	5965.73
441.41	5758.89
441.62	5898.15
441.83	5846.95
442.04	6061.99
442.25	5928.87
442.46	6086.56
442.67	6150.05
442.88	6471.58
443.09	5978.02
443.30	6059.94
443.51	6197.15
443.72	6270.88
443.93	6111.14
444.14	6320.03
444.35	6037.41
444.56	6360.99
444.77	6154.15
444.98	6352.80
445.19	6352.80
445.40	6246.30
445.61	6494.11
445.81	6420.38
446.02	6438.81
446.23	6234.02
446.44	6164.39
446.65	6408.09
446.86	6547.36
447.07	6582.17
447.28	6805.40
447.49	6561.69
447.70	6559.64
447.91	6614.94
448.12	6561.69
448.33	6752.15
448.54	6813.59
448.74	6535.07
448.95	6717.34
449.16	6451.10
449.37	6952.85
449.58	6756.25
449.79	6860.70
450.00	6717.34
450.21	7034.77
450.42	6909.85
450.63	6870.94
450.84	6959.00
451.05	7004.05
451.25	6899.61
451.46	7057.30
451.67	7092.12
451.88	7092.12
452.09	7042.96
452.30	7073.68
452.51	6889.37
452.72	7276.43
452.93	7499.66
453.13	7053.20
453.34	6979.48
453.55	7323.54
453.76	7278.48
453.97	7507.85
454.18	7292.82
454.39	7507.85
454.60	7235.47
454.81	7477.13
455.01	7548.81
455.22	7301.01
455.43	7387.02
455.64	7597.96
455.85	7794.57
456.06	7729.03
456.27	7704.46
456.48	7643.02
456.68	7643.02
456.89	7892.87
457.10	7868.30
457.31	7804.81
457.52	7888.78
457.73	7962.50
457.94	8183.68
458.14	7866.25
458.35	8251.27
458.56	8069.00
458.77	7954.31
458.98	8191.88
459.19	8327.04
459.39	8353.66
459.60	8470.40
459.81	8247.17
460.02	8431.49
460.23	8380.29
460.44	8642.43
460.65	8544.13
460.85	8587.13
461.06	8642.43
461.27	8535.93
461.48	8970.10
461.69	8939.38
461.89	8531.84
462.10	8849.27
462.31	8621.95
462.52	8836.99
462.73	9004.92
462.94	9164.66
463.14	9023.35
463.35	9105.27
463.56	9469.81
463.77	9359.22
463.98	9092.98
464.18	9301.87
464.39	9473.90
464.60	9647.98
464.81	9512.81
465.02	9508.72
465.23	9760.62
465.43	9506.67
465.64	9865.07
465.85	9752.43
466.06	9686.89
466.27	9932.65
466.47	9938.79
466.68	10153.83
466.89	9899.88
467.10	10057.57
467.30	9893.74
467.51	10155.88
467.72	10450.78
467.93	10104.68
468.14	10198.88
468.34	10362.72
468.55	10360.67
468.76	10444.64
468.97	10327.91
469.17	10553.18
469.38	10757.98
469.59	11036.50
469.80	10737.50
470.01	10958.68
470.21	10909.53
470.42	10960.73
470.63	11143.00
470.84	11001.69
471.04	11323.22
471.25	11261.78
471.46	11376.47
471.67	11568.98
471.87	11497.30
472.08	11513.68
472.29	11820.88
472.50	11427.67
472.70	11519.82
472.91	11593.55
473.12	11798.35
473.33	11984.71
473.53	12154.69
473.74	12093.26
473.95	12332.87
474.16	12525.38
474.36	12302.15
474.57	12396.35
474.78	12654.40
474.99	12674.88
475.19	12631.87
475.40	12969.79
475.61	12900.16
475.81	13020.99
476.02	13393.72
476.23	12934.97
476.44	13188.92
476.64	13414.20
476.85	13627.18
477.06	13387.57
477.27	13864.75
477.47	13797.17
477.68	13713.20
477.89	13975.34
478.09	14042.92
478.30	13872.94
478.51	13934.38
478.71	14341.93
478.92	14204.71
479.13	14559.01
479.34	14761.76
479.54	14573.35
479.75	14554.91
479.96	14640.93
480.16	14933.79
480.37	14786.33
480.58	15116.06
480.78	15349.53
480.99	15365.91
481.20	15249.18
481.41	15269.66
481.61	15537.94
481.82	15693.58
482.03	15597.33
482.23	15599.38
482.44	16140.04
482.65	15935.24
482.85	16086.79
483.06	16011.02
483.27	16230.15
483.47	16211.72
483.68	16451.33
483.89	16344.84
484.09	16477.96
484.30	16502.53
484.51	16924.41
484.71	16979.71
484.92	16959.23
485.13	17233.66
485.33	16889.60
485.54	17080.06
485.75	17254.14
485.95	17327.86
486.16	17645.30
486.37	17284.86
486.57	17540.85
486.78	17628.92
486.98	17581.81
487.19	17999.60
487.40	17979.12
487.60	17837.81
487.81	18194.15
488.02	17987.31
488.22	18063.08
488.43	18550.50
488.64	18415.34
488.84	18501.35
489.05	18747.11
489.25	18548.45
489.46	19005.15
489.67	18826.98
489.87	19214.04
490.08	19087.07
490.29	19136.22
490.49	19379.93
490.70	19291.87
490.90	19377.88
491.11	19441.37
491.32	19388.12
491.52	19523.29
491.73	19543.77
491.94	19875.54
492.14	19668.69
492.35	20156.11
492.55	20031.18
492.76	19928.78
492.97	20059.85
493.17	20442.82
493.38	20133.58
493.58	20530.89
493.79	20811.46
494.00	20405.96
494.20	20762.31
494.41	20688.58
494.61	21194.43
494.82	20973.25
495.02	21178.04
495.23	21124.80
495.44	21196.48
495.64	21309.11
495.85	21362.36
496.05	21407.42
496.26	21350.07
496.47	21667.51
496.67	21616.31
496.88	21835.44
497.08	21434.04
497.29	21911.22
497.49	21827.25
497.70	22171.31
497.91	22032.05
498.11	22167.21
498.32	22277.80
498.52	22310.57
498.73	22429.35
498.93	22406.83
499.14	22681.25
499.34	22607.53
499.55	22693.54
499.76	22599.34
499.96	22759.08
500.17	22863.52
500.37	22965.92
500.58	22888.10
500.78	22959.78
500.99	22769.32
501.19	23201.44
501.40	23213.73
501.60	23322.27
501.81	23180.96
502.02	23336.60
502.22	22910.63
502.43	23295.64
502.63	23543.45
502.84	23651.99
503.04	23860.88
503.25	23756.44
503.45	23688.85
503.66	23830.16
503.86	23994.00
504.07	23713.43
504.27	23969.43
504.48	24256.14
504.68	24084.11
504.89	24495.75
505.09	24518.28
505.30	24561.29
505.50	24426.12
505.71	24678.02
505.91	24884.87
506.12	24467.08
506.32	24471.18
506.53	24592.01
506.73	25243.26
506.94	24831.62
507.14	24800.90
507.35	24888.96
507.55	25198.21
507.76	24921.73
507.96	25081.47
508.17	25398.91
508.37	25458.30
508.58	25200.26
508.78	25337.47
508.99	25644.66
509.19	25419.39
509.40	25615.99
509.60	25814.65
509.81	25859.70
510.01	25697.91
510.22	25646.71
510.42	25550.46
510.63	25835.13
510.83	25900.66
511.04	25935.48
511.24	26035.83
511.44	26291.82
511.65	26115.70
511.85	26166.90
512.06	26287.73
512.26	26484.33
512.47	26474.09
512.67	26312.30
512.88	26648.17
513.08	26246.77
513.29	26773.10
513.49	26668.65
513.69	26613.35
513.90	26838.63
514.10	26820.20
514.31	26891.88
514.51	26865.25
514.72	27223.65
514.92	26852.97
515.13	27012.71
515.33	27149.92
515.53	27287.14
515.74	27412.06
515.94	27477.60
516.15	27463.26
516.35	27244.13
516.56	27623.00
516.76	27598.43
516.96	27407.97
517.17	27973.21
517.37	27913.81
517.58	27985.49
517.78	27694.68
517.99	27815.51
518.19	28186.19
518.39	28247.63
518.60	28341.84
518.80	28298.83
519.01	28450.38
519.21	28337.74
519.41	28366.42
519.62	28552.78
519.82	28579.40
520.03	28696.14
520.23	28833.35
520.43	28487.25
520.64	29161.03
520.84	28866.12
521.05	29075.01
521.25	29107.78
521.45	29402.69
521.66	29124.16
521.86	29328.96
522.07	29089.35
522.27	29441.60
522.47	29486.65
522.68	29705.79
522.88	29799.99
523.08	29787.71
523.29	29988.41
523.49	29789.75
523.70	29996.60
523.90	30187.06
524.10	30250.55
524.31	30256.69
524.51	30172.72
524.71	30484.01
524.92	30516.78
525.12	30866.98
525.33	30907.94
525.53	30840.36
525.73	31047.21
525.94	30740.01
526.14	31157.80
526.34	30877.22
526.55	31307.30
526.75	31215.14
526.95	31303.20
527.16	31454.75
527.36	31503.90
527.56	31811.10
527.77	31811.10
527.97	32075.29
528.17	32128.53
528.38	32009.75
528.58	32112.15
528.78	32292.37
528.99	32181.78
529.19	32515.60
529.39	32390.67
529.60	32538.13
529.80	32706.06
530.00	32429.59
530.21	33338.88
530.41	33336.84
530.61	32697.87
530.82	33082.89
531.02	32839.18
531.22	33125.89
531.43	32845.32
531.63	33601.02
531.83	33619.46
532.04	33811.96
532.24	33783.29
532.44	33758.72
532.64	34096.63
532.85	34334.20
533.05	34362.87
533.25	34108.92
533.46	34063.86
533.66	34483.70
533.86	34854.38
534.07	35024.36
534.27	34799.08
534.47	34885.10
534.67	35300.84
534.88	34883.05
535.08	35145.19
535.28	35325.41
535.49	35450.34
535.69	35481.06
535.89	35735.01
536.09	35911.13
536.30	35655.14
536.50	35788.25
536.70	35958.24
536.91	36081.11
537.11	36300.25
537.31	36228.57
537.51	36617.68
537.72	36802.00
537.92	36879.82
538.12	36625.87
538.32	36791.76
538.53	36969.93
538.73	36709.84
538.93	37012.94
539.13	37242.31
539.34	36744.66
539.54	37070.28
539.74	37537.22
539.94	36896.20
540.15	37074.38
540.35	37629.38
540.55	37531.08
540.75	37443.01
540.96	37903.81
541.16	37531.08
541.36	37682.62
541.56	37647.81
541.77	38139.32
541.97	38352.31
542.17	38225.34
542.37	38225.34
542.58	38366.65
542.78	38174.14
542.98	38524.34
543.18	38385.08
543.38	38741.42
543.59	39196.07
543.79	38247.86
543.99	38694.32
544.19	39142.83
544.40	38868.40
544.60	39431.59
544.80	39271.85
545.00	39329.19
545.20	39392.68
545.41	39040.43
545.61	38972.85
545.81	39630.24
546.01	39538.08
546.21	39196.07
546.42	39484.84
546.62	39978.40
546.82	39720.35
547.02	39443.88
547.22	39919.01
547.43	39564.71
547.63	39732.64
547.83	40084.89
548.03	39660.96
548.23	40375.70
548.44	39871.90
548.64	40099.23
548.84	40048.03
549.04	40258.97
549.24	40650.13
549.45	41072.01
549.65	40267.16
549.85	40316.31
550.05	40603.03
550.25	40455.57
550.45	40992.14
550.66	40842.64
550.86	40471.96
551.06	41029.01
551.26	40834.45
551.46	40887.70
551.66	41387.40
551.87	41006.48
552.07	41100.68
552.27	40916.37
552.47	40994.19
552.67	41418.12
552.87	41172.36
553.07	41311.63
553.28	41487.75
553.48	41444.74
553.68	41756.03
553.88	41426.31
554.08	41614.72
554.28	41391.50
554.48	41465.22
554.69	41311.63
554.89	41565.57
555.09	41831.81
555.29	41753.99
555.49	41899.39
555.69	41850.24
555.89	41708.93
556.10	41895.30
556.30	41600.39
556.50	42151.29
556.70	41721.22
556.90	42368.38
557.10	42509.69
557.30	42055.04
557.50	42292.60
557.70	41997.70
557.91	42173.82
558.11	42026.37
558.31	42210.68
558.51	42370.43
558.71	42308.99
558.91	42321.27
559.11	42063.23
559.31	42382.71
559.51	42216.83
559.72	42702.20
559.92	42368.38
560.12	42485.11
560.32	42499.45
560.52	42603.89
560.72	42745.20
560.92	42880.37
561.12	42798.45
561.32	42976.62
561.52	42612.09
561.72	42806.64
561.93	42859.89
562.13	42931.57
562.33	42798.45
562.53	43156.85
562.73	42638.71
562.93	42966.38
563.13	43173.23
563.33	42499.45
563.53	43332.97
563.73	42743.16
563.93	43210.09
564.13	43433.32
564.33	42906.99
564.53	43181.42
564.74	43187.56
564.94	43036.02
565.14	43357.55
565.34	42694.00
565.54	43261.29
565.74	43758.95
565.94	43660.65
566.14	43281.77
566.34	43261.29
566.54	43636.07
566.74	43085.17
566.94	43568.49
567.14	43513.19
567.34	43212.14
567.54	43656.55
567.74	43570.54
567.94	43791.72
568.14	43734.37
568.34	43912.55
568.54	43613.54
568.74	43955.55
568.94	43779.43
569.14	43826.53
569.34	44092.77
569.54	43998.56
569.75	43847.01
569.95	43898.21
570.15	44098.91
570.35	44021.09
570.55	44006.75
570.75	44180.83
570.95	44350.81
571.15	44260.70
571.35	44272.99
571.55	44107.10
571.75	44176.73
571.95	44127.58
572.15	44281.18
572.35	44582.23
572.55	44242.27
572.75	44146.01
572.95	44442.97
573.15	44422.49
573.35	44830.04
573.55	44201.31
573.75	44473.69
573.95	44475.74
574.15	44635.48
574.35	45090.13
574.55	44578.14
574.75	44520.79
574.95	44823.89
575.15	44244.32
575.34	44762.45
575.54	45407.56
575.74	45122.90
575.94	45020.50
576.14	45155.66
576.34	45624.65
576.54	45331.79
576.74	45454.67
576.94	45116.75
577.14	45641.03
577.34	45872.45
577.54	45090.13
577.74	45405.52
577.94	45632.84
578.14	45542.73
578.34	46021.95
578.54	45450.57
578.74	45135.18
578.94	45458.76
579.14	45671.75
579.34	45641.03
579.54	45856.07
579.74	45940.04
579.94	46058.82
580.13	46130.50
580.33	46075.20
580.53	46050.63
580.73	46191.94
580.93	46050.63
581.13	46333.24
581.33	46275.90
581.53	46736.69
581.73	46427.45
581.93	46556.47
582.13	46652.73
582.33	46490.94
582.53	46296.38
582.73	46794.04
582.92	46595.38
583.12	46896.44
583.32	47322.41
583.52	46392.64
583.72	46900.53
583.92	46906.68
584.12	46959.92
584.32	47244.59
584.52	47138.10
584.72	47062.32
584.92	47279.41
585.11	47953.19
585.31	47172.91
585.51	47256.88
585.71	47594.79
585.91	47699.24
586.11	47273.26
586.31	47582.51
586.51	47519.02
586.71	47740.20
586.91	47934.76
587.10	47318.32
587.30	47756.58
587.50	47873.32
587.70	47830.31
587.90	48067.87
588.10	48114.98
588.30	47713.58
588.50	48330.01
