SpectraSuite Data File
++++++++++++++++++++++++++++++++++++
Date: Fri Jun 02 14:57:23 CEST 2017
User: INFO_000
Dark Spectrum Present: No
Reference Spectrum Present: No
Number of Sampled Component Spectra: 1
Spectrometers: USB4H00879
Integration Time (usec): 80000 (USB4H00879)
Spectra Averaged: 1 (USB4H00879)
Boxcar Smoothing: 0 (USB4H00879)
Correct for Electrical Dark: No (USB4H00879)
Strobe/Lamp Enabled: No (USB4H00879)
Correct for Detector Non-linearity: No (USB4H00879)
Correct for Stray Light: No (USB4H00879)
Number of Pixels in Processed Spectrum: 3648
>>>>>Begin Processed Spectral Data<<<<<
345.13	1257.45
345.34	1257.45
345.56	1257.45
345.78	1232.88
345.99	1243.12
346.21	1693.67
346.42	1761.25
346.64	1675.24
346.86	1746.92
347.07	1746.92
347.29	1716.20
347.50	1632.23
347.72	1679.33
347.94	1714.15
348.15	1597.42
348.37	1583.08
348.59	1722.34
348.80	1638.38
349.02	1818.60
349.23	1949.67
349.45	1855.46
349.67	1808.36
349.88	1828.84
350.10	1959.91
350.31	1855.46
350.53	1882.08
350.75	2039.78
350.96	1787.88
351.18	1914.85
351.39	1873.89
351.61	1781.73
351.82	1900.52
352.04	1894.37
352.26	1884.13
352.47	1871.84
352.69	1877.99
352.90	1837.03
353.12	1916.90
353.34	1886.18
353.55	2013.15
353.77	1865.70
353.98	1826.79
354.20	1824.74
354.41	1914.85
354.63	1904.61
354.85	2097.12
355.06	1884.13
355.28	1822.69
355.49	1877.99
355.71	1886.18
355.92	1894.37
356.14	1855.46
356.35	1888.23
356.57	1798.12
356.79	1955.81
357.00	1890.28
357.22	1990.63
357.43	1888.23
357.65	1957.86
357.86	1898.47
358.08	1837.03
358.29	1892.32
358.51	1970.15
358.72	1994.72
358.94	1992.67
359.16	1920.99
359.37	1935.33
359.59	1937.38
359.80	2002.91
360.02	1925.09
360.23	1955.81
360.45	2011.11
360.66	1955.81
360.88	1820.64
361.09	1925.09
361.31	1908.71
361.52	1920.99
361.74	2140.13
361.95	2037.73
362.17	2000.87
362.38	2037.73
362.60	1978.34
362.81	1955.81
363.03	1947.62
363.24	2029.54
363.46	2068.45
363.67	1984.48
363.89	2138.08
364.10	1988.58
364.32	1935.33
364.53	1996.77
364.75	1849.32
364.96	2037.73
365.18	1961.95
365.39	2023.39
365.61	1945.57
365.82	2146.27
366.04	2002.91
366.25	1990.63
366.47	2031.58
366.68	2037.73
366.90	2007.01
367.11	2080.74
367.33	2115.55
367.54	2037.73
367.76	2076.64
367.97	2164.70
368.19	2007.01
368.40	2013.15
368.62	1914.85
368.83	2011.11
369.05	2015.20
369.26	2009.06
369.48	1961.95
369.69	2019.30
369.91	2181.09
370.12	1998.82
370.33	2117.60
370.55	2002.91
370.76	1978.34
370.98	2136.03
371.19	2095.07
371.41	2017.25
371.62	2088.93
371.84	2009.06
372.05	2197.47
372.27	2103.26
372.48	2086.88
372.69	2060.26
372.91	2119.65
373.12	2197.47
373.34	1990.63
373.55	2097.12
373.77	2213.85
373.98	2035.68
374.20	2224.09
374.41	2240.48
374.62	2170.85
374.84	2189.28
375.05	2144.22
375.27	2228.19
375.48	2111.46
375.70	2088.93
375.91	2179.04
376.12	2240.48
376.34	2148.32
376.55	2199.52
376.77	2168.80
376.98	2125.79
377.19	2170.85
377.41	2185.18
377.62	2181.09
377.84	2185.18
378.05	2306.01
378.27	2238.43
378.48	2353.12
378.69	2271.20
378.91	2271.20
379.12	2236.38
379.34	2248.67
379.55	2279.39
379.76	2215.90
379.98	2244.57
380.19	2301.92
380.41	2187.23
380.62	2301.92
380.83	2172.89
381.05	2320.35
381.26	2463.71
381.47	2136.03
381.69	2271.20
381.90	2435.03
382.12	2220.00
382.33	2248.67
382.54	2207.71
382.76	2312.16
382.97	2389.98
383.19	2344.92
383.40	2373.60
383.61	2322.40
383.83	2248.67
384.04	2355.16
384.25	2359.26
384.47	2410.46
384.68	2422.75
384.89	2351.07
385.11	2281.44
385.32	2377.69
385.54	2322.40
385.75	2320.35
385.96	2361.31
386.18	2404.32
386.39	2383.84
386.60	2344.92
386.82	2455.51
387.03	2402.27
387.24	2475.99
387.46	2531.29
387.67	2502.62
387.88	2441.18
388.10	2441.18
388.31	2488.28
388.52	2594.78
388.74	2453.47
388.95	2627.54
389.16	2512.86
389.38	2519.00
389.59	2641.88
389.80	2564.06
390.02	2590.68
390.23	2580.44
390.44	2533.34
390.66	2551.77
390.87	2467.80
391.08	2582.49
391.30	2625.50
391.51	2582.49
391.72	2650.07
391.94	2605.02
392.15	2584.54
392.36	2613.21
392.58	2615.26
392.79	2680.79
393.00	2633.69
393.22	2676.70
393.43	2682.84
393.64	2805.72
393.85	2691.03
394.07	2617.30
394.28	2744.28
394.49	2742.23
394.71	2695.13
394.92	2840.53
395.13	2715.61
395.35	2748.37
395.56	2715.61
395.77	2772.95
395.98	2809.81
396.20	2789.33
396.41	2826.20
396.62	2949.08
396.84	2787.29
397.05	2799.57
397.26	3028.95
397.47	2920.40
397.69	2871.25
397.90	3053.52
398.11	2930.64
398.32	2922.45
398.54	2781.14
398.75	2844.63
398.96	2936.79
399.18	3008.47
399.39	2953.17
399.60	3020.75
399.81	2975.70
400.03	2916.31
400.24	3262.41
400.45	2973.65
400.66	3102.67
400.88	3043.28
401.09	3213.26
401.30	3045.33
401.51	3203.02
401.73	3100.62
401.94	3074.00
402.15	3047.38
402.36	3182.54
402.58	3151.82
402.79	3231.69
403.00	3160.02
403.21	3215.31
403.43	3180.50
403.64	3346.38
403.85	3041.23
404.06	3123.15
404.27	3145.68
404.49	3088.34
404.70	3084.24
404.91	3233.74
405.12	3264.46
405.34	3280.85
405.55	3334.09
405.76	3196.88
405.97	3213.26
406.19	3307.47
406.40	3211.22
406.61	3282.89
406.82	3391.44
407.03	3317.71
407.25	3291.09
407.46	3391.44
407.67	3362.76
407.88	3360.72
408.09	3403.72
408.31	3291.09
408.52	3463.12
408.73	3344.33
408.94	3235.79
409.15	3461.07
409.37	3444.68
409.58	3420.11
409.79	3399.63
410.00	3583.95
410.21	3352.52
410.43	3506.12
410.64	3407.82
410.85	3485.64
411.06	3565.51
411.27	3489.74
411.48	3575.75
411.70	3547.08
411.91	3612.62
412.12	3665.86
412.33	3573.71
412.54	3518.41
412.76	3651.53
412.97	3792.84
413.18	3510.22
413.39	3612.62
413.60	3557.32
413.81	3637.19
414.03	3665.86
414.24	3698.63
414.45	3860.42
414.66	3633.10
414.87	3665.86
415.08	3723.21
415.30	3583.95
415.51	3758.02
415.72	3708.87
415.93	3717.06
416.14	3803.08
416.35	3753.93
416.56	3702.73
416.78	3874.76
416.99	3874.76
417.20	3678.15
417.41	3860.42
417.62	3854.28
417.83	3905.48
418.04	3856.33
418.26	3960.77
418.47	3811.27
418.68	3940.29
418.89	3936.20
419.10	4034.50
419.31	3907.52
419.52	4014.02
419.73	4001.73
419.95	4100.03
420.16	3938.24
420.37	3889.09
420.58	3966.92
420.79	3784.65
421.00	4069.31
421.21	4157.38
421.42	4001.73
421.63	4112.32
421.85	4052.93
422.06	3997.64
422.27	4145.09
422.48	4116.42
422.69	4239.30
422.90	4263.87
423.11	4155.33
423.32	4315.07
423.53	4308.93
423.75	4247.49
423.96	4366.27
424.17	4407.23
424.38	4362.17
424.59	4300.73
424.80	4440.00
425.01	4460.48
425.22	4429.76
425.43	4474.81
425.64	4560.83
425.85	4607.93
426.06	4503.48
426.28	4552.63
426.49	4415.42
426.70	4413.37
426.91	4591.55
427.12	4501.44
427.33	4521.92
427.54	4526.01
427.75	4644.79
427.96	4710.33
428.17	4624.31
428.38	4683.70
428.59	4753.34
428.80	4741.05
429.01	4718.52
429.23	4724.66
429.44	4923.32
429.65	4874.17
429.86	4849.59
430.07	4718.52
430.28	4777.91
430.49	4933.56
430.70	5097.39
430.91	5113.78
431.12	4999.09
431.33	5033.91
431.54	5011.38
431.75	5029.81
431.96	4968.37
432.17	5035.96
432.38	5023.67
432.59	5304.24
432.80	5226.42
433.01	5267.38
433.22	5246.90
433.43	5158.83
433.64	5332.91
433.85	5314.48
434.06	5222.32
434.27	5228.46
434.49	5449.64
434.70	5351.34
434.91	5277.62
435.12	5412.78
435.33	5392.30
435.54	5394.35
435.75	5236.66
435.96	5324.72
436.17	5332.91
436.38	5660.59
436.59	5572.52
436.80	5402.54
437.01	5744.55
437.22	5752.74
437.43	5615.53
437.64	5423.02
437.85	5760.94
438.06	5619.63
438.27	5625.77
438.48	5689.26
438.69	5724.07
438.90	5732.26
439.11	5611.43
439.32	5908.39
439.53	5742.50
439.74	5982.12
439.95	5879.72
440.16	5644.20
440.37	5875.62
440.57	5693.35
440.78	5975.97
440.99	5982.12
441.20	5908.39
441.41	5838.76
441.62	5949.35
441.83	5904.29
442.04	6043.56
442.25	6129.57
442.46	5990.31
442.67	6014.88
442.88	6551.45
443.09	5982.12
443.30	5996.45
443.51	6107.04
443.72	6363.04
443.93	6201.25
444.14	6410.14
444.35	6191.01
444.56	6143.91
444.77	6369.18
444.98	6367.13
445.19	6406.05
445.40	6387.61
445.61	6365.09
445.81	6365.09
446.02	6397.85
446.23	6424.48
446.44	6389.66
446.65	6487.96
446.86	6494.11
447.07	6573.98
447.28	6680.47
447.49	6647.71
447.70	6514.59
447.91	6739.87
448.12	6643.61
448.33	6758.30
448.54	6915.99
448.74	6651.80
448.95	6678.43
449.16	6668.19
449.37	6872.98
449.58	6692.76
449.79	7026.58
450.00	6768.54
450.21	6838.17
450.42	7016.34
450.63	7100.31
450.84	7161.75
451.05	6877.08
451.25	7071.64
451.46	6897.56
451.67	7096.21
451.88	7317.39
452.09	7366.54
452.30	7137.17
452.51	7112.60
452.72	7229.33
452.93	7440.27
453.13	7217.04
453.34	7161.75
453.55	7266.19
453.76	7305.10
453.97	7561.10
454.18	7364.50
454.39	7397.26
454.60	7337.87
454.81	7524.24
455.01	7663.50
455.22	7153.55
455.43	7559.05
455.64	7673.74
455.85	7784.33
456.06	7982.98
456.27	7874.44
456.48	7737.23
456.68	7806.86
456.89	7884.68
457.10	7909.26
457.31	7817.10
457.52	8023.94
457.73	8054.66
457.94	8226.69
458.14	7970.69
458.35	8396.67
458.56	8230.79
458.77	8054.66
458.98	8296.32
459.19	8253.31
459.39	8400.77
459.60	8546.17
459.81	8476.54
460.02	8402.82
460.23	8501.12
460.44	8660.86
460.65	8707.96
460.85	8523.65
461.06	8798.07
461.27	8525.69
461.48	9017.21
461.69	9054.07
461.89	8585.08
462.10	8888.18
462.31	8646.52
462.52	8734.59
462.73	8906.62
462.94	9146.23
463.14	9207.67
463.35	9191.28
463.56	9449.33
463.77	9148.28
463.98	9000.82
464.18	9301.87
464.39	9381.74
464.60	9555.82
464.81	9404.27
465.02	9396.08
465.23	9820.01
465.43	9412.46
465.64	9949.03
465.85	9660.27
466.06	9660.27
466.27	9940.84
466.47	9879.40
466.68	9996.14
466.89	10061.67
467.10	9949.03
467.30	9817.96
467.51	10307.43
467.72	10270.56
467.93	10092.39
468.14	10325.86
468.34	10364.77
468.55	10463.07
468.76	10526.56
468.97	10436.45
469.17	10612.57
469.38	10764.12
469.59	10887.00
469.80	10600.29
470.01	10624.86
470.21	10887.00
470.42	10975.06
470.63	11112.28
470.84	10915.67
471.04	11216.72
471.25	11116.37
471.46	11315.03
471.67	11616.08
471.87	11226.96
472.08	11663.18
472.29	11667.28
472.50	11605.84
472.70	11568.98
472.91	11579.22
473.12	11810.64
473.33	12097.35
473.53	11837.26
473.74	12128.07
473.95	12087.11
474.16	12095.30
474.36	12156.74
474.57	12349.25
474.78	12533.57
474.99	12345.16
475.19	12437.31
475.40	12642.11
475.61	12906.30
475.81	12758.85
476.02	12969.79
476.23	12875.58
476.44	13102.90
476.64	13346.61
476.85	13283.13
477.06	13115.19
477.27	13551.41
477.47	13461.30
477.68	13733.68
477.89	13731.63
478.09	13967.15
478.30	13698.86
478.51	13817.65
478.71	14128.94
478.92	14137.13
479.13	14075.69
479.34	14243.62
479.54	14100.26
479.75	14501.67
479.96	14421.80
480.16	14638.88
480.37	14681.89
480.58	14864.16
480.78	14923.55
480.99	14870.30
481.20	15011.61
481.41	15173.40
481.61	15093.53
481.82	15431.44
482.03	15370.01
482.23	15316.76
482.44	15507.22
482.65	15904.53
482.85	15855.37
483.06	15795.98
483.27	16133.90
483.47	16013.07
483.68	15912.72
483.89	16203.53
484.09	16238.34
484.30	16240.39
484.51	16531.20
484.71	16656.13
484.92	16303.88
485.13	16641.79
485.33	16867.07
485.54	16600.83
485.75	17051.39
485.95	17327.86
486.16	17141.50
486.37	17307.38
486.57	17161.98
486.78	17260.28
486.98	17559.28
487.19	17301.24
487.40	17579.76
487.60	17708.79
487.81	18183.91
488.02	17800.94
488.22	17893.10
488.43	17905.39
488.64	18192.11
488.84	18317.03
489.05	18482.92
489.25	18298.60
489.46	18642.66
489.67	18372.33
489.87	18728.67
490.08	18786.02
490.29	18880.22
490.49	19148.51
490.70	19031.77
490.90	19312.35
491.11	19259.10
491.32	19443.42
491.52	19269.34
491.73	19488.47
491.94	19988.18
492.14	19826.39
492.35	19963.60
492.55	20027.09
492.76	19859.15
492.97	20096.72
493.17	19984.08
493.38	19939.02
493.58	20522.69
493.79	20278.99
494.00	20367.05
494.20	20772.55
494.41	20803.27
494.61	20969.15
494.82	20874.95
495.02	21040.83
495.23	20952.77
495.44	21561.02
495.64	21042.88
495.85	21245.63
496.05	21071.55
496.26	21438.14
496.47	21747.38
496.67	21503.67
496.88	21722.80
497.08	21403.32
497.29	21888.69
497.49	21864.11
497.70	22312.62
497.91	22355.63
498.11	22468.27
498.32	22257.32
498.52	22326.96
498.73	22484.65
498.93	22554.28
499.14	22724.26
499.34	22519.46
499.55	22863.52
499.76	22775.46
499.96	23088.80
500.17	23203.49
500.37	22863.52
500.58	22869.67
500.78	23131.81
500.99	22986.40
501.19	23570.07
501.40	23408.28
501.60	23344.80
501.81	23627.42
502.02	23584.41
502.22	23594.65
502.43	23623.32
502.63	23832.21
502.84	23854.74
503.04	23979.67
503.25	24229.52
503.45	24383.12
503.66	24030.87
503.86	24346.25
504.07	24694.41
504.27	24342.16
504.48	24610.44
504.68	24223.37
504.89	24911.49
505.09	24778.37
505.30	24848.00
505.50	24700.55
505.71	24747.65
505.91	25026.18
506.12	24909.44
506.32	24884.87
506.53	24907.40
506.73	25077.38
506.94	25577.08
507.14	25499.26
507.35	25278.08
507.55	25560.70
507.76	25411.20
507.96	25368.19
508.17	25876.09
508.37	25681.53
508.58	25597.56
508.78	25763.45
508.99	26183.28
509.19	25874.04
509.40	26097.27
509.60	25564.79
509.81	26394.22
510.01	26076.79
510.22	26408.56
510.42	26224.24
510.63	26291.82
510.83	26316.40
511.04	26355.31
511.24	26527.34
511.44	26465.90
511.65	26588.78
511.85	26658.41
512.06	26832.49
512.26	26969.70
512.47	27008.61
512.67	26957.41
512.88	26881.64
513.08	26906.21
513.29	26981.99
513.49	27045.48
513.69	27182.69
513.90	27317.86
514.10	27209.31
514.31	27698.78
514.51	27154.02
514.72	27520.60
514.92	27446.88
515.13	27330.14
515.33	27459.16
515.53	28108.37
515.74	27663.96
515.94	27797.08
516.15	27825.75
516.35	27891.29
516.56	28020.31
516.76	27569.76
516.96	28081.75
517.17	28368.46
517.37	28239.44
517.58	27969.11
517.78	28178.00
517.99	28440.14
518.19	28171.86
518.39	28769.86
518.60	28743.24
518.80	28427.85
519.01	28825.16
519.21	28735.05
519.41	29077.06
519.62	28956.23
519.82	28952.13
520.03	29048.39
520.23	28808.78
520.43	28716.62
520.64	29433.41
520.84	29595.20
521.05	29371.97
521.25	29662.78
521.45	29550.14
521.66	29697.59
521.86	29607.48
522.07	29668.92
522.27	29730.36
522.47	29304.38
522.68	30033.46
522.88	29552.19
523.08	30170.68
523.29	30070.33
523.49	30185.01
523.70	30346.80
523.90	30621.23
524.10	30354.99
524.31	30514.73
524.51	30373.42
524.71	30942.76
524.92	30774.83
525.12	30877.22
525.33	30656.04
525.53	31397.41
525.73	31292.96
525.94	31204.90
526.14	31161.89
526.34	31460.90
526.55	31075.88
526.75	31473.18
526.95	31682.08
527.16	31372.83
527.36	31647.26
527.56	31901.21
527.77	31890.97
527.97	31739.42
528.17	31911.45
528.38	31692.32
528.58	32026.14
528.78	32386.58
528.99	32185.88
529.19	32347.67
529.39	32314.90
529.60	32325.14
529.80	32597.52
530.00	32280.08
530.21	32720.40
530.41	32943.63
530.61	32704.01
530.82	32824.84
531.02	33123.85
531.22	33007.11
531.43	33287.68
531.63	33324.55
531.83	33633.79
532.04	33836.54
532.24	33435.14
532.44	33969.66
532.64	33758.72
532.85	33625.60
533.05	33816.06
533.25	33961.47
533.46	33650.17
533.66	34434.55
533.86	34047.48
534.07	34573.81
534.27	34291.19
534.47	34637.30
534.67	34846.19
534.88	34510.32
535.08	34432.50
535.28	34778.61
535.49	35280.36
535.69	35007.98
535.89	35284.45
536.09	35161.58
536.30	35352.04
536.50	35601.89
536.70	35296.74
536.91	35698.14
537.11	35845.60
537.31	35706.34
537.51	35821.02
537.72	36150.74
537.92	36124.12
538.12	36359.64
538.32	35913.18
538.53	36591.06
538.73	36181.46
538.93	36677.07
539.13	36312.53
539.34	36421.08
539.54	36271.57
539.74	36877.77
539.94	36720.08
540.15	36298.20
540.35	37041.61
540.55	36922.83
540.75	36937.16
540.96	36804.05
541.16	37213.64
541.36	37115.34
541.56	36892.11
541.77	37254.60
541.97	37098.95
542.17	37502.40
542.37	37819.84
542.58	37565.89
542.78	38106.55
542.98	37735.87
543.18	38026.68
543.38	38217.14
543.59	38137.27
543.79	37807.55
543.99	37934.53
544.19	38114.75
544.40	38106.55
544.60	38583.73
544.80	38147.51
545.00	38272.44
545.20	38675.89
545.41	38075.84
545.61	38444.47
545.81	38860.21
546.01	38667.70
546.21	38778.29
546.42	38759.86
546.62	39026.09
546.82	38733.23
547.02	39048.62
547.22	39343.53
547.43	39073.20
547.63	39087.53
547.83	39091.63
548.03	39259.56
548.23	39273.90
548.44	39296.42
548.64	39493.03
548.84	39302.57
549.04	39566.76
549.24	39454.12
549.45	40015.26
549.65	39832.99
549.85	39499.17
550.05	40189.34
550.25	39693.73
550.45	40326.55
550.66	39785.89
550.86	39536.04
551.06	40596.88
551.26	39953.82
551.46	40240.54
551.66	40324.50
551.87	40066.46
552.07	40568.21
552.27	40236.44
552.47	40203.67
552.67	40793.49
552.87	40375.70
553.07	40338.84
553.28	40496.53
553.48	40342.94
553.68	40541.59
553.88	40842.64
554.08	40719.76
554.28	41031.05
554.48	40414.62
554.69	40863.12
554.89	40850.83
555.09	40861.07
555.29	40768.91
555.49	41123.21
555.69	40883.60
555.89	40990.09
556.10	41350.54
556.30	40918.42
556.50	41500.04
556.70	41233.80
556.90	41323.91
557.10	41467.27
557.30	40793.49
557.50	41805.19
557.70	41403.78
557.91	41645.44
558.11	41811.33
558.31	42079.61
558.51	41571.72
558.71	41792.90
558.91	41868.67
559.11	41913.73
559.31	41944.45
559.51	41627.01
559.72	41801.09
559.92	42251.64
560.12	41717.12
560.32	41932.16
560.52	41954.69
560.72	42255.74
560.92	42493.30
561.12	42562.93
561.32	42427.77
561.52	42050.94
561.72	42421.62
561.93	42321.27
562.13	42632.57
562.33	42450.30
562.53	43062.64
562.73	42222.97
562.93	42708.34
563.13	42886.51
563.33	42419.58
563.53	43015.54
563.73	42470.78
563.93	42890.61
564.13	42825.07
564.33	42950.00
564.53	42689.91
564.74	42780.02
564.94	42730.87
565.14	43158.89
565.34	42851.70
565.54	42646.90
565.74	42694.00
565.94	43451.75
566.14	43316.59
566.34	42763.64
566.54	43283.82
566.74	43058.54
566.94	43300.20
567.14	43468.14
567.34	43132.27
567.54	43242.86
567.74	43470.18
567.94	43490.66
568.14	43713.89
568.34	44121.44
568.54	43648.36
568.74	44002.66
568.94	43857.25
569.14	44328.28
569.34	44062.05
569.54	43937.12
569.75	43550.06
569.95	43877.73
570.15	44213.60
570.35	44367.20
570.55	43836.77
570.75	44340.57
570.95	43930.98
571.15	44232.03
571.35	44422.49
571.55	44272.99
571.75	44551.51
571.95	44342.62
572.15	44332.38
572.35	44647.77
572.55	44574.04
572.75	44377.43
572.95	44981.59
573.15	44533.08
573.35	44946.77
573.55	44645.72
573.75	44555.61
573.95	44922.19
574.15	45028.69
574.35	45159.76
574.55	45065.55
574.75	44928.34
574.95	45258.06
575.15	45227.34
575.34	45034.83
575.54	45241.68
575.74	45434.19
575.94	45428.04
576.14	45288.78
576.34	45864.26
576.54	45843.78
576.74	45958.47
576.94	45512.01
577.14	46216.51
577.34	45827.40
577.54	45616.46
577.74	45866.31
577.94	45716.81
578.14	46202.18
578.34	46517.56
578.54	45380.94
578.74	45538.63
578.94	46466.36
579.14	46134.59
579.34	46206.27
579.54	46107.97
579.74	46775.61
579.94	46087.49
580.13	46843.19
580.33	46505.27
580.53	46734.65
580.73	46814.52
580.93	46689.59
581.13	46808.37
581.33	46873.91
581.53	47025.46
581.73	46933.30
581.93	47314.22
582.13	47418.67
582.33	47365.42
582.53	47164.72
582.73	47334.70
582.92	47654.18
583.12	47619.37
583.32	47365.42
583.52	47406.38
583.72	48022.82
583.92	47580.46
584.12	47912.23
584.32	48358.69
584.52	47631.66
584.72	47791.40
584.92	48137.51
585.11	48078.11
585.31	48092.45
585.51	48364.83
585.71	48176.42
585.91	48719.13
586.11	48170.27
586.31	47930.66
586.51	48522.52
586.71	48301.34
586.91	48618.78
587.10	48829.72
587.30	48452.89
587.50	48364.83
587.70	48821.53
587.90	48801.05
588.10	48975.12
588.30	49095.95
588.50	49198.35
