SpectraSuite Data File
++++++++++++++++++++++++++++++++++++
Date: Fri Jun 02 14:57:16 CEST 2017
User: INFO_000
Dark Spectrum Present: No
Reference Spectrum Present: No
Number of Sampled Component Spectra: 1
Spectrometers: USB4H00879
Integration Time (usec): 80000 (USB4H00879)
Spectra Averaged: 1 (USB4H00879)
Boxcar Smoothing: 0 (USB4H00879)
Correct for Electrical Dark: No (USB4H00879)
Strobe/Lamp Enabled: No (USB4H00879)
Correct for Detector Non-linearity: No (USB4H00879)
Correct for Stray Light: No (USB4H00879)
Number of Pixels in Processed Spectrum: 3648
>>>>>Begin Processed Spectral Data<<<<<
345.13	1257.45
345.34	1257.45
345.56	1257.45
345.78	1329.13
345.99	1269.74
346.21	1744.87
346.42	1652.71
346.64	1632.23
346.86	1775.59
347.07	1695.72
347.29	1740.77
347.50	1648.61
347.72	1697.77
347.94	1736.68
348.15	1603.56
348.37	1570.79
348.59	1617.90
348.80	1624.04
349.02	1703.91
349.23	1787.88
349.45	1720.29
349.67	1748.97
349.88	1708.01
350.10	1898.47
350.31	1656.81
350.53	1771.49
350.75	1863.65
350.96	1677.29
351.18	1787.88
351.39	1796.07
351.61	1679.33
351.82	1787.88
352.04	1753.06
352.26	1648.61
352.47	1785.83
352.69	1779.68
352.90	1642.47
353.12	1679.33
353.34	1728.49
353.55	1769.44
353.77	1691.62
353.98	1724.39
354.20	1724.39
354.41	1781.73
354.63	1710.05
354.85	1896.42
355.06	1742.82
355.28	1615.85
355.49	1728.49
355.71	1726.44
355.92	1736.68
356.14	1763.30
356.35	1699.81
356.57	1714.15
356.79	1798.12
357.00	1646.57
357.22	1789.92
357.43	1634.28
357.65	1781.73
357.86	1660.90
358.08	1701.86
358.29	1767.40
358.51	1748.97
358.72	1691.62
358.94	1689.57
359.16	1691.62
359.37	1757.16
359.59	1744.87
359.80	1744.87
360.02	1714.15
360.23	1712.10
360.45	1740.77
360.66	1660.90
360.88	1628.14
361.09	1683.43
361.31	1746.92
361.52	1677.29
361.74	1755.11
361.95	1761.25
362.17	1732.58
362.38	1814.50
362.60	1789.92
362.81	1722.34
363.03	1665.00
363.24	1673.19
363.46	1806.31
363.67	1746.92
363.89	1740.77
364.10	1751.01
364.32	1675.24
364.53	1744.87
364.75	1626.09
364.96	1722.34
365.18	1724.39
365.39	1705.96
365.61	1603.56
365.82	1820.64
366.04	1642.47
366.25	1687.53
366.47	1701.86
366.68	1740.77
366.90	1609.70
367.11	1759.21
367.33	1716.20
367.54	1765.35
367.76	1712.10
367.97	1720.29
368.19	1744.87
368.40	1843.17
368.62	1619.94
368.83	1621.99
369.05	1732.58
369.26	1675.24
369.48	1599.46
369.69	1644.52
369.91	1689.57
370.12	1714.15
370.33	1785.83
370.55	1619.94
370.76	1685.48
370.98	1716.20
371.19	1720.29
371.41	1675.24
371.62	1705.96
371.84	1576.94
372.05	1816.55
372.27	1693.67
372.48	1683.43
372.69	1669.09
372.91	1730.53
373.12	1746.92
373.34	1679.33
373.55	1720.29
373.77	1794.02
373.98	1732.58
374.20	1732.58
374.41	1783.78
374.62	1724.39
374.84	1687.53
375.05	1703.91
375.27	1722.34
375.48	1728.49
375.70	1646.57
375.91	1744.87
376.12	1843.17
376.34	1689.57
376.55	1669.09
376.77	1775.59
376.98	1656.81
377.19	1650.66
377.41	1671.14
377.62	1767.40
377.84	1701.86
378.05	1839.08
378.27	1726.44
378.48	1873.89
378.69	1808.36
378.91	1882.08
379.12	1689.57
379.34	1734.63
379.55	1773.54
379.76	1746.92
379.98	1691.62
380.19	1714.15
380.41	1693.67
380.62	1738.73
380.83	1730.53
381.05	1591.27
381.26	1765.35
381.47	1716.20
381.69	1646.57
381.90	1869.80
382.12	1724.39
382.33	1716.20
382.54	1634.28
382.76	1705.96
382.97	1712.10
383.19	1599.46
383.40	1695.72
383.61	1710.05
383.83	1599.46
384.04	1675.24
384.25	1734.63
384.47	1746.92
384.68	1703.91
384.89	1648.61
385.11	1716.20
385.32	1652.71
385.54	1705.96
385.75	1722.34
385.96	1726.44
386.18	1619.94
386.39	1697.77
386.60	1726.44
386.82	1667.05
387.03	1677.29
387.24	1783.78
387.46	1742.82
387.67	1726.44
387.88	1761.25
388.10	1708.01
388.31	1689.57
388.52	1740.77
388.74	1697.77
388.95	1730.53
389.16	1695.72
389.38	1662.95
389.59	1798.12
389.80	1744.87
390.02	1669.09
390.23	1742.82
390.44	1667.05
390.66	1683.43
390.87	1650.66
391.08	1757.16
391.30	1802.21
391.51	1761.25
391.72	1744.87
391.94	1726.44
392.15	1720.29
392.36	1644.52
392.58	1718.25
392.79	1679.33
393.00	1697.77
393.22	1773.54
393.43	1781.73
393.64	1708.01
393.85	1781.73
394.07	1628.14
394.28	1646.57
394.49	1644.52
394.71	1673.19
394.92	1759.21
395.13	1689.57
395.35	1677.29
395.56	1660.90
395.77	1730.53
395.98	1667.05
396.20	1746.92
396.41	1683.43
396.62	1714.15
396.84	1611.75
397.05	1634.28
397.26	1724.39
397.47	1796.07
397.69	1644.52
397.90	1884.13
398.11	1687.53
398.32	1669.09
398.54	1667.05
398.75	1679.33
398.96	1699.81
399.18	1855.46
399.39	1611.75
399.60	1714.15
399.81	1720.29
400.03	1654.76
400.24	1935.33
400.45	1736.68
400.66	1773.54
400.88	1658.85
401.09	1943.52
401.30	1712.10
401.51	1736.68
401.73	1785.83
401.94	1728.49
402.15	1652.71
402.36	1761.25
402.58	1781.73
402.79	1765.35
403.00	1716.20
403.21	1775.59
403.43	1728.49
403.64	1775.59
403.85	1626.09
404.06	1822.69
404.27	1626.09
404.49	1779.68
404.70	1708.01
404.91	1808.36
405.12	1753.06
405.34	1728.49
405.55	1857.51
405.76	1617.90
405.97	1720.29
406.19	1806.31
406.40	1544.17
406.61	1744.87
406.82	1583.08
407.03	1712.10
407.25	1642.47
407.46	1728.49
407.67	1765.35
407.88	1892.32
408.09	1691.62
408.31	1699.81
408.52	1761.25
408.73	1642.47
408.94	1662.95
409.15	1691.62
409.37	1757.16
409.58	1699.81
409.79	1773.54
410.00	1837.03
410.21	1671.14
410.43	1736.68
410.64	1699.81
410.85	1802.21
411.06	1665.00
411.27	1769.44
411.48	1730.53
411.70	1785.83
411.91	1695.72
412.12	1757.16
412.33	1812.45
412.54	1769.44
412.76	1675.24
412.97	1781.73
413.18	1673.19
413.39	1718.25
413.60	1765.35
413.81	1732.58
414.03	1634.28
414.24	1621.99
414.45	1830.88
414.66	1626.09
414.87	1714.15
415.08	1703.91
415.30	1699.81
415.51	1748.97
415.72	1771.49
415.93	1732.58
416.14	1761.25
416.35	1710.05
416.56	1732.58
416.78	1777.64
416.99	1693.67
417.20	1744.87
417.41	1699.81
417.62	1718.25
417.83	1748.97
418.04	1699.81
418.26	1810.40
418.47	1757.16
418.68	1769.44
418.89	1755.11
419.10	1861.60
419.31	1687.53
419.52	1693.67
419.73	1732.58
419.95	1773.54
420.16	1699.81
420.37	1769.44
420.58	1777.64
420.79	1615.85
421.00	1716.20
421.21	1638.38
421.42	1695.72
421.63	1746.92
421.85	1658.85
422.06	1675.24
422.27	1683.43
422.48	1718.25
422.69	1576.94
422.90	1658.85
423.11	1667.05
423.32	1832.93
423.53	1802.21
423.75	1632.23
423.96	1849.32
424.17	1800.16
424.38	1796.07
424.59	1624.04
424.80	1671.14
425.01	1697.77
425.22	1576.94
425.43	1720.29
425.64	1748.97
425.85	1765.35
426.06	1845.22
426.28	1771.49
426.49	1597.42
426.70	1644.52
426.91	1607.66
427.12	1738.73
427.33	1648.61
427.54	1740.77
427.75	1669.09
427.96	1691.62
428.17	1759.21
428.38	1660.90
428.59	1765.35
428.80	1708.01
429.01	1728.49
429.23	1767.40
429.44	1644.52
429.65	1742.82
429.86	1708.01
430.07	1628.14
430.28	1630.18
430.49	1669.09
430.70	1759.21
430.91	1824.74
431.12	1621.99
431.33	1695.72
431.54	1730.53
431.75	1734.63
431.96	1613.80
432.17	1730.53
432.38	1755.11
432.59	1777.64
432.80	1765.35
433.01	1693.67
433.22	1742.82
433.43	1740.77
433.64	1744.87
433.85	1761.25
434.06	1759.21
434.27	1572.84
434.49	1681.38
434.70	1789.92
434.91	1703.91
435.12	1656.81
435.33	1665.00
435.54	1681.38
435.75	1630.18
435.96	1677.29
436.17	1632.23
436.38	1763.30
436.59	1753.06
436.80	1697.77
437.01	1781.73
437.22	1744.87
437.43	1761.25
437.64	1710.05
437.85	1716.20
438.06	1755.11
438.27	1640.42
438.48	1675.24
438.69	1777.64
438.90	1656.81
439.11	1673.19
439.32	1779.68
439.53	1640.42
439.74	1617.90
439.95	1656.81
440.16	1714.15
440.37	1771.49
440.57	1599.46
440.78	1767.40
440.99	1732.58
441.20	1669.09
441.41	1605.61
441.62	1691.62
441.83	1599.46
442.04	1693.67
442.25	1640.42
442.46	1558.50
442.67	1613.80
442.88	1791.97
443.09	1673.19
443.30	1624.04
443.51	1669.09
443.72	1673.19
443.93	1705.96
444.14	1859.56
444.35	1617.90
444.56	1691.62
444.77	1650.66
444.98	1759.21
445.19	1728.49
445.40	1673.19
445.61	1671.14
445.81	1667.05
446.02	1810.40
446.23	1738.73
446.44	1628.14
446.65	1740.77
446.86	1716.20
447.07	1834.98
447.28	1662.95
447.49	1755.11
447.70	1687.53
447.91	1724.39
448.12	1638.38
448.33	1703.91
448.54	1710.05
448.74	1632.23
448.95	1701.86
449.16	1720.29
449.37	1789.92
449.58	1775.59
449.79	1718.25
450.00	1728.49
450.21	1648.61
450.42	1671.14
450.63	1767.40
450.84	1724.39
451.05	1751.01
451.25	1624.04
451.46	1593.32
451.67	1787.88
451.88	1695.72
452.09	1718.25
452.30	1597.42
452.51	1644.52
452.72	1769.44
452.93	1806.31
453.13	1687.53
453.34	1634.28
453.55	1695.72
453.76	1642.47
453.97	1705.96
454.18	1665.00
454.39	1722.34
454.60	1675.24
454.81	1705.96
455.01	1761.25
455.22	1650.66
455.43	1699.81
455.64	1699.81
455.85	1708.01
456.06	1642.47
456.27	1808.36
456.48	1642.47
456.68	1660.90
456.89	1802.21
457.10	1740.77
457.31	1687.53
457.52	1697.77
457.73	1632.23
457.94	1683.43
458.14	1656.81
458.35	1640.42
458.56	1685.48
458.77	1669.09
458.98	1724.39
459.19	1679.33
459.39	1736.68
459.60	1685.48
459.81	1632.23
460.02	1781.73
460.23	1710.05
460.44	1591.27
460.65	1705.96
460.85	1681.38
461.06	1617.90
461.27	1665.00
461.48	1687.53
461.69	1593.32
461.89	1568.74
462.10	1640.42
462.31	1615.85
462.52	1609.70
462.73	1658.85
462.94	1720.29
463.14	1634.28
463.35	1646.57
463.56	1808.36
463.77	1705.96
463.98	1611.75
464.18	1697.77
464.39	1763.30
464.60	1748.97
464.81	1611.75
465.02	1693.67
465.23	1761.25
465.43	1701.86
465.64	1634.28
465.85	1716.20
466.06	1673.19
466.27	1689.57
466.47	1679.33
466.68	1796.07
466.89	1720.29
467.10	1626.09
467.30	1617.90
467.51	1712.10
467.72	1820.64
467.93	1609.70
468.14	1609.70
468.34	1757.16
468.55	1644.52
468.76	1800.16
468.97	1740.77
469.17	1701.86
469.38	1722.34
469.59	1734.63
469.80	1748.97
470.01	1728.49
470.21	1714.15
470.42	1615.85
470.63	1773.54
470.84	1716.20
471.04	1636.33
471.25	1892.32
471.46	1681.38
471.67	1834.98
471.87	1685.48
472.08	1708.01
472.29	1679.33
472.50	1697.77
472.70	1671.14
472.91	1605.61
473.12	1609.70
473.33	1675.24
473.53	1806.31
473.74	1585.13
473.95	1677.29
474.16	1673.19
474.36	1613.80
474.57	1798.12
474.78	1679.33
474.99	1740.77
475.19	1746.92
475.40	1773.54
475.61	1794.02
475.81	1708.01
476.02	1656.81
476.23	1720.29
476.44	1712.10
476.64	1638.38
476.85	1609.70
477.06	1718.25
477.27	1671.14
477.47	1697.77
477.68	1667.05
477.89	1691.62
478.09	1777.64
478.30	1708.01
478.51	1642.47
478.71	1673.19
478.92	1744.87
479.13	1699.81
479.34	1621.99
479.54	1656.81
479.75	1695.72
479.96	1677.29
480.16	1660.90
480.37	1667.05
480.58	1701.86
480.78	1740.77
480.99	1642.47
481.20	1693.67
481.41	1726.44
481.61	1777.64
481.82	1834.98
482.03	1644.52
482.23	1638.38
482.44	1701.86
482.65	1808.36
482.85	1736.68
483.06	1679.33
483.27	1757.16
483.47	1722.34
483.68	1703.91
483.89	1765.35
484.09	1740.77
484.30	1687.53
484.51	1755.11
484.71	1648.61
484.92	1615.85
485.13	1687.53
485.33	1667.05
485.54	1624.04
485.75	1785.83
485.95	1753.06
486.16	1640.42
486.37	1710.05
486.57	1613.80
486.78	1662.95
486.98	1691.62
487.19	1636.33
487.40	1718.25
487.60	1669.09
487.81	1720.29
488.02	1597.42
488.22	1578.98
488.43	1724.39
488.64	1712.10
488.84	1693.67
489.05	1748.97
489.25	1679.33
489.46	1746.92
489.67	1683.43
489.87	1779.68
490.08	1685.48
490.29	1675.24
490.49	1781.73
490.70	1726.44
490.90	1718.25
491.11	1677.29
491.32	1777.64
491.52	1722.34
491.73	1665.00
491.94	1617.90
492.14	1609.70
492.35	1687.53
492.55	1826.79
492.76	1689.57
492.97	1677.29
493.17	1679.33
493.38	1720.29
493.58	1765.35
493.79	1646.57
494.00	1683.43
494.20	1642.47
494.41	1779.68
494.61	1742.82
494.82	1683.43
495.02	1681.38
495.23	1695.72
495.44	1724.39
495.64	1769.44
495.85	1720.29
496.05	1642.47
496.26	1724.39
496.47	1677.29
496.67	1695.72
496.88	1785.83
497.08	1597.42
497.29	1624.04
497.49	1763.30
497.70	1689.57
497.91	1679.33
498.11	1736.68
498.32	1734.63
498.52	1732.58
498.73	1798.12
498.93	1691.62
499.14	1771.49
499.34	1814.50
499.55	1753.06
499.76	1695.72
499.96	1748.97
500.17	1656.81
500.37	1724.39
500.58	1710.05
500.78	1710.05
500.99	1669.09
501.19	1634.28
501.40	1738.73
501.60	1638.38
501.81	1720.29
502.02	1726.44
502.22	1630.18
502.43	1705.96
502.63	1845.22
502.84	1759.21
503.04	1755.11
503.25	1787.88
503.45	1722.34
503.66	1693.67
503.86	1742.82
504.07	1851.36
504.27	1691.62
504.48	1665.00
504.68	1640.42
504.89	1820.64
505.09	1605.61
505.30	1669.09
505.50	1736.68
505.71	1677.29
505.91	1751.01
506.12	1748.97
506.32	1701.86
506.53	1624.04
506.73	1779.68
506.94	1673.19
507.14	1632.23
507.35	1769.44
507.55	1673.19
507.76	1671.14
507.96	1730.53
508.17	1777.64
508.37	1599.46
508.58	1828.84
508.78	1736.68
508.99	1791.97
509.19	1802.21
509.40	1650.66
509.60	1648.61
509.81	1728.49
510.01	1660.90
510.22	1660.90
510.42	1761.25
510.63	1779.68
510.83	1638.38
511.04	1679.33
511.24	1744.87
511.44	1708.01
511.65	1671.14
511.85	1726.44
512.06	1712.10
512.26	1710.05
512.47	1804.26
512.67	1626.09
512.88	1820.64
513.08	1675.24
513.29	1748.97
513.49	1650.66
513.69	1703.91
513.90	1695.72
514.10	1683.43
514.31	1691.62
514.51	1644.52
514.72	1683.43
514.92	1828.84
515.13	1679.33
515.33	1681.38
515.53	1673.19
515.74	1771.49
515.94	1753.06
516.15	1740.77
516.35	1585.13
516.56	1599.46
516.76	1626.09
516.96	1679.33
517.17	1687.53
517.37	1808.36
517.58	1624.04
517.78	1687.53
517.99	1810.40
518.19	1767.40
518.39	1714.15
518.60	1759.21
518.80	1683.43
519.01	1779.68
519.21	1665.00
519.41	1730.53
519.62	1585.13
519.82	1703.91
520.03	1685.48
520.23	1693.67
520.43	1644.52
520.64	1767.40
520.84	1785.83
521.05	1673.19
521.25	1712.10
521.45	1710.05
521.66	1705.96
521.86	1738.73
522.07	1746.92
522.27	1581.03
522.47	1574.89
522.68	1714.15
522.88	1763.30
523.08	1759.21
523.29	1546.22
523.49	1628.14
523.70	1636.33
523.90	1644.52
524.10	1667.05
524.31	1681.38
524.51	1556.46
524.71	1775.59
524.92	1675.24
525.12	1593.32
525.33	1744.87
525.53	1687.53
525.73	1783.78
525.94	1648.61
526.14	1732.58
526.34	1753.06
526.55	1675.24
526.75	1660.90
526.95	1802.21
527.16	1644.52
527.36	1697.77
527.56	1769.44
527.77	1624.04
527.97	1691.62
528.17	1738.73
528.38	1712.10
528.58	1720.29
528.78	1636.33
528.99	1701.86
529.19	1683.43
529.39	1646.57
529.60	1656.81
529.80	1665.00
530.00	1658.85
530.21	1703.91
530.41	1689.57
530.61	1650.66
530.82	1740.77
531.02	1675.24
531.22	1671.14
531.43	1718.25
531.63	1720.29
531.83	1699.81
532.04	1771.49
532.24	1687.53
532.44	1621.99
532.64	1658.85
532.85	1675.24
533.05	1703.91
533.25	1665.00
533.46	1624.04
533.66	1722.34
533.86	1716.20
534.07	1787.88
534.27	1654.76
534.47	1773.54
534.67	1724.39
534.88	1601.51
535.08	1716.20
535.28	1757.16
535.49	1652.71
535.69	1759.21
535.89	1771.49
536.09	1871.84
536.30	1728.49
536.50	1699.81
536.70	1777.64
536.91	1617.90
537.11	1757.16
537.31	1683.43
537.51	1699.81
537.72	1748.97
537.92	1720.29
538.12	1767.40
538.32	1689.57
538.53	1640.42
538.73	1673.19
538.93	1667.05
539.13	1726.44
539.34	1691.62
539.54	1613.80
539.74	1654.76
539.94	1617.90
540.15	1769.44
540.35	1748.97
540.55	1609.70
540.75	1654.76
540.96	1701.86
541.16	1624.04
541.36	1644.52
541.56	1716.20
541.77	1705.96
541.97	1755.11
542.17	1642.47
542.37	1791.97
542.58	1748.97
542.78	1798.12
542.98	1748.97
543.18	1640.42
543.38	1740.77
543.59	1705.96
543.79	1640.42
543.99	1738.73
544.19	1673.19
544.40	1712.10
544.60	1667.05
544.80	1728.49
545.00	1669.09
545.20	1736.68
545.41	1628.14
545.61	1644.52
545.81	1720.29
546.01	1681.38
546.21	1662.95
546.42	1689.57
546.62	1738.73
546.82	1667.05
547.02	1703.91
547.22	1675.24
547.43	1798.12
547.63	1693.67
547.83	1689.57
548.03	1644.52
548.23	1781.73
548.44	1685.48
548.64	1742.82
548.84	1722.34
549.04	1654.76
549.24	1773.54
549.45	1916.90
549.65	1607.66
549.85	1679.33
550.05	1667.05
550.25	1593.32
550.45	1730.53
550.66	1751.01
550.86	1609.70
551.06	1714.15
551.26	1656.81
551.46	1691.62
551.66	1667.05
551.87	1624.04
552.07	1693.67
552.27	1738.73
552.47	1753.06
552.67	1724.39
552.87	1701.86
553.07	1697.77
553.28	1667.05
553.48	1724.39
553.68	1712.10
553.88	1826.79
554.08	1667.05
554.28	1708.01
554.48	1677.29
554.69	1708.01
554.89	1656.81
555.09	1654.76
555.29	1574.89
555.49	1728.49
555.69	1812.45
555.89	1738.73
556.10	1738.73
556.30	1683.43
556.50	1736.68
556.70	1726.44
556.90	1687.53
557.10	1716.20
557.30	1673.19
557.50	1642.47
557.70	1644.52
557.91	1605.61
558.11	1718.25
558.31	1753.06
558.51	1718.25
558.71	1740.77
558.91	1699.81
559.11	1605.61
559.31	1617.90
559.51	1716.20
559.72	1781.73
559.92	1650.66
560.12	1687.53
560.32	1765.35
560.52	1736.68
560.72	1662.95
560.92	1771.49
561.12	1781.73
561.32	1667.05
561.52	1581.03
561.72	1814.50
561.93	1730.53
562.13	1607.66
562.33	1689.57
562.53	1755.11
562.73	1732.58
562.93	1685.48
563.13	1742.82
563.33	1787.88
563.53	1763.30
563.73	1734.63
563.93	1728.49
564.13	1757.16
564.33	1810.40
564.53	1687.53
564.74	1613.80
564.94	1720.29
565.14	1748.97
565.34	1716.20
565.54	1703.91
565.74	1660.90
565.94	1748.97
566.14	1705.96
566.34	1648.61
566.54	1695.72
566.74	1652.71
566.94	1673.19
567.14	1673.19
567.34	1654.76
567.54	1728.49
567.74	1777.64
567.94	1658.85
568.14	1656.81
568.34	1888.23
568.54	1687.53
568.74	1748.97
568.94	1804.26
569.14	1830.88
569.34	1689.57
569.54	1656.81
569.75	1646.57
569.95	1683.43
570.15	1773.54
570.35	1736.68
570.55	1667.05
570.75	1781.73
570.95	1722.34
571.15	1771.49
571.35	1759.21
571.55	1683.43
571.75	1746.92
571.95	1757.16
572.15	1712.10
572.35	1697.77
572.55	1673.19
572.75	1697.77
572.95	1601.51
573.15	1726.44
573.35	1757.16
573.55	1714.15
573.75	1679.33
573.95	1826.79
574.15	1716.20
574.35	1677.29
574.55	1640.42
574.75	1654.76
574.95	1777.64
575.15	1658.85
575.34	1675.24
575.54	1705.96
575.74	1650.66
575.94	1742.82
576.14	1677.29
576.34	1695.72
576.54	1687.53
576.74	1806.31
576.94	1634.28
577.14	1748.97
577.34	1714.15
577.54	1632.23
577.74	1644.52
577.94	1771.49
578.14	1708.01
578.34	1718.25
578.54	1595.37
578.74	1652.71
578.94	1701.86
579.14	1755.11
579.34	1601.51
579.54	1730.53
579.74	1673.19
579.94	1714.15
580.13	1771.49
580.33	1654.76
580.53	1656.81
580.73	1710.05
580.93	1716.20
581.13	1667.05
581.33	1687.53
581.53	1714.15
581.73	1751.01
581.93	1687.53
582.13	1712.10
582.33	1732.58
582.53	1658.85
582.73	1714.15
582.92	1628.14
583.12	1699.81
583.32	1658.85
583.52	1740.77
583.72	1824.74
583.92	1761.25
584.12	1705.96
584.32	1748.97
584.52	1605.61
584.72	1691.62
584.92	1753.06
585.11	1658.85
585.31	1693.67
585.51	1685.48
585.71	1740.77
585.91	1841.12
586.11	1755.11
586.31	1691.62
586.51	1677.29
586.71	1716.20
586.91	1634.28
587.10	1720.29
587.30	1761.25
587.50	1603.56
587.70	1652.71
587.90	1708.01
588.10	1640.42
588.30	1681.38
588.50	1730.53
588.69	1699.81
588.89	1738.73
589.09	1687.53
589.29	1646.57
589.49	1656.81
589.69	1642.47
589.89	1755.11
590.08	1724.39
590.28	1621.99
590.48	1724.39
590.68	1781.73
590.88	1636.33
591.08	1677.29
591.28	1722.34
591.47	1728.49
591.67	1624.04
591.87	1755.11
592.07	1785.83
592.27	1638.38
592.47	1638.38
592.67	1753.06
592.86	1654.76
593.06	1656.81
593.26	1828.84
593.46	1738.73
593.66	1576.94
593.86	1765.35
594.05	1789.92
594.25	1673.19
594.45	1708.01
594.65	1888.23
594.85	1794.02
595.05	1685.48
595.24	1679.33
595.44	1703.91
595.64	1679.33
595.84	1740.77
596.04	1759.21
