SpectraSuite Data File
++++++++++++++++++++++++++++++++++++
Date: Fri Jun 02 14:57:18 CEST 2017
User: INFO_000
Dark Spectrum Present: No
Reference Spectrum Present: No
Number of Sampled Component Spectra: 1
Spectrometers: USB4H00879
Integration Time (usec): 80000 (USB4H00879)
Spectra Averaged: 1 (USB4H00879)
Boxcar Smoothing: 0 (USB4H00879)
Correct for Electrical Dark: No (USB4H00879)
Strobe/Lamp Enabled: No (USB4H00879)
Correct for Detector Non-linearity: No (USB4H00879)
Correct for Stray Light: No (USB4H00879)
Number of Pixels in Processed Spectrum: 3648
>>>>>Begin Processed Spectral Data<<<<<
345.13	1296.36
345.34	1296.36
345.56	1296.36
345.78	1306.60
345.99	1314.80
346.21	1675.24
346.42	1757.16
346.64	1630.18
346.86	1767.40
347.07	1699.81
347.29	1734.63
347.50	1611.75
347.72	1656.81
347.94	1787.88
348.15	1593.32
348.37	1542.12
348.59	1710.05
348.80	1673.19
349.02	1822.69
349.23	1841.12
349.45	1771.49
349.67	1869.80
349.88	1800.16
350.10	1869.80
350.31	1918.95
350.53	1820.64
350.75	1972.19
350.96	1841.12
351.18	1787.88
351.39	1853.41
351.61	1882.08
351.82	1898.47
352.04	1880.04
352.26	1843.17
352.47	1933.28
352.69	1871.84
352.90	1779.68
353.12	1863.65
353.34	1812.45
353.55	1945.57
353.77	1916.90
353.98	1822.69
354.20	1814.50
354.41	1992.67
354.63	1929.19
354.85	2002.91
355.06	1898.47
355.28	1736.68
355.49	1927.14
355.71	1914.85
355.92	1834.98
356.14	1951.71
356.35	1884.13
356.57	1918.95
356.79	1949.67
357.00	1896.42
357.22	1970.15
357.43	1828.84
357.65	1984.48
357.86	1896.42
358.08	1935.33
358.29	1970.15
358.51	2029.54
358.72	2068.45
358.94	1896.42
359.16	1970.15
359.37	1935.33
359.59	1914.85
359.80	2074.59
360.02	1953.76
360.23	2025.44
360.45	2041.82
360.66	1910.75
360.88	1861.60
361.09	2019.30
361.31	2043.87
361.52	1943.52
361.74	2084.83
361.95	2074.59
362.17	1961.95
362.38	2093.02
362.60	1980.39
362.81	1992.67
363.03	1943.52
363.24	1941.47
363.46	2047.97
363.67	2052.06
363.89	1968.10
364.10	2043.87
364.32	1945.57
364.53	2074.59
364.75	2002.91
364.96	2029.54
365.18	1957.86
365.39	1990.63
365.61	1931.23
365.82	2078.69
366.04	2009.06
366.25	1920.99
366.47	2097.12
366.68	2076.64
366.90	2031.58
367.11	2031.58
367.33	2082.78
367.54	2066.40
367.76	1943.52
367.97	2062.30
368.19	2037.73
368.40	2088.93
368.62	1988.58
368.83	1902.56
369.05	2105.31
369.26	2011.11
369.48	2070.50
369.69	2076.64
369.91	2021.35
370.12	2035.68
370.33	2140.13
370.55	1953.76
370.76	2115.55
370.98	2109.41
371.19	2039.78
371.41	2033.63
371.62	2068.45
371.84	2043.87
372.05	2179.04
372.27	2004.96
372.48	2060.26
372.69	2060.26
372.91	2248.67
373.12	2125.79
373.34	2052.06
373.55	2127.84
373.77	2205.66
373.98	2066.40
374.20	2187.23
374.41	2301.92
374.62	2131.94
374.84	2148.32
375.05	2129.89
375.27	2213.85
375.48	2168.80
375.70	2168.80
375.91	2287.58
376.12	2283.49
376.34	2090.98
376.55	2254.81
376.77	2244.57
376.98	2133.98
377.19	2174.94
377.41	2097.12
377.62	2254.81
377.84	2207.71
378.05	2400.22
378.27	2232.29
378.48	2344.92
378.69	2312.16
378.91	2332.64
379.12	2250.72
379.34	2129.89
379.55	2265.05
379.76	2232.29
379.98	2168.80
380.19	2236.38
380.41	2299.87
380.62	2265.05
380.83	2263.01
381.05	2283.49
381.26	2361.31
381.47	2254.81
381.69	2295.77
381.90	2435.03
382.12	2275.29
382.33	2224.09
382.54	2287.58
382.76	2230.24
382.97	2351.07
383.19	2224.09
383.40	2295.77
383.61	2269.15
383.83	2213.85
384.04	2289.63
384.25	2338.78
384.47	2387.93
384.68	2398.17
384.89	2303.96
385.11	2365.40
385.32	2316.25
385.54	2322.40
385.75	2293.72
385.96	2441.18
386.18	2441.18
386.39	2371.55
386.60	2355.16
386.82	2492.38
387.03	2451.42
387.24	2475.99
387.46	2453.47
387.67	2447.32
387.88	2502.62
388.10	2342.88
388.31	2447.32
388.52	2523.10
388.74	2623.45
388.95	2529.24
389.16	2512.86
389.38	2510.81
389.59	2588.63
389.80	2566.10
390.02	2551.77
390.23	2676.70
390.44	2533.34
390.66	2502.62
390.87	2531.29
391.08	2600.92
391.30	2740.18
391.51	2727.89
391.72	2656.22
391.94	2641.88
392.15	2682.84
392.36	2650.07
392.58	2596.82
392.79	2648.02
393.00	2674.65
393.22	2760.66
393.43	2789.33
393.64	2777.05
393.85	2791.38
394.07	2713.56
394.28	2691.03
394.49	2803.67
394.71	2789.33
394.92	2838.48
395.13	2682.84
395.35	2797.53
395.56	2836.44
395.77	2795.48
395.98	2775.00
396.20	2822.10
396.41	2873.30
396.62	2844.63
396.84	2826.20
397.05	2871.25
397.26	2885.59
397.47	2955.22
397.69	2844.63
397.90	3049.43
398.11	2908.12
398.32	2916.31
398.54	2990.03
398.75	2955.22
398.96	2883.54
399.18	3092.43
399.39	2922.45
399.60	2994.13
399.81	2994.13
400.03	3000.27
400.24	3254.22
400.45	2893.78
400.66	3016.66
400.88	3010.51
401.09	3295.18
401.30	2996.18
401.51	3190.74
401.73	3190.74
401.94	3108.82
402.15	3139.54
402.36	3131.34
402.58	3082.19
402.79	3149.78
403.00	3176.40
403.21	3182.54
403.43	3258.32
403.64	3305.42
403.85	3102.67
404.06	3395.53
404.27	3147.73
404.49	3254.22
404.70	3147.73
404.91	3317.71
405.12	3258.32
405.34	3229.65
405.55	3344.33
405.76	3162.06
405.97	3237.84
406.19	3239.89
406.40	3301.33
406.61	3311.57
406.82	3291.09
407.03	3223.50
407.25	3346.38
407.46	3416.01
407.67	3391.44
407.88	3444.68
408.09	3407.82
408.31	3405.77
408.52	3499.98
408.73	3356.62
408.94	3321.81
409.15	3362.76
409.37	3590.09
409.58	3444.68
409.79	3422.16
410.00	3622.86
410.21	3344.33
410.43	3481.55
410.64	3461.07
410.85	3497.93
411.06	3475.40
411.27	3549.13
411.48	3657.67
411.70	3569.61
411.91	3524.55
412.12	3717.06
412.33	3596.23
412.54	3604.42
412.76	3592.14
412.97	3688.39
413.18	3510.22
413.39	3649.48
413.60	3612.62
413.81	3542.99
414.03	3686.34
414.24	3557.32
414.45	3860.42
414.66	3514.31
414.87	3764.17
415.08	3778.50
415.30	3717.06
415.51	3604.42
415.72	3708.87
415.93	3598.28
416.14	3798.98
416.35	3794.89
416.56	3684.30
416.78	3897.28
416.99	3811.27
417.20	3821.51
417.41	3856.33
417.62	3780.55
417.83	3928.00
418.04	3831.75
418.26	3909.57
418.47	3790.79
418.68	4065.22
418.89	3889.09
419.10	4159.42
419.31	3930.05
419.52	3962.82
419.73	3999.68
419.95	4030.40
420.16	3950.53
420.37	4014.02
420.58	4054.98
420.79	3907.52
421.00	4075.46
421.21	4104.13
421.42	4022.21
421.63	4057.03
421.85	4130.75
422.06	4143.04
422.27	4253.63
422.48	4280.25
422.69	4235.20
422.90	4177.86
423.11	4114.37
423.32	4325.31
423.53	4388.80
423.75	4401.08
423.96	4497.34
424.17	4245.44
424.38	4470.72
424.59	4267.97
424.80	4681.66
425.01	4509.63
425.22	4353.98
425.43	4286.40
425.64	4669.37
425.85	4743.10
426.06	4470.72
426.28	4519.87
426.49	4507.58
426.70	4499.39
426.91	4642.75
427.12	4661.18
427.33	4603.83
427.54	4644.79
427.75	4747.19
427.96	4939.70
428.17	4825.01
428.38	4820.92
428.59	4845.49
428.80	4726.71
429.01	4865.97
429.23	4818.87
429.44	5029.81
429.65	4986.80
429.86	4894.65
430.07	4951.99
430.28	4902.84
430.49	5031.86
430.70	5027.76
430.91	5083.06
431.12	5042.10
431.33	5056.43
431.54	5154.74
431.75	5150.64
431.96	5285.81
432.17	5144.50
432.38	5246.90
432.59	5238.70
432.80	5308.34
433.01	5339.05
433.22	5277.62
433.43	5427.12
433.64	5310.38
433.85	5337.01
434.06	5341.10
434.27	5343.15
434.49	5357.49
434.70	5525.42
434.91	5556.14
435.12	5433.26
435.33	5730.22
435.54	5476.27
435.75	5459.88
435.96	5541.80
436.17	5304.24
436.38	5640.11
436.59	5593.00
436.80	5554.09
437.01	5840.81
437.22	5748.65
437.43	5676.97
437.64	5578.67
437.85	5881.77
438.06	5775.27
438.27	5865.38
438.48	5820.33
438.69	5908.39
438.90	5953.45
439.11	5748.65
439.32	6102.95
439.53	5967.78
439.74	5828.52
439.95	6008.74
440.16	5910.44
440.37	6094.76
440.57	5785.51
440.78	6018.98
440.99	6010.79
441.20	6088.61
441.41	6119.33
441.62	6053.80
441.83	5947.30
442.04	6301.60
442.25	6078.37
442.46	6164.39
442.67	6326.18
442.88	6549.40
443.09	6039.46
443.30	6219.68
443.51	6203.30
443.72	6350.75
443.93	6262.69
444.14	6588.32
444.35	6258.59
444.56	6483.87
444.77	6342.56
444.98	6524.83
445.19	6418.33
445.40	6487.96
445.61	6338.46
445.81	6440.86
446.02	6578.08
446.23	6518.68
446.44	6320.03
446.65	6637.47
446.86	6426.53
447.07	6684.57
447.28	6811.54
447.49	6705.05
447.70	6627.23
447.91	6793.11
448.12	6690.71
448.33	6930.33
448.54	6772.63
448.74	6604.70
448.95	6770.58
449.16	6803.35
449.37	7229.33
449.58	6778.78
449.79	7020.44
450.00	6901.65
450.21	6852.50
450.42	7118.74
450.63	7204.75
450.84	7098.26
451.05	7016.34
451.25	6944.66
451.46	6842.26
451.67	7360.40
451.88	7161.75
452.09	7303.06
452.30	7040.92
452.51	7135.12
452.72	7200.66
452.93	7411.60
453.13	7190.42
453.34	7133.08
453.55	7188.37
453.76	7057.30
453.97	7557.00
454.18	7368.59
454.39	7552.91
454.60	7333.78
454.81	7489.42
455.01	7452.56
455.22	7538.57
455.43	7550.86
455.64	7632.78
455.85	7796.62
456.06	7886.73
456.27	7788.43
456.48	7843.72
456.68	7782.28
456.89	7849.86
457.10	7901.06
457.31	8036.23
457.52	7866.25
457.73	8114.05
457.94	8105.86
458.14	7769.99
458.35	8236.93
458.56	8046.47
458.77	8105.86
458.98	8183.68
459.19	8144.77
459.39	8210.31
459.60	8411.01
459.81	8220.55
460.02	8486.78
460.23	8431.49
460.44	8552.32
460.65	8583.04
460.85	8580.99
461.06	8611.71
461.27	8470.40
461.48	8687.48
461.69	8755.07
461.89	8478.59
462.10	8843.13
462.31	8560.51
462.52	8683.39
462.73	8707.96
462.94	9160.56
463.14	8947.58
463.35	8861.56
463.56	9310.07
463.77	9176.95
463.98	8957.82
464.18	9125.75
464.39	9273.20
464.60	9308.02
464.81	9434.99
465.02	9281.39
465.23	9742.19
465.43	9361.27
465.64	9559.92
465.85	9674.60
466.06	9525.10
466.27	9854.83
466.47	9746.28
466.68	9643.88
466.89	9912.17
467.10	9953.13
467.30	9920.36
467.51	9973.61
467.72	10334.05
467.93	9920.36
468.14	10207.08
468.34	10381.15
468.55	10325.86
468.76	10383.20
468.97	10213.22
469.17	10635.10
469.38	10671.97
469.59	10862.43
469.80	10594.14
470.01	10723.16
470.21	10731.36
470.42	10858.33
470.63	11028.31
470.84	10755.93
471.04	11239.25
471.25	11155.29
471.46	11241.30
471.67	11450.19
471.87	11120.47
472.08	11427.67
472.29	11681.61
472.50	11347.79
472.70	11534.16
472.91	11538.26
473.12	11724.62
473.33	11945.80
473.53	11984.71
473.74	11884.36
473.95	12336.96
474.16	12207.94
474.36	12302.15
474.57	12259.14
474.78	12670.78
474.99	12388.16
475.19	12412.74
475.40	12752.70
475.61	12842.81
475.81	12908.35
476.02	13289.27
476.23	12998.46
476.44	13252.41
476.64	13326.13
476.85	13442.87
477.06	13502.26
477.27	13848.36
477.47	13758.25
477.68	13774.64
477.89	13868.84
478.09	13940.52
478.30	13952.81
478.51	14004.01
478.71	14173.99
478.92	14380.84
479.13	14599.97
479.34	14642.98
479.54	14491.43
479.75	14593.83
479.96	14724.90
480.16	15025.95
480.37	14995.23
480.58	14866.21
480.78	15277.85
480.99	15365.91
481.20	15542.03
481.41	15499.03
481.61	15664.91
481.82	15693.58
482.03	15671.06
482.23	15769.36
482.44	16029.45
482.65	16144.14
482.85	16488.20
483.06	16105.23
483.27	16430.85
483.47	16260.87
483.68	16418.57
483.89	16518.92
484.09	16584.45
484.30	16819.97
484.51	16951.04
484.71	17125.11
484.92	17098.49
485.13	17465.08
485.33	17241.85
485.54	17108.73
485.75	17870.58
485.95	17751.79
486.16	17819.38
486.37	17889.01
486.57	17815.28
486.78	17856.24
486.98	17936.11
487.19	18091.76
487.40	18411.24
487.60	18509.54
487.81	18732.77
488.02	18192.11
488.22	18343.66
488.43	18534.12
488.64	18806.50
488.84	19009.25
489.05	19052.25
489.25	19308.25
489.46	19218.14
489.67	19293.91
489.87	19384.02
490.08	19572.44
490.29	19451.61
490.49	19855.06
490.70	19990.22
490.90	19990.22
491.11	19893.97
491.32	20080.33
491.52	20049.61
491.73	20268.75
491.94	20332.23
492.14	19828.43
492.35	20498.12
492.55	20778.69
492.76	20659.91
492.97	20862.66
493.17	21044.93
493.38	20893.38
493.58	21190.33
493.79	21188.28
494.00	21065.41
494.20	21315.26
494.41	21341.88
494.61	21362.36
494.82	21624.50
495.02	21581.49
495.23	21309.11
495.44	21466.81
495.64	22152.88
495.85	21925.55
496.05	21886.64
496.26	21900.98
496.47	22396.59
496.67	22007.47
496.88	22470.31
497.08	22283.95
497.29	22474.41
497.49	22576.81
497.70	22648.49
497.91	22732.45
498.11	22724.26
498.32	23209.63
498.52	22976.16
498.73	23406.23
498.93	23088.80
499.14	23250.59
499.34	23338.65
499.55	23316.12
499.76	23211.68
499.96	23559.83
500.17	23322.27
500.37	23414.43
500.58	23602.84
500.78	23639.70
500.99	24004.24
501.19	24002.19
501.40	23766.68
501.60	23529.11
501.81	23766.68
502.02	24168.08
502.22	23858.84
502.43	24106.64
502.63	24303.25
502.84	24362.64
503.04	24456.84
503.25	24239.76
503.45	24264.33
503.66	24465.03
503.86	24266.38
504.07	24700.55
504.27	24770.18
504.48	24794.76
504.68	24665.74
504.89	25093.76
505.09	24905.35
505.30	24993.41
505.50	25083.52
505.71	24923.78
505.91	25171.58
506.12	25310.85
506.32	24909.44
506.53	25228.93
506.73	25450.11
506.94	25245.31
507.14	25470.59
507.35	25394.81
507.55	25413.24
507.76	25628.28
507.96	25446.01
508.17	25681.53
508.37	25482.88
508.58	25790.07
508.78	25923.19
508.99	26078.83
509.19	25788.02
509.40	26048.11
509.60	25960.05
509.81	25960.05
510.01	25876.09
510.22	25982.58
510.42	26050.16
510.63	26435.18
510.83	26390.13
511.04	26242.67
511.24	26343.02
511.44	26418.80
511.65	26617.45
511.85	26322.54
512.06	26551.91
512.26	26498.67
512.47	26662.51
512.67	26717.80
512.88	26674.79
513.08	26633.83
513.29	27012.71
513.49	26771.05
513.69	27129.44
513.90	27008.61
514.10	27104.87
514.31	26943.08
514.51	26764.90
514.72	26934.88
514.92	26920.55
515.13	27080.29
515.33	27039.33
515.53	27436.64
515.74	27162.21
515.94	27313.76
516.15	27442.78
516.35	27444.83
516.56	27872.85
516.76	27606.62
516.96	27610.71
517.17	27838.04
517.37	27840.09
517.58	27907.67
517.78	27862.61
517.99	27772.50
518.19	27922.01
518.39	28016.21
518.60	28100.18
518.80	28102.23
519.01	28173.91
519.21	27752.02
519.41	28472.91
519.62	28347.98
519.82	28343.89
520.03	28458.57
520.23	28245.58
520.43	28292.69
520.64	28927.56
520.84	28814.92
521.05	28327.50
521.25	28630.60
521.45	29029.96
521.66	29128.26
521.86	28597.84
522.07	29249.09
522.27	29189.70
522.47	29093.44
522.68	29457.98
522.88	29414.98
523.08	29533.76
523.29	29240.90
523.49	29349.44
523.70	29728.31
523.90	29795.90
524.10	29759.03
524.31	29980.21
524.51	29367.87
524.71	30099.00
524.92	30053.94
525.12	30393.90
525.33	30078.52
525.53	30363.18
525.73	30385.71
525.94	30232.11
526.14	30737.96
526.34	30625.32
526.55	31032.87
526.75	30762.54
526.95	31252.00
527.16	31122.98
527.36	31079.97
527.56	31276.58
527.77	31176.23
527.97	31280.67
528.17	31172.13
528.38	31661.60
528.58	31829.53
528.78	31768.09
528.99	31299.11
529.19	31823.39
529.39	31628.83
529.60	32099.86
529.80	31804.95
530.00	31850.01
530.21	32450.06
530.41	32411.15
530.61	32509.46
530.82	32568.85
531.02	32185.88
531.22	32730.64
531.43	32652.81
531.63	33150.47
531.83	33302.02
532.04	33412.61
532.24	32964.10
532.44	33695.23
532.64	33766.91
532.85	33598.98
533.05	33519.10
533.25	34301.43
533.46	33900.03
533.66	34565.62
533.86	34266.61
534.07	34260.47
534.27	33977.85
534.47	34731.50
534.67	34784.75
534.88	34381.30
535.08	34678.25
535.28	34686.45
535.49	34915.82
535.69	35327.46
535.89	35296.74
536.09	35380.71
536.30	35831.26
536.50	35540.45
536.70	35575.27
536.91	35677.66
537.11	35749.34
537.31	35878.36
537.51	35857.88
537.72	36189.66
537.92	36034.01
538.12	36388.31
538.32	36322.77
538.53	36672.98
538.73	36517.33
538.93	36513.23
539.13	36584.91
539.34	36691.41
539.54	36646.35
539.74	37127.63
539.94	37103.05
540.15	36826.57
540.35	37373.38
540.55	37144.01
540.75	37203.40
540.96	37473.73
541.16	37348.81
541.36	37510.60
541.56	37885.37
541.77	38211.00
541.97	38032.83
542.17	38047.16
542.37	37903.81
542.58	38553.01
542.78	38188.47
542.98	38155.71
543.18	38387.13
543.38	38901.17
543.59	38679.99
543.79	38583.73
543.99	39042.48
544.19	39167.40
544.40	38727.09
544.60	39507.37
544.80	39136.68
545.00	39259.56
545.20	39482.79
545.41	39345.58
545.61	39298.47
545.81	39749.03
546.01	39753.12
546.21	39620.00
546.42	39941.53
546.62	39712.16
546.82	39894.43
547.02	39894.43
547.22	40269.21
547.43	40519.06
547.63	40179.10
547.83	40381.85
548.03	39945.63
548.23	40435.10
548.44	40433.05
548.64	40592.79
548.84	40899.98
549.04	40629.65
549.24	40983.95
549.45	41237.90
549.65	40592.79
549.85	40617.36
550.05	41231.75
550.25	41090.44
550.45	41409.93
550.66	41237.90
550.86	41272.71
551.06	41391.50
551.26	41397.64
551.46	41823.62
551.66	41444.74
551.87	41371.02
552.07	41604.49
552.27	42227.07
552.47	42128.77
552.67	42055.04
552.87	42108.29
553.07	42022.27
553.28	41950.59
553.48	42196.35
553.68	42276.22
553.88	42595.70
554.08	42296.70
554.28	42096.00
554.48	42055.04
554.69	42655.09
554.89	42577.27
555.09	42900.85
555.29	42755.44
555.49	42411.38
555.69	42767.73
555.89	42814.83
556.10	43144.56
556.30	42784.12
556.50	42784.12
556.70	42777.97
556.90	42974.58
557.10	43488.62
557.30	42882.42
557.50	43371.88
557.70	43355.50
557.91	43396.46
558.11	43148.65
558.31	43373.93
558.51	43439.47
558.71	43572.58
558.91	43670.89
559.11	43398.51
559.31	43337.07
559.51	43595.11
559.72	43603.30
559.92	43826.53
560.12	43525.48
560.32	43949.41
560.52	43498.86
560.72	43519.34
560.92	43734.37
561.12	43717.99
561.32	44189.02
561.52	43902.31
561.72	44367.20
561.93	43945.31
562.13	43840.87
562.33	43844.96
562.53	44410.20
562.73	43939.17
562.93	44223.84
563.13	44012.90
563.33	43832.68
563.53	44254.56
563.73	44016.99
563.93	44422.49
564.13	44754.26
564.33	44492.12
564.53	44213.60
564.74	44571.99
564.94	44508.50
565.14	44369.24
565.34	44676.44
565.54	44690.77
565.74	44768.60
565.94	44569.94
566.14	44750.17
566.34	44393.82
566.54	45126.99
566.74	44414.30
566.94	44879.19
567.14	45229.39
567.34	44412.25
567.54	45051.22
567.74	44987.73
567.94	44918.10
568.14	44911.95
568.34	45268.30
568.54	44770.64
568.74	45151.57
568.94	45012.31
569.14	45176.14
569.34	45380.94
569.54	45595.98
569.75	45208.91
569.95	45251.92
570.15	45940.04
570.35	44934.48
570.55	45251.92
570.75	45311.31
570.95	45651.27
571.15	45327.69
571.35	45231.44
571.55	45428.04
571.75	45397.32
571.95	45358.41
572.15	45352.27
572.35	45780.29
572.55	45526.35
572.75	45331.79
572.95	45624.65
573.15	45890.88
573.35	46122.30
573.55	45436.23
573.75	45614.41
573.95	46062.91
574.15	45530.44
574.35	45765.96
574.55	46167.36
574.75	45970.75
574.95	45716.81
575.15	45423.95
575.34	46056.77
575.54	46165.31
575.74	46480.70
575.94	45999.43
576.14	45733.19
576.34	46550.33
576.54	46341.44
576.74	46079.30
576.94	46128.45
577.14	46142.78
577.34	46327.10
577.54	45964.61
577.74	46325.05
577.94	46458.17
578.14	46558.52
578.34	46622.01
578.54	45706.57
578.74	46540.09
578.94	46394.68
579.14	46183.74
579.34	46445.88
579.54	46791.99
579.74	46677.30
579.94	46720.31
580.13	46820.66
580.33	46736.69
580.53	47134.00
580.73	47052.08
580.93	46579.00
581.13	46699.83
581.33	46968.12
581.53	46878.00
581.73	47154.48
581.93	46955.83
582.13	47189.30
582.33	46998.83
582.53	47086.90
582.73	47512.88
582.92	47322.41
583.12	47508.78
583.32	47451.44
583.52	47375.66
583.72	47297.84
583.92	47428.91
584.12	47410.48
584.32	47744.30
584.52	47379.76
584.72	47844.65
584.92	47539.50
585.11	48059.68
585.31	47346.99
585.51	47719.72
585.71	47654.18
585.91	48057.63
586.11	47748.39
586.31	47488.30
586.51	47619.37
586.71	47736.10
586.91	48416.03
587.10	48246.05
587.30	48463.13
587.50	48241.95
587.70	47924.52
587.90	48137.51
588.10	47740.20
588.30	48131.36
588.50	48577.82
588.69	48483.61
