SpectraSuite Data File
++++++++++++++++++++++++++++++++++++
Date: Fri Jun 02 14:57:18 CEST 2017
User: INFO_000
Dark Spectrum Present: No
Reference Spectrum Present: No
Number of Sampled Component Spectra: 1
Spectrometers: USB4H00879
Integration Time (usec): 80000 (USB4H00879)
Spectra Averaged: 1 (USB4H00879)
Boxcar Smoothing: 0 (USB4H00879)
Correct for Electrical Dark: No (USB4H00879)
Strobe/Lamp Enabled: No (USB4H00879)
Correct for Detector Non-linearity: No (USB4H00879)
Correct for Stray Light: No (USB4H00879)
Number of Pixels in Processed Spectrum: 3648
>>>>>Begin Processed Spectral Data<<<<<
345.13	1288.17
345.34	1288.17
345.56	1288.17
345.78	1306.60
345.99	1316.84
346.21	1599.46
346.42	1687.53
346.64	1617.90
346.86	1728.49
347.07	1619.94
347.29	1765.35
347.50	1619.94
347.72	1681.38
347.94	1853.41
348.15	1611.75
348.37	1679.33
348.59	1679.33
348.80	1624.04
349.02	1761.25
349.23	1918.95
349.45	1841.12
349.67	1910.75
349.88	1847.27
350.10	1974.24
350.31	1818.60
350.53	1767.40
350.75	1949.67
350.96	1820.64
351.18	1826.79
351.39	1845.22
351.61	1818.60
351.82	1845.22
352.04	1886.18
352.26	1830.88
352.47	1863.65
352.69	1875.94
352.90	1771.49
353.12	1886.18
353.34	1851.36
353.55	1902.56
353.77	1839.08
353.98	1806.31
354.20	1798.12
354.41	1877.99
354.63	1941.47
354.85	2033.63
355.06	1951.71
355.28	1708.01
355.49	1933.28
355.71	1882.08
355.92	1935.33
356.14	1927.14
356.35	1937.38
356.57	1843.17
356.79	1976.29
357.00	1920.99
357.22	1992.67
357.43	1884.13
357.65	1925.09
357.86	1886.18
358.08	1869.80
358.29	1966.05
358.51	2009.06
358.72	1945.57
358.94	1966.05
359.16	1902.56
359.37	1937.38
359.59	1964.00
359.80	1990.63
360.02	1990.63
360.23	1978.34
360.45	2027.49
360.66	1908.71
360.88	1873.89
361.09	1898.47
361.31	1914.85
361.52	1935.33
361.74	2045.92
361.95	2027.49
362.17	1951.71
362.38	2101.22
362.60	2074.59
362.81	2062.30
363.03	1959.91
363.24	2007.01
363.46	2138.08
363.67	2035.68
363.89	1931.23
364.10	2121.70
364.32	1992.67
364.53	2027.49
364.75	1916.90
364.96	1992.67
365.18	1976.29
365.39	1990.63
365.61	1929.19
365.82	2084.83
366.04	2019.30
366.25	1916.90
366.47	2058.21
366.68	2041.82
366.90	2043.87
367.11	2041.82
367.33	2121.70
367.54	2121.70
367.76	2074.59
367.97	2095.07
368.19	2041.82
368.40	2019.30
368.62	1933.28
368.83	1998.82
369.05	2074.59
369.26	2027.49
369.48	2101.22
369.69	2043.87
369.91	2017.25
370.12	2004.96
370.33	2127.84
370.55	1943.52
370.76	2031.58
370.98	2172.89
371.19	2066.40
371.41	1998.82
371.62	2047.97
371.84	2013.15
372.05	2183.13
372.27	2086.88
372.48	2146.27
372.69	2154.46
372.91	2191.33
373.12	2209.76
373.34	2099.17
373.55	2174.94
373.77	2158.56
373.98	2150.37
374.20	2224.09
374.41	2224.09
374.62	2113.50
374.84	2197.47
375.05	2244.57
375.27	2256.86
375.48	2187.23
375.70	2164.70
375.91	2217.95
376.12	2353.12
376.34	2115.55
376.55	2181.09
376.77	2238.43
376.98	2023.39
377.19	2166.75
377.41	2076.64
377.62	2250.72
377.84	2213.85
378.05	2244.57
378.27	2164.70
378.48	2279.39
378.69	2371.55
378.91	2187.23
379.12	2172.89
379.34	2181.09
379.55	2232.29
379.76	2260.96
379.98	2150.37
380.19	2217.95
380.41	2236.38
380.62	2328.54
380.83	2215.90
381.05	2154.46
381.26	2387.93
381.47	2220.00
381.69	2269.15
381.90	2445.27
382.12	2203.61
382.33	2301.92
382.54	2295.77
382.76	2355.16
382.97	2326.49
383.19	2228.19
383.40	2420.70
383.61	2256.86
383.83	2263.01
384.04	2310.11
384.25	2244.57
384.47	2416.60
384.68	2387.93
384.89	2281.44
385.11	2349.02
385.32	2389.98
385.54	2299.87
385.75	2408.41
385.96	2406.36
386.18	2340.83
386.39	2437.08
386.60	2424.80
386.82	2426.84
387.03	2449.37
387.24	2437.08
387.46	2535.39
387.67	2494.43
387.88	2525.15
388.10	2494.43
388.31	2478.04
388.52	2600.92
388.74	2473.95
388.95	2473.95
389.16	2467.80
389.38	2572.25
389.59	2625.50
389.80	2678.74
390.02	2494.43
390.23	2666.46
390.44	2508.76
390.66	2504.67
390.87	2467.80
391.08	2602.97
391.30	2684.89
391.51	2662.36
391.72	2770.90
391.94	2693.08
392.15	2568.15
392.36	2641.88
392.58	2537.43
392.79	2680.79
393.00	2662.36
393.22	2736.09
393.43	2793.43
393.64	2770.90
393.85	2822.10
394.07	2762.71
394.28	2688.98
394.49	2809.81
394.71	2779.09
394.92	2953.17
395.13	2641.88
395.35	2768.85
395.56	2705.37
395.77	2779.09
395.98	2832.34
396.20	2854.87
396.41	2846.68
396.62	2930.64
396.84	2777.05
397.05	2758.61
397.26	2834.39
397.47	2928.60
397.69	2854.87
397.90	3153.87
398.11	2961.36
398.32	2924.50
398.54	2908.12
398.75	2938.84
398.96	2990.03
399.18	3061.71
399.39	3008.47
399.60	2969.55
399.81	2990.03
400.03	2983.89
400.24	3168.21
400.45	3000.27
400.66	3071.95
400.88	3039.19
401.09	3123.15
401.30	3100.62
401.51	3110.86
401.73	3121.10
401.94	3205.07
402.15	3094.48
402.36	3049.43
402.58	3174.35
402.79	3330.00
403.00	3180.50
403.21	3108.82
403.43	3147.73
403.64	3235.79
403.85	3145.68
404.06	3284.94
404.27	3076.05
404.49	3219.41
404.70	3190.74
404.91	3160.02
405.12	3198.93
405.34	3299.28
405.55	3321.81
405.76	3248.08
405.97	3182.54
406.19	3383.24
406.40	3164.11
406.61	3284.94
406.82	3264.46
407.03	3360.72
407.25	3286.99
407.46	3342.28
407.67	3475.40
407.88	3477.45
408.09	3205.07
408.31	3319.76
408.52	3420.11
408.73	3385.29
408.94	3317.71
409.15	3438.54
409.37	3397.58
409.58	3508.17
409.79	3479.50
410.00	3508.17
410.21	3393.48
410.43	3475.40
410.64	3411.92
410.85	3512.27
411.06	3467.21
411.27	3463.12
411.48	3510.22
411.70	3508.17
411.91	3504.07
412.12	3661.77
412.33	3612.62
412.54	3549.13
412.76	3694.54
412.97	3712.97
413.18	3508.17
413.39	3583.95
413.60	3715.02
413.81	3663.82
414.03	3596.23
414.24	3665.86
414.45	3809.22
414.66	3583.95
414.87	3735.50
415.08	3778.50
415.30	3770.31
415.51	3682.25
415.72	3729.35
415.93	3719.11
416.14	3774.41
416.35	3776.45
416.56	3790.79
416.78	3899.33
416.99	3825.61
417.20	3758.02
417.41	4028.35
417.62	3999.68
417.83	3995.59
418.04	3876.80
418.26	4020.16
418.47	3928.00
418.68	3973.06
418.89	3938.24
419.10	4106.18
419.31	4114.37
419.52	4038.59
419.73	4042.69
419.95	4106.18
420.16	3975.11
420.37	3930.05
420.58	4081.60
420.79	3944.39
421.00	4165.57
421.21	4218.82
421.42	4122.56
421.63	4093.89
421.85	4112.32
422.06	4237.25
422.27	4292.54
422.48	4116.42
422.69	4280.25
422.90	4220.86
423.11	4263.87
423.32	4476.86
423.53	4480.96
423.75	4239.30
423.96	4523.96
424.17	4470.72
424.38	4456.38
424.59	4396.99
424.80	4669.37
425.01	4485.05
425.22	4513.72
425.43	4466.62
425.64	4718.52
425.85	4624.31
426.06	4708.28
426.28	4579.26
426.49	4657.08
426.70	4612.03
426.91	4661.18
427.12	4665.27
427.33	4632.51
427.54	4501.44
427.75	4765.62
427.96	4888.50
428.17	4786.10
428.38	5066.67
428.59	5009.33
428.80	4937.65
429.01	4933.56
429.23	4802.49
429.44	4972.47
429.65	4995.00
429.86	4956.08
430.07	4995.00
430.28	4988.85
430.49	5089.20
430.70	5152.69
430.91	5167.03
431.12	5224.37
431.33	5156.79
431.54	5185.46
431.75	5294.00
431.96	5179.31
432.17	5171.12
432.38	5066.67
432.59	5455.79
432.80	5431.21
433.01	5330.86
433.22	5447.60
433.43	5357.49
433.64	5228.46
433.85	5339.05
434.06	5384.11
434.27	5226.42
434.49	5511.08
434.70	5451.69
434.91	5369.77
435.12	5691.31
435.33	5552.04
435.54	5539.76
435.75	5433.26
435.96	5412.78
436.17	5410.73
436.38	5664.68
436.59	5713.83
436.80	5556.14
437.01	5777.32
437.22	5818.28
437.43	5623.72
437.64	5496.75
437.85	5732.26
438.06	5740.46
438.27	5545.90
438.48	5636.01
438.69	5693.35
438.90	5863.33
439.11	5660.59
439.32	5877.67
439.53	5754.79
439.74	5892.01
439.95	5881.77
440.16	6006.69
440.37	5965.73
440.57	5849.00
440.78	6121.38
440.99	6039.46
441.20	5998.50
441.41	6035.36
441.62	6025.12
441.83	5918.63
442.04	5996.45
442.25	6238.11
442.46	6066.08
442.67	6260.64
442.88	6524.83
443.09	6188.96
443.30	6070.18
443.51	6166.43
443.72	6254.50
443.93	6172.58
444.14	6428.57
444.35	6090.66
444.56	6234.02
444.77	6250.40
444.98	6492.06
445.19	6291.36
445.40	6365.09
445.61	6248.35
445.81	6430.62
446.02	6471.58
446.23	6344.61
446.44	6301.60
446.65	6270.88
446.86	6500.25
447.07	6557.60
447.28	6672.28
447.49	6633.37
447.70	6397.85
447.91	6664.09
448.12	6447.01
448.33	6686.62
448.54	6762.39
448.74	6567.84
448.95	6619.04
449.16	6582.17
449.37	6942.61
449.58	6608.80
449.79	6811.54
450.00	6614.94
450.21	6872.98
450.42	6954.90
450.63	6844.31
450.84	6868.89
451.05	7133.08
451.25	6977.43
451.46	6846.36
451.67	7139.22
451.88	6993.81
452.09	7133.08
452.30	7141.27
452.51	6918.04
452.72	7260.05
452.93	7384.98
453.13	7010.20
453.34	7151.51
453.55	7106.45
453.76	7055.25
453.97	7479.18
454.18	7425.93
454.39	7327.63
454.60	7466.89
454.81	7366.54
455.01	7534.48
455.22	7384.98
455.43	7495.57
455.64	7593.87
455.85	7669.64
456.06	7813.00
456.27	7710.60
456.48	7835.53
456.68	7749.51
456.89	7864.20
457.10	8089.48
457.31	7810.95
457.52	7798.66
457.73	7868.30
457.94	8200.07
458.14	7919.50
458.35	8429.44
458.56	7991.17
458.77	7948.17
458.98	8263.55
459.19	8216.45
459.39	8322.94
459.60	8333.18
459.81	8384.38
460.02	8546.17
460.23	8216.45
460.44	8718.20
460.65	8650.62
460.85	8564.61
461.06	8695.68
461.27	8513.41
461.48	8793.98
461.69	8959.86
461.89	8634.24
462.10	8904.57
462.31	8662.91
462.52	8681.34
462.73	9041.78
462.94	9187.19
463.14	8902.52
463.35	8998.77
463.56	9518.96
463.77	9277.30
463.98	9172.85
464.18	9351.03
464.39	9459.57
464.60	9496.43
464.81	9686.89
465.02	9391.98
465.23	9695.08
465.43	9621.36
465.64	9793.39
465.85	9772.91
466.06	9850.73
466.27	10071.91
466.47	10098.53
466.68	10186.60
466.89	10073.96
467.10	10440.54
467.30	9891.69
467.51	10178.40
467.72	10585.95
467.93	10217.32
468.14	10309.47
468.34	10528.61
468.55	10714.97
468.76	10684.25
468.97	10442.59
469.17	10870.62
469.38	10829.66
469.59	10979.16
469.80	10647.39
470.01	10823.51
470.21	11007.83
470.42	11099.99
470.63	11286.36
470.84	11442.00
471.04	11528.02
471.25	11360.08
471.46	11417.43
471.67	11476.82
471.87	11738.96
472.08	11630.41
472.29	11902.79
472.50	11622.22
472.70	11769.68
472.91	11945.80
473.12	12095.30
473.33	12175.17
473.53	12275.52
473.74	12287.81
473.95	12500.80
474.16	12572.48
474.36	12613.44
474.57	12877.63
474.78	12750.65
474.99	12853.05
475.19	12795.71
475.40	13209.40
475.61	13238.07
475.81	13252.41
476.02	13424.44
476.23	13141.82
476.44	13375.28
476.64	13670.19
476.85	13850.41
477.06	13793.07
477.27	13893.42
477.47	13967.15
477.68	13899.56
477.89	14186.28
478.09	14196.52
478.30	14229.29
478.51	14376.74
478.71	14550.82
478.92	14569.25
479.13	14786.33
479.34	14784.29
479.54	14784.29
479.75	14733.09
479.96	14935.84
480.16	14958.36
480.37	15195.93
480.58	15306.52
480.78	15558.42
480.99	15472.40
481.20	15693.58
481.41	15537.94
481.61	15746.83
481.82	15884.05
482.03	15642.39
482.23	15998.73
482.44	16242.44
482.65	16277.26
482.85	16541.44
483.06	16375.56
483.27	16416.52
483.47	16537.35
483.68	16641.79
483.89	16414.47
484.09	16606.98
484.30	16979.71
484.51	17274.62
484.71	17235.70
484.92	17254.14
485.13	17204.99
485.33	17065.72
485.54	17452.79
485.75	17784.56
485.95	17585.91
486.16	17651.44
486.37	17854.19
486.57	17727.22
486.78	17843.95
486.98	17905.39
487.19	18306.79
487.40	18321.13
487.60	18241.26
487.81	18603.75
488.02	18548.45
488.22	18403.05
488.43	18718.43
488.64	18579.17
488.84	18818.78
489.05	18947.81
489.25	18728.67
489.46	19318.49
489.67	18912.99
489.87	19439.32
490.08	18962.14
490.29	19201.76
490.49	19642.07
490.70	19705.56
490.90	19707.60
491.11	19554.01
491.32	19883.73
491.52	19990.22
491.73	19906.26
491.94	19869.39
492.14	20086.48
492.35	20397.77
492.55	20266.70
492.76	20367.05
492.97	20408.01
493.17	20530.89
493.38	20625.09
493.58	20985.54
493.79	20612.81
494.00	20836.03
494.20	20719.30
494.41	20977.34
494.61	20987.58
494.82	21319.35
495.02	21006.02
495.23	21460.66
495.44	21225.15
495.64	21587.64
495.85	21497.53
496.05	21591.73
496.26	21751.48
496.47	21550.78
496.67	21831.35
496.88	21970.61
497.08	21534.39
497.29	21970.61
497.49	22062.77
497.70	22046.38
497.91	22238.89
498.11	22206.13
498.32	22286.00
498.52	22281.90
498.73	22683.30
498.93	22394.54
499.14	22589.10
499.34	22556.33
499.55	22601.38
499.76	22830.76
499.96	22822.56
500.17	22904.48
500.37	23064.22
500.58	22972.07
500.78	23162.53
500.99	23211.68
501.19	23336.60
501.40	23074.46
501.60	23154.33
501.81	23385.76
502.02	23371.42
502.22	22920.87
502.43	23461.53
502.63	23817.88
502.84	23510.68
503.04	23467.67
503.25	23479.96
503.45	23709.33
503.66	23651.99
503.86	23740.05
504.07	24360.59
504.27	23942.80
504.48	24395.40
504.68	24151.70
504.89	24426.12
505.09	24143.50
505.30	24686.22
505.50	24536.71
505.71	24503.95
505.91	24800.90
506.12	24716.93
506.32	24475.27
506.53	24657.54
506.73	24727.17
506.94	24985.22
507.14	24802.95
507.35	24796.81
507.55	24667.78
507.76	25304.70
507.96	25007.75
508.17	25011.84
508.37	24817.29
508.58	25097.86
508.78	25224.83
508.99	25630.33
509.19	25630.33
509.40	25529.98
509.60	25495.16
509.81	25695.86
510.01	25411.20
510.22	25796.21
510.42	25878.13
510.63	25798.26
510.83	25638.52
511.04	25849.46
511.24	26039.92
511.44	26168.94
511.65	26185.33
511.85	26078.83
512.06	26117.75
512.26	26097.27
512.47	26285.68
512.67	26390.13
512.88	26605.16
513.08	26048.11
513.29	26603.11
513.49	26568.30
513.69	26674.79
513.90	26588.78
514.10	26795.62
514.31	26922.60
514.51	26666.60
514.72	26791.53
514.92	26818.15
515.13	27106.91
515.33	26912.36
515.53	27154.02
515.74	27117.15
515.94	27328.10
516.15	27237.98
516.35	27260.51
516.56	27629.15
516.76	27280.99
516.96	27682.39
517.17	27711.07
517.37	27919.96
517.58	27850.33
517.78	27897.43
517.99	27952.73
518.19	28298.83
518.39	28266.06
518.60	28368.46
518.80	28178.00
519.01	28159.57
519.21	28446.29
519.41	28472.91
519.62	28741.19
519.82	28663.37
520.03	28720.71
520.23	28577.36
520.43	28565.07
520.64	29072.96
520.84	29019.72
521.05	28800.58
521.25	29107.78
521.45	29300.29
521.66	29275.71
521.86	29201.99
522.07	29244.99
522.27	29234.75
522.47	29711.93
522.68	30045.75
522.88	29560.38
523.08	29773.37
523.29	29920.82
523.49	30129.72
523.70	29972.02
523.90	30203.44
524.10	30230.07
524.31	30623.28
524.51	30398.00
524.71	30613.04
524.92	30565.93
525.12	30600.75
525.33	30846.51
525.53	31163.94
525.73	31106.60
525.94	31229.48
526.14	31022.63
526.34	31311.39
526.55	31301.15
526.75	31671.84
526.95	31643.17
527.16	31399.46
527.36	31790.62
527.56	31825.43
527.77	32122.39
527.97	32196.12
528.17	32239.12
528.38	32298.52
528.58	32495.12
528.78	32308.76
528.99	32392.72
529.19	32644.62
529.39	32421.39
529.60	32556.56
529.80	32753.16
530.00	33175.05
530.21	33222.15
530.41	33414.66
530.61	33424.90
530.82	33162.76
531.02	33764.86
531.22	33564.16
531.43	33768.96
531.63	33564.16
531.83	33846.78
532.04	34266.61
532.24	34217.46
532.44	34455.03
532.64	34784.75
532.85	34518.51
533.05	34534.90
533.25	34950.63
533.46	34522.61
533.66	35157.48
533.86	34948.59
534.07	35378.66
534.27	35108.33
534.47	35624.42
534.67	35270.12
534.88	35309.03
535.08	35456.48
535.28	35900.89
535.49	35589.60
535.69	36410.84
535.89	36017.63
536.09	35952.09
536.30	36298.20
536.50	36464.08
536.70	36554.19
536.91	36681.17
537.11	36468.18
537.31	36965.84
537.51	36869.58
537.72	37391.81
537.92	37031.37
538.12	37209.54
538.32	37320.13
538.53	37230.02
538.73	37154.25
538.93	37238.22
539.13	37508.55
539.34	37373.38
539.54	37115.34
539.74	38055.36
539.94	38026.68
540.15	38102.46
540.35	38600.12
540.55	38024.64
540.75	38247.86
540.96	38550.96
541.16	38657.46
541.36	38305.21
541.56	38389.17
541.77	38903.21
541.97	38692.27
542.17	39081.39
542.37	38735.28
542.58	38735.28
542.78	38983.09
542.98	39228.84
543.18	39196.07
543.38	39515.56
543.59	39665.06
543.79	39323.05
543.99	39171.50
544.19	39753.12
544.40	39552.42
544.60	39896.48
544.80	39712.16
545.00	39552.42
545.20	40148.38
545.41	39789.98
545.61	39810.46
545.81	40295.83
546.01	40453.53
546.21	40293.79
546.42	40074.65
546.62	40539.54
546.82	40072.60
547.02	40285.59
547.22	40555.93
547.43	40119.71
547.63	40873.36
547.83	40609.17
548.03	40920.46
548.23	40844.69
548.44	40680.85
548.64	40873.36
548.84	40947.09
549.04	40945.04
549.24	41272.71
549.45	41190.80
549.65	40973.71
549.85	40979.85
550.05	41332.11
550.25	41399.69
550.45	41545.09
550.66	41260.43
550.86	41368.97
551.06	41706.88
551.26	41483.66
551.46	41665.92
551.66	41657.73
551.87	41461.13
552.07	41817.47
552.27	41465.22
552.47	41584.01
552.67	42159.48
552.87	41713.03
553.07	42235.26
553.28	42020.22
553.48	42286.46
553.68	41821.57
553.88	42239.36
554.08	41997.70
554.28	42173.82
554.48	42055.04
554.69	42528.12
554.89	42648.95
555.09	42210.68
555.29	41901.44
555.49	42616.18
555.69	42040.70
555.89	42524.02
556.10	42519.93
556.30	42411.38
556.50	42870.13
556.70	42222.97
556.90	43017.58
557.10	42802.55
557.30	42902.90
557.50	42861.94
557.70	42976.62
557.91	43042.16
558.11	42894.71
558.31	42968.43
558.51	42831.22
558.71	42960.24
558.91	42845.55
559.11	42849.65
559.31	42939.76
559.51	42440.06
559.72	42945.90
559.92	42857.84
560.12	42925.42
560.32	43150.70
560.52	43013.49
560.72	43046.26
560.92	43193.71
561.12	42870.13
561.32	43494.76
561.52	42904.95
561.72	43689.32
561.93	42712.44
562.13	43529.58
562.33	43007.34
562.53	43439.47
562.73	42978.67
562.93	42964.34
563.13	43412.84
563.33	43351.40
563.53	43214.19
563.73	43169.13
563.93	43636.07
564.13	43771.24
564.33	43505.00
564.53	43466.09
564.74	43890.02
564.94	43206.00
565.14	43722.08
565.34	43269.48
565.54	43646.31
565.74	43545.96
565.94	43826.53
566.14	43228.52
566.34	43502.95
566.54	44045.66
566.74	43476.33
566.94	43531.62
567.14	43873.63
567.34	43754.85
567.54	44246.36
567.74	43836.77
567.94	43705.70
568.14	44303.71
568.34	44025.18
568.54	43748.71
568.74	43951.46
568.94	43847.01
569.14	43937.12
569.34	43980.13
569.54	44359.00
569.75	43902.31
569.95	43791.72
570.15	44262.75
570.35	44178.78
570.55	44252.51
570.75	44008.80
570.95	43847.01
571.15	44518.74
571.35	44234.08
571.55	44655.96
571.75	44168.54
571.95	44008.80
572.15	44191.07
572.35	44600.66
572.55	44389.72
572.75	44610.90
572.95	44637.53
573.15	44475.74
573.35	44383.58
573.55	44035.42
573.75	44432.73
573.95	44784.98
574.15	44416.35
574.35	44827.99
574.55	44860.76
574.75	44246.36
574.95	44916.05
575.15	44619.10
575.34	44991.83
575.54	44791.12
575.74	44787.03
575.94	45114.70
576.14	44940.63
576.34	45245.77
576.54	44883.28
576.74	44963.15
576.94	45145.42
577.14	45372.75
577.34	45233.49
577.54	44997.97
577.74	45405.52
577.94	45634.89
578.14	45229.39
578.34	45401.42
578.54	45126.99
578.74	45325.64
578.94	45839.68
579.14	45397.32
579.34	45638.98
579.54	45413.71
579.74	45921.60
579.94	45675.85
580.13	45806.92
580.33	45731.14
580.53	46159.17
580.73	45892.93
580.93	46269.76
581.13	45950.27
581.33	46120.26
581.53	46593.34
581.73	46437.69
581.93	46454.08
582.13	46208.32
582.33	46542.14
582.53	46030.15
582.73	46568.76
582.92	46622.01
583.12	46726.46
583.32	46673.21
583.52	46409.02
583.72	46445.88
583.92	46753.08
584.12	46402.88
584.32	47244.59
584.52	46585.15
584.72	47019.31
584.92	46937.40
585.11	47631.66
585.31	47021.36
585.51	47013.17
585.71	46822.71
585.91	47705.38
586.11	46912.82
586.31	47240.50
586.51	47213.87
586.71	47277.36
586.91	47641.90
587.10	47344.94
587.30	47947.04
587.50	47838.50
587.70	47822.12
587.90	47942.95
588.10	47699.24
588.30	47883.56
588.50	48137.51
