SpectraSuite Data File
++++++++++++++++++++++++++++++++++++
Date: Fri Jun 02 14:57:22 CEST 2017
User: INFO_000
Dark Spectrum Present: No
Reference Spectrum Present: No
Number of Sampled Component Spectra: 1
Spectrometers: USB4H00879
Integration Time (usec): 80000 (USB4H00879)
Spectra Averaged: 1 (USB4H00879)
Boxcar Smoothing: 0 (USB4H00879)
Correct for Electrical Dark: No (USB4H00879)
Strobe/Lamp Enabled: No (USB4H00879)
Correct for Detector Non-linearity: No (USB4H00879)
Correct for Stray Light: No (USB4H00879)
Number of Pixels in Processed Spectrum: 3648
>>>>>Begin Processed Spectral Data<<<<<
345.13	1241.07
345.34	1241.07
345.56	1241.07
345.78	1302.51
345.99	1269.74
346.21	1703.91
346.42	1728.49
346.64	1683.43
346.86	1806.31
347.07	1667.05
347.29	1708.01
347.50	1656.81
347.72	1660.90
347.94	1708.01
348.15	1562.60
348.37	1652.71
348.59	1722.34
348.80	1667.05
349.02	1775.59
349.23	1851.36
349.45	1861.60
349.67	1939.43
349.88	1806.31
350.10	1968.10
350.31	1906.66
350.53	1826.79
350.75	2002.91
350.96	1814.50
351.18	1884.13
351.39	1820.64
351.61	1814.50
351.82	1855.46
352.04	1925.09
352.26	1806.31
352.47	1857.51
352.69	1918.95
352.90	1728.49
353.12	1877.99
353.34	1837.03
353.55	2019.30
353.77	1949.67
353.98	1839.08
354.20	1857.51
354.41	1920.99
354.63	1875.94
354.85	1966.05
355.06	1841.12
355.28	1824.74
355.49	1863.65
355.71	1910.75
355.92	1843.17
356.14	1904.61
356.35	1916.90
356.57	1888.23
356.79	1890.28
357.00	1859.56
357.22	1920.99
357.43	1853.41
357.65	1920.99
357.86	1871.84
358.08	1890.28
358.29	1935.33
358.51	2033.63
358.72	1972.19
358.94	1896.42
359.16	1935.33
359.37	1994.72
359.59	1980.39
359.80	1927.14
360.02	1925.09
360.23	1931.23
360.45	2052.06
360.66	1908.71
360.88	1908.71
361.09	1929.19
361.31	1925.09
361.52	2068.45
361.74	2070.50
361.95	2113.50
362.17	2009.06
362.38	2068.45
362.60	2056.16
362.81	2023.39
363.03	1980.39
363.24	1920.99
363.46	2068.45
363.67	2050.02
363.89	2056.16
364.10	2078.69
364.32	1992.67
364.53	2039.78
364.75	1906.66
364.96	2072.54
365.18	2004.96
365.39	1994.72
365.61	1931.23
365.82	2215.90
366.04	1994.72
366.25	1966.05
366.47	2103.26
366.68	2054.11
366.90	2025.44
367.11	2133.98
367.33	2045.92
367.54	2148.32
367.76	2043.87
367.97	2103.26
368.19	1957.86
368.40	2068.45
368.62	1916.90
368.83	1990.63
369.05	2125.79
369.26	2019.30
369.48	2043.87
369.69	2035.68
369.91	2000.87
370.12	1990.63
370.33	2123.74
370.55	1978.34
370.76	2050.02
370.98	2150.37
371.19	2119.65
371.41	2015.20
371.62	2027.49
371.84	2013.15
372.05	2203.61
372.27	2066.40
372.48	2090.98
372.69	2097.12
372.91	2136.03
373.12	2174.94
373.34	2099.17
373.55	2203.61
373.77	2154.46
373.98	2086.88
374.20	2127.84
374.41	2228.19
374.62	2133.98
374.84	2248.67
375.05	2144.22
375.27	2166.75
375.48	2248.67
375.70	2213.85
375.91	2234.33
376.12	2209.76
376.34	2174.94
376.55	2156.51
376.77	2213.85
376.98	2127.84
377.19	2101.22
377.41	2211.81
377.62	2150.37
377.84	2230.24
378.05	2334.68
378.27	2220.00
378.48	2340.83
378.69	2357.21
378.91	2297.82
379.12	2183.13
379.34	2250.72
379.55	2263.01
379.76	2207.71
379.98	2303.96
380.19	2269.15
380.41	2324.44
380.62	2295.77
380.83	2277.34
381.05	2174.94
381.26	2379.74
381.47	2209.76
381.69	2330.59
381.90	2426.84
382.12	2338.78
382.33	2226.14
382.54	2375.64
382.76	2353.12
382.97	2332.64
383.19	2197.47
383.40	2406.36
383.61	2297.82
383.83	2263.01
384.04	2316.25
384.25	2451.42
384.47	2422.75
384.68	2404.32
384.89	2258.91
385.11	2314.20
385.32	2379.74
385.54	2265.05
385.75	2306.01
385.96	2416.60
386.18	2336.73
386.39	2404.32
386.60	2346.97
386.82	2430.94
387.03	2424.80
387.24	2459.61
387.46	2455.51
387.67	2457.56
387.88	2471.90
388.10	2445.27
388.31	2422.75
388.52	2578.39
388.74	2412.51
388.95	2492.38
389.16	2553.82
389.38	2551.77
389.59	2584.54
389.80	2576.34
390.02	2510.81
390.23	2629.59
390.44	2598.87
390.66	2498.52
390.87	2484.19
391.08	2590.68
391.30	2684.89
391.51	2572.25
391.72	2719.70
391.94	2660.31
392.15	2627.54
392.36	2541.53
392.58	2562.01
392.79	2676.70
393.00	2574.30
393.22	2629.59
393.43	2734.04
393.64	2740.18
393.85	2756.57
394.07	2656.22
394.28	2633.69
394.49	2727.89
394.71	2727.89
394.92	2781.14
395.13	2695.13
395.35	2734.04
395.56	2625.50
395.77	2809.81
395.98	2822.10
396.20	2746.33
396.41	2850.77
396.62	2834.39
396.84	2826.20
397.05	2727.89
397.26	2838.48
397.47	2949.08
397.69	2887.64
397.90	3090.38
398.11	2842.58
398.32	2942.93
398.54	2957.27
398.75	2885.59
398.96	2875.35
399.18	3055.57
399.39	2979.79
399.60	2916.31
399.81	3008.47
400.03	2832.34
400.24	3217.36
400.45	2992.08
400.66	3030.99
400.88	3039.19
401.09	3174.35
401.30	3022.80
401.51	3129.30
401.73	3153.87
401.94	3051.47
402.15	3117.01
402.36	3160.02
402.58	3080.14
402.79	3184.59
403.00	3164.11
403.21	3205.07
403.43	3286.99
403.64	3250.13
403.85	3014.61
404.06	3213.26
404.27	3071.95
404.49	3135.44
404.70	3037.14
404.91	3250.13
405.12	3205.07
405.34	3235.79
405.55	3362.76
405.76	3135.44
405.97	3166.16
406.19	3377.10
406.40	3274.70
406.61	3360.72
406.82	3272.65
407.03	3315.66
407.25	3284.94
407.46	3448.78
407.67	3452.88
407.88	3489.74
408.09	3346.38
408.31	3436.49
408.52	3348.43
408.73	3387.34
408.94	3338.19
409.15	3426.25
409.37	3475.40
409.58	3540.94
409.79	3450.83
410.00	3542.99
410.21	3327.95
410.43	3450.83
410.64	3475.40
410.85	3526.60
411.06	3506.12
411.27	3526.60
411.48	3643.34
411.70	3577.80
411.91	3649.48
412.12	3616.71
412.33	3579.85
412.54	3633.10
412.76	3661.77
412.97	3788.74
413.18	3485.64
413.39	3618.76
413.60	3706.82
413.81	3663.82
414.03	3540.94
414.24	3643.34
414.45	3788.74
414.66	3590.09
414.87	3768.26
415.08	3762.12
415.30	3747.78
415.51	3743.69
415.72	3825.61
415.93	3579.85
416.14	3768.26
416.35	3868.61
416.56	3792.84
416.78	3856.33
416.99	3721.16
417.20	3960.77
417.41	3893.19
417.62	3807.17
417.83	3948.48
418.04	3962.82
418.26	3964.87
418.47	3973.06
418.68	4011.97
418.89	3948.48
419.10	4128.70
419.31	4077.51
419.52	4140.99
419.73	3985.35
419.95	4169.66
420.16	3893.19
420.37	3989.44
420.58	3999.68
420.79	3901.38
421.00	4143.04
421.21	4085.70
421.42	4063.17
421.63	4206.53
421.85	4143.04
422.06	4138.94
422.27	4177.86
422.48	4153.28
422.69	4214.72
422.90	4149.18
423.11	4317.12
423.32	4227.01
423.53	4427.71
423.75	4423.61
423.96	4523.96
424.17	4517.82
424.38	4513.72
424.59	4358.08
424.80	4607.93
425.01	4499.39
425.22	4351.93
425.43	4448.19
425.64	4618.17
425.85	4612.03
426.06	4644.79
426.28	4460.48
426.49	4571.07
426.70	4581.31
426.91	4532.15
427.12	4417.47
427.33	4605.88
427.54	4607.93
427.75	4648.89
427.96	4751.29
428.17	4745.14
428.38	4669.37
428.59	4870.07
428.80	4818.87
429.01	4788.15
429.23	4839.35
429.44	5097.39
429.65	4925.36
429.86	4990.90
430.07	4773.82
430.28	4829.11
430.49	4921.27
430.70	5007.28
430.91	5060.53
431.12	5033.91
431.33	5083.06
431.54	5154.74
431.75	5124.02
431.96	5013.43
432.17	5132.21
432.38	5126.07
432.59	5222.32
432.80	5220.27
433.01	5132.21
433.22	5205.94
433.43	5226.42
433.64	5189.55
433.85	5140.40
434.06	5294.00
434.27	5158.83
434.49	5420.97
434.70	5474.22
434.91	5496.75
435.12	5287.86
435.33	5445.55
435.54	5453.74
435.75	5337.01
435.96	5275.57
436.17	5220.27
436.38	5367.73
436.59	5609.39
436.80	5492.65
437.01	5474.22
437.22	5631.91
437.43	5668.78
437.64	5509.04
437.85	5654.44
438.06	5517.23
438.27	5572.52
438.48	5588.91
438.69	5746.60
438.90	5625.77
439.11	5525.42
439.32	5781.42
439.53	5812.14
439.74	5920.68
439.95	5781.42
440.16	5808.04
440.37	5871.53
440.57	5537.71
440.78	5945.25
440.99	5912.49
441.20	5877.67
441.41	5783.46
441.62	5859.24
441.83	5803.94
442.04	5922.73
442.25	6070.18
442.46	5894.05
442.67	6191.01
442.88	6334.37
443.09	6016.93
443.30	6053.80
443.51	6293.41
443.72	6428.57
443.93	6053.80
444.14	6205.35
444.35	6072.23
444.56	6240.16
444.77	6205.35
444.98	6289.31
445.19	6389.66
445.40	6334.37
445.61	6238.11
445.81	6336.42
446.02	6338.46
446.23	6401.95
446.44	6154.15
446.65	6528.92
446.86	6440.86
447.07	6721.43
447.28	6512.54
447.49	6633.37
447.70	6371.23
447.91	6631.32
448.12	6483.87
448.33	6768.54
448.54	6711.19
448.74	6680.47
448.95	6631.32
449.16	6633.37
449.37	6934.42
449.58	6727.58
449.79	6971.29
450.00	6696.86
450.21	6813.59
450.42	7032.72
450.63	6832.02
450.84	6729.63
451.05	6836.12
451.25	6840.22
451.46	6838.17
451.67	7153.55
451.88	7282.58
452.09	7061.40
452.30	7208.85
452.51	6948.76
452.72	7169.94
452.93	7456.65
453.13	7118.74
453.34	7161.75
453.55	7366.54
453.76	7368.59
453.97	7536.52
454.18	7438.22
454.39	7587.72
454.60	7350.16
454.81	7352.21
455.01	7753.61
455.22	7223.19
455.43	7524.24
455.64	7573.39
455.85	7774.09
456.06	7839.62
456.27	7835.53
456.48	7739.27
456.68	7792.52
456.89	7948.17
457.10	8073.09
457.31	7960.45
457.52	7890.82
457.73	8021.89
457.94	8275.84
458.14	7968.65
458.35	8267.65
458.56	8263.55
458.77	8198.02
458.98	8382.34
459.19	8208.26
459.39	8529.79
459.60	8501.12
459.81	8316.80
460.02	8685.44
460.23	8507.26
460.44	8740.73
460.65	8425.34
460.85	8720.25
461.06	8744.83
461.27	8597.37
461.48	8908.66
461.69	8986.49
461.89	8613.76
462.10	8957.82
462.31	8841.08
462.52	8914.81
462.73	8847.22
462.94	9248.63
463.14	9209.72
463.35	9234.29
463.56	9529.20
463.77	9408.37
463.98	9246.58
464.18	9418.61
464.39	9539.44
464.60	9584.49
464.81	9543.53
465.02	9592.69
465.23	9895.78
465.43	9545.58
465.64	9883.50
465.85	9996.14
466.06	9832.30
466.27	10149.73
466.47	10028.90
466.68	9957.22
466.89	10004.33
467.10	10313.57
467.30	10065.77
467.51	10202.98
467.72	10379.11
467.93	10329.95
468.14	10622.81
468.34	10393.44
468.55	10585.95
468.76	10692.44
468.97	10385.25
469.17	10895.19
469.38	10858.33
469.59	11056.98
469.80	10966.87
470.01	10833.75
470.21	10866.52
470.42	11274.07
470.63	11591.50
470.84	11173.72
471.04	11398.99
471.25	11349.84
471.46	11353.94
471.67	11814.73
471.87	11378.51
472.08	11601.74
472.29	11751.24
472.50	11556.69
472.70	11589.46
472.91	11941.71
473.12	12216.13
473.33	12068.68
473.53	12316.48
473.74	12144.45
473.95	12185.41
474.16	12402.50
474.36	12390.21
474.57	12631.87
474.78	12844.86
474.99	12638.02
475.19	12568.38
475.40	13111.10
475.61	13107.00
475.81	13215.54
476.02	13115.19
476.23	13088.57
476.44	13252.41
476.64	13526.83
476.85	13727.53
477.06	13436.72
477.27	13733.68
477.47	13657.90
477.68	13713.20
477.89	13961.00
478.09	13971.24
478.30	13987.63
478.51	14157.61
478.71	14229.29
478.92	14446.37
479.13	14454.56
479.34	14380.84
479.54	14606.11
479.75	14653.22
479.96	14569.25
480.16	14974.75
480.37	14671.65
480.58	14903.07
480.78	15329.05
480.99	15273.75
481.20	15443.73
481.41	15580.95
481.61	15589.14
481.82	15644.43
482.03	15765.26
482.23	15554.32
482.44	15902.48
482.65	15968.01
482.85	16267.02
483.06	16135.95
483.27	16256.78
483.47	16211.72
483.68	16342.79
483.89	16428.81
484.09	16271.11
484.30	16396.04
484.51	16916.22
484.71	16830.21
484.92	16822.02
485.13	16951.04
485.33	17051.39
485.54	16840.45
485.75	17401.59
485.95	17489.65
486.16	17432.31
486.37	17524.47
486.57	17346.30
486.78	17553.14
486.98	17587.96
487.19	17956.59
487.40	17966.83
487.60	17809.14
487.81	18140.91
488.02	18296.55
488.22	18097.90
488.43	18435.81
488.64	18362.09
488.84	18446.05
489.05	18589.41
489.25	18351.85
489.46	18749.15
489.67	18800.35
489.87	18826.98
490.08	19011.29
490.29	19177.18
490.49	19355.35
490.70	19291.87
490.90	19119.84
491.11	19232.47
491.32	19633.88
491.52	19693.27
491.73	19738.32
491.94	19291.87
492.14	19678.93
492.35	20070.09
492.55	19906.26
492.76	20195.02
492.97	20303.56
493.17	20168.40
493.38	20238.03
493.58	20735.68
493.79	20377.29
494.00	20233.93
494.20	20465.35
494.41	20680.39
494.61	20967.10
494.82	20733.64
495.02	20940.48
495.23	20805.31
495.44	21192.38
495.64	21020.35
495.85	20954.82
496.05	21391.03
496.26	21335.74
496.47	21642.93
496.67	21235.39
496.88	21558.97
497.08	21405.37
497.29	21812.92
497.49	21894.83
497.70	22064.82
497.91	22023.86
498.11	22210.22
498.32	22154.93
498.52	21966.51
498.73	22257.32
498.93	22357.67
499.14	22197.93
499.34	22531.75
499.55	22617.77
499.76	22550.18
499.96	22451.88
500.17	22556.33
500.37	22933.15
500.58	22685.35
500.78	22847.14
500.99	23004.83
501.19	23391.90
501.40	23396.00
501.60	22814.37
501.81	23096.99
502.02	23230.11
502.22	23305.88
502.43	23316.12
502.63	23783.06
502.84	23606.94
503.04	23631.51
503.25	23676.57
503.45	23750.29
503.66	23787.16
503.86	23930.51
504.07	23869.08
504.27	23791.25
504.48	24213.13
504.68	24084.11
504.89	24450.70
505.09	24131.22
505.30	24399.50
505.50	24413.84
505.71	24374.92
505.91	24379.02
506.12	24680.07
506.32	24493.71
506.53	24714.89
506.73	24663.69
506.94	25013.89
507.14	25071.23
507.35	25122.43
507.55	24987.27
507.76	25292.41
507.96	25085.57
508.17	24952.45
508.37	25161.34
508.58	25388.67
508.78	25308.80
508.99	25509.50
509.19	25626.23
509.40	25583.23
509.60	25517.69
509.81	25468.54
510.01	25493.12
510.22	25593.47
510.42	25441.92
510.63	26166.90
510.83	25814.65
511.04	25867.89
511.24	26064.50
511.44	26127.99
511.65	26031.73
511.85	26193.52
512.06	26345.07
512.26	26515.05
512.47	26529.39
512.67	26613.35
512.88	26637.93
513.08	26400.37
513.29	26848.87
513.49	26416.75
513.69	26435.18
513.90	26670.70
514.10	26791.53
514.31	26883.69
514.51	26834.53
514.72	27098.72
514.92	27248.22
515.13	26969.70
515.33	27072.10
515.53	27102.82
515.74	27338.33
515.94	27403.87
516.15	27604.57
516.35	27260.51
516.56	27528.80
516.76	27350.62
516.96	27672.15
517.17	27629.15
517.37	27612.76
517.58	27846.23
517.78	27870.81
517.99	27905.62
518.19	28182.10
518.39	28366.42
518.60	28517.96
518.80	28399.18
519.01	28612.17
519.21	28397.13
519.41	28231.25
519.62	28360.27
519.82	28751.43
520.03	28716.62
520.23	28560.97
520.43	28438.09
520.64	28814.92
520.84	29118.02
521.05	28788.30
521.25	29165.12
521.45	29191.75
521.66	29527.61
521.86	29361.73
522.07	29290.05
522.27	29285.95
522.47	29478.46
522.68	29531.71
522.88	29759.03
523.08	30172.72
523.29	30158.39
523.49	29912.63
523.70	30314.03
523.90	30383.66
524.10	30148.15
524.31	30369.33
524.51	30185.01
524.71	30668.33
524.92	30553.65
525.12	30500.40
525.33	30873.13
525.53	31047.21
525.73	31104.55
525.94	30750.25
526.14	31100.45
526.34	31235.62
526.55	31399.46
526.75	31225.38
526.95	31569.44
527.16	31634.97
527.36	31624.73
527.56	31739.42
527.77	32032.28
527.97	32030.23
528.17	32034.33
528.38	32454.16
528.58	32183.83
528.78	32554.51
528.99	32273.94
529.19	33193.48
529.39	32261.65
529.60	32568.85
529.80	33021.45
530.00	32622.09
530.21	32880.14
530.41	33279.49
530.61	33007.11
530.82	32859.66
531.02	33021.45
531.22	33168.90
531.43	33324.55
531.63	33570.30
531.83	33842.68
532.04	34074.10
532.24	33881.60
532.44	34366.96
532.64	34362.87
532.85	34389.49
533.05	34166.26
533.25	34641.39
533.46	34076.15
533.66	34391.54
533.86	34596.34
534.07	34944.49
534.27	34711.02
534.47	35284.45
534.67	35145.19
534.88	34741.74
535.08	34956.78
535.28	35714.53
535.49	35595.74
535.69	35710.43
535.89	35661.28
536.09	35712.48
536.30	36167.13
536.50	35745.25
536.70	36107.74
536.91	36005.34
537.11	36310.49
537.31	36486.61
537.51	36173.27
537.72	36902.35
537.92	36779.47
538.12	36957.64
538.32	36842.96
538.53	37397.96
538.73	37199.30
538.93	36980.17
539.13	36666.83
539.34	37383.62
539.54	37068.23
539.74	37537.22
539.94	37162.44
540.15	37311.94
540.35	38057.40
540.55	37455.30
540.75	37709.25
540.96	37832.13
541.16	37766.59
541.36	37510.60
541.56	38346.17
541.77	38034.88
541.97	38237.62
542.17	38331.83
542.37	38315.45
542.58	38229.43
542.78	38342.07
542.98	38405.56
543.18	38888.88
543.38	38995.37
543.59	38806.96
543.79	38639.03
543.99	38790.58
544.19	39343.53
544.40	39347.62
544.60	39456.17
544.80	39251.37
545.00	39382.44
545.20	39617.96
545.41	39495.08
545.61	39347.62
545.81	39376.30
546.01	40037.79
546.21	39611.81
546.42	39515.56
546.62	40244.63
546.82	39675.30
547.02	39929.25
547.22	39943.58
547.43	40029.60
547.63	40385.94
547.83	40115.61
548.03	40160.67
548.23	40326.55
548.44	40535.45
548.64	40523.16
548.84	40347.03
549.04	40756.63
549.24	40555.93
549.45	41029.01
549.65	40387.99
549.85	40373.66
550.05	41006.48
550.25	40410.52
550.45	40912.27
550.66	41082.25
550.86	40912.27
551.06	41074.06
551.26	41000.33
551.46	41438.60
551.66	41555.33
551.87	41246.09
552.07	41381.26
552.27	41170.32
552.47	41538.95
552.67	41405.83
552.87	41448.84
553.07	41616.77
553.28	41784.71
553.48	41610.63
553.68	41710.98
553.88	42182.01
554.08	41772.42
554.28	41829.76
554.48	41575.81
554.69	41999.74
554.89	41725.32
555.09	41903.49
555.29	41862.53
555.49	41670.02
555.69	42005.89
555.89	42159.48
556.10	42308.99
556.30	42061.18
556.50	42104.19
556.70	42227.07
556.90	42423.67
557.10	42403.19
557.30	42341.75
557.50	42407.29
557.70	42675.57
557.91	42657.14
558.11	42526.07
558.31	42186.11
558.51	42282.36
558.71	42788.21
558.91	42816.88
559.11	42421.62
559.31	42792.31
559.51	42341.75
559.72	42683.76
559.92	43201.90
560.12	43126.13
560.32	43234.67
560.52	42581.37
560.72	43160.94
560.92	43126.13
561.12	43074.93
561.32	43582.82
561.52	42947.95
561.72	43480.42
561.93	42753.40
562.13	43332.97
562.33	43251.05
562.53	43701.61
562.73	43038.06
562.93	43087.21
563.13	43404.65
563.33	43023.73
563.53	43533.67
563.73	43251.05
563.93	43318.64
564.13	43769.19
564.33	43517.29
564.53	43054.45
564.74	43726.18
564.94	43144.56
565.14	43722.08
565.34	43384.17
565.54	43435.37
565.74	43578.73
565.94	43906.40
566.14	43744.61
566.34	43318.64
566.54	44012.90
566.74	43273.58
566.94	43679.08
567.14	44266.84
567.34	43636.07
567.54	44123.49
567.74	43941.22
567.94	43668.84
568.14	43953.51
568.34	44166.49
568.54	44074.34
568.74	44029.28
568.94	44023.14
569.14	44414.30
569.34	44115.29
569.54	44385.63
569.75	43973.98
569.95	44031.33
570.15	44625.24
570.35	44449.11
570.55	43804.00
570.75	44088.67
570.95	44459.35
571.15	44449.11
571.35	44641.62
571.55	44668.25
571.75	44272.99
571.95	44789.08
572.15	44549.46
572.35	44903.76
572.55	44389.72
572.75	44586.33
572.95	44301.66
573.15	44711.25
573.35	45038.93
573.55	44588.38
573.75	44479.83
573.95	44868.95
574.15	44957.01
574.35	44784.98
574.55	45204.81
574.75	44625.24
574.95	45251.92
575.15	44963.15
575.34	45061.46
575.54	45425.99
575.74	45219.15
575.94	45694.28
576.14	45389.13
576.34	45446.47
576.54	45704.52
576.74	45626.70
576.94	45667.66
577.14	45845.83
577.34	46251.33
577.54	45315.40
577.74	45948.23
577.94	45763.91
578.14	46110.02
578.34	46327.10
578.54	45233.49
578.74	45565.26
578.94	46183.74
579.14	45796.68
579.34	45696.33
579.54	46282.05
579.74	46564.67
579.94	45872.45
580.13	46495.03
580.33	45985.09
580.53	46245.18
580.73	46067.01
580.93	46269.76
581.13	46247.23
581.33	46146.88
581.53	46990.64
581.73	46415.16
581.93	46652.73
582.13	46548.28
582.33	46839.09
582.53	46359.87
582.73	46996.79
582.92	46880.05
583.12	47174.96
583.32	46947.64
583.52	46544.19
583.72	47168.82
583.92	47205.68
584.12	46818.61
584.32	47287.60
584.52	47275.31
584.72	47404.33
584.92	47605.03
585.11	48092.45
585.31	47301.93
585.51	47396.14
585.71	47412.52
585.91	47795.49
586.11	47711.53
586.31	47426.86
586.51	47748.39
586.71	47777.06
586.91	48069.92
587.10	47600.94
587.30	47846.69
587.50	48315.68
587.70	47654.18
587.90	47873.32
588.10	47998.24
588.30	47697.19
588.50	47883.56
