SpectraSuite Data File
++++++++++++++++++++++++++++++++++++
Date: Fri Jun 02 14:57:23 CEST 2017
User: INFO_000
Dark Spectrum Present: No
Reference Spectrum Present: No
Number of Sampled Component Spectra: 1
Spectrometers: USB4H00879
Integration Time (usec): 80000 (USB4H00879)
Spectra Averaged: 1 (USB4H00879)
Boxcar Smoothing: 0 (USB4H00879)
Correct for Electrical Dark: No (USB4H00879)
Strobe/Lamp Enabled: No (USB4H00879)
Correct for Detector Non-linearity: No (USB4H00879)
Correct for Stray Light: No (USB4H00879)
Number of Pixels in Processed Spectrum: 3648
>>>>>Begin Processed Spectral Data<<<<<
345.13	1267.69
345.34	1267.69
345.56	1267.69
345.78	1294.32
345.99	1273.84
346.21	1693.67
346.42	1732.58
346.64	1613.80
346.86	1814.50
347.07	1675.24
347.29	1710.05
347.50	1576.94
347.72	1736.68
347.94	1724.39
348.15	1525.74
348.37	1624.04
348.59	1644.52
348.80	1650.66
349.02	1718.25
349.23	1839.08
349.45	1806.31
349.67	1882.08
349.88	1826.79
350.10	1953.76
350.31	1863.65
350.53	1789.92
350.75	2017.25
350.96	1767.40
351.18	1843.17
351.39	1900.52
351.61	1810.40
351.82	1845.22
352.04	1845.22
352.26	1839.08
352.47	1875.94
352.69	1859.56
352.90	1771.49
353.12	1894.37
353.34	1771.49
353.55	1916.90
353.77	1877.99
353.98	1824.74
354.20	1861.60
354.41	1961.95
354.63	1953.76
354.85	2078.69
355.06	1896.42
355.28	1818.60
355.49	1740.77
355.71	1853.41
355.92	1927.14
356.14	1896.42
356.35	1814.50
356.57	1877.99
356.79	1961.95
357.00	1867.75
357.22	1990.63
357.43	1894.37
357.65	1986.53
357.86	1812.45
358.08	1888.23
358.29	1957.86
358.51	2019.30
358.72	2009.06
358.94	1900.52
359.16	1935.33
359.37	1918.95
359.59	1875.94
359.80	1994.72
360.02	1935.33
360.23	1996.77
360.45	2052.06
360.66	1955.81
360.88	1896.42
361.09	1826.79
361.31	1970.15
361.52	2015.20
361.74	2031.58
361.95	2080.74
362.17	1980.39
362.38	2125.79
362.60	2058.21
362.81	2086.88
363.03	1957.86
363.24	1937.38
363.46	2146.27
363.67	2011.11
363.89	1996.77
364.10	1986.53
364.32	1978.34
364.53	2082.78
364.75	1918.95
364.96	2011.11
365.18	2054.11
365.39	2015.20
365.61	1955.81
365.82	2150.37
366.04	2025.44
366.25	1939.43
366.47	2031.58
366.68	2093.02
366.90	2017.25
367.11	2090.98
367.33	2109.41
367.54	2107.36
367.76	1994.72
367.97	2068.45
368.19	1998.82
368.40	2084.83
368.62	1896.42
368.83	1982.43
369.05	2154.46
369.26	1982.43
369.48	2002.91
369.69	2052.06
369.91	2031.58
370.12	1992.67
370.33	2121.70
370.55	1994.72
370.76	2015.20
370.98	2047.97
371.19	1943.52
371.41	2097.12
371.62	2068.45
371.84	1896.42
372.05	2240.48
372.27	2037.73
372.48	2066.40
372.69	2050.02
372.91	2176.99
373.12	2099.17
373.34	2117.60
373.55	2115.55
373.77	2103.26
373.98	2056.16
374.20	2115.55
374.41	2238.43
374.62	2039.78
374.84	2146.27
375.05	2181.09
375.27	2174.94
375.48	2187.23
375.70	2131.94
375.91	2250.72
376.12	2189.28
376.34	2232.29
376.55	2232.29
376.77	2176.99
376.98	2154.46
377.19	2058.21
377.41	2072.54
377.62	2215.90
377.84	2283.49
378.05	2400.22
378.27	2220.00
378.48	2299.87
378.69	2361.31
378.91	2326.49
379.12	2193.37
379.34	2306.01
379.55	2187.23
379.76	2299.87
379.98	2258.91
380.19	2357.21
380.41	2248.67
380.62	2312.16
380.83	2203.61
381.05	2236.38
381.26	2377.69
381.47	2189.28
381.69	2346.97
381.90	2369.50
382.12	2228.19
382.33	2316.25
382.54	2293.72
382.76	2271.20
382.97	2320.35
383.19	2193.37
383.40	2279.39
383.61	2273.25
383.83	2328.54
384.04	2344.92
384.25	2396.12
384.47	2340.83
384.68	2295.77
384.89	2248.67
385.11	2324.44
385.32	2332.64
385.54	2400.22
385.75	2349.02
385.96	2430.94
386.18	2461.66
386.39	2463.71
386.60	2420.70
386.82	2414.56
387.03	2488.28
387.24	2496.47
387.46	2418.65
387.67	2412.51
387.88	2547.67
388.10	2443.23
388.31	2527.19
388.52	2590.68
388.74	2564.06
388.95	2400.22
389.16	2519.00
389.38	2566.10
389.59	2535.39
389.80	2615.26
390.02	2553.82
390.23	2672.60
390.44	2615.26
390.66	2516.95
390.87	2498.52
391.08	2637.78
391.30	2740.18
391.51	2652.12
391.72	2584.54
391.94	2592.73
392.15	2697.17
392.36	2621.40
392.58	2695.13
392.79	2715.61
393.00	2652.12
393.22	2709.46
393.43	2635.74
393.64	2826.20
393.85	2754.52
394.07	2688.98
394.28	2672.60
394.49	2703.32
394.71	2750.42
394.92	2760.66
395.13	2736.09
395.35	2729.94
395.56	2719.70
395.77	2695.13
395.98	2740.18
396.20	2824.15
396.41	2822.10
396.62	2875.35
396.84	2840.53
397.05	2891.73
397.26	2875.35
397.47	2947.03
397.69	2797.53
397.90	3018.71
398.11	2944.98
398.32	2920.40
398.54	2858.96
398.75	2889.68
398.96	2934.74
399.18	3137.49
399.39	2973.65
399.60	3086.29
399.81	2955.22
400.03	2971.60
400.24	3215.31
400.45	2920.40
400.66	3112.91
400.88	2928.60
401.09	3213.26
401.30	3006.42
401.51	3131.34
401.73	3028.95
401.94	3100.62
402.15	3059.67
402.36	3139.54
402.58	3155.92
402.79	3114.96
403.00	3088.34
403.21	3192.78
403.43	3239.89
403.64	3282.89
403.85	3168.21
404.06	3174.35
404.27	3041.23
404.49	3239.89
404.70	3125.20
404.91	3164.11
405.12	3131.34
405.34	3211.22
405.55	3278.80
405.76	3198.93
405.97	3198.93
406.19	3461.07
406.40	3231.69
406.61	3313.61
406.82	3303.37
407.03	3256.27
407.25	3194.83
407.46	3426.25
407.67	3440.59
407.88	3524.55
408.09	3420.11
408.31	3416.01
408.52	3397.58
408.73	3305.42
408.94	3334.09
409.15	3475.40
409.37	3522.51
409.58	3485.64
409.79	3459.02
410.00	3497.93
410.21	3461.07
410.43	3436.49
410.64	3284.94
410.85	3559.37
411.06	3592.14
411.27	3491.79
411.48	3551.18
411.70	3504.07
411.91	3483.59
412.12	3686.34
412.33	3579.85
412.54	3579.85
412.76	3616.71
412.97	3686.34
413.18	3542.99
413.39	3577.80
413.60	3633.10
413.81	3661.77
414.03	3612.62
414.24	3594.19
414.45	3844.04
414.66	3573.71
414.87	3696.58
415.08	3729.35
415.30	3680.20
415.51	3792.84
415.72	3758.02
415.93	3731.40
416.14	3821.51
416.35	3737.54
416.56	3858.37
416.78	3889.09
416.99	3850.18
417.20	3743.69
417.41	3907.52
417.62	3846.09
417.83	3882.95
418.04	3964.87
418.26	3928.00
418.47	3905.48
418.68	3987.40
418.89	3919.81
419.10	4143.04
419.31	3983.30
419.52	4042.69
419.73	4028.35
419.95	4145.09
420.16	3872.71
420.37	4071.36
420.58	4114.37
420.79	3911.62
421.00	4065.22
421.21	4075.46
421.42	4054.98
421.63	4173.76
421.85	4136.90
422.06	4108.23
422.27	4042.69
422.48	4167.62
422.69	4245.44
422.90	4292.54
423.11	4173.76
423.32	4423.61
423.53	4333.50
423.75	4284.35
423.96	4347.84
424.17	4353.98
424.38	4470.72
424.59	4464.57
424.80	4698.04
425.01	4431.80
425.22	4341.69
425.43	4470.72
425.64	4546.49
425.85	4693.94
426.06	4566.97
426.28	4517.82
426.49	4534.20
426.70	4540.35
426.91	4591.55
427.12	4710.33
427.33	4495.29
427.54	4569.02
427.75	4722.62
427.96	4732.86
428.17	4779.96
428.38	4769.72
428.59	4812.73
428.80	4753.34
429.01	4751.29
429.23	4915.12
429.44	4921.27
429.65	4951.99
429.86	4767.67
430.07	4849.59
430.28	4870.07
430.49	4902.84
430.70	5142.45
430.91	5117.87
431.12	5193.65
431.33	5095.35
431.54	5068.72
431.75	5124.02
431.96	5189.55
432.17	5042.10
432.38	5115.83
432.59	5267.38
432.80	5246.90
433.01	5375.92
433.22	5283.76
433.43	5207.98
433.64	5154.74
433.85	5214.13
434.06	5285.81
434.27	5253.04
434.49	5459.88
434.70	5427.12
434.91	5537.71
435.12	5388.21
435.33	5318.57
435.54	5463.98
435.75	5298.10
435.96	5414.83
436.17	5359.53
436.38	5459.88
436.59	5576.62
436.80	5521.32
437.01	5801.90
437.22	5726.12
437.43	5580.71
437.64	5384.11
437.85	5814.18
438.06	5760.94
438.27	5439.40
438.48	5599.15
438.69	5636.01
438.90	5668.78
439.11	5781.42
439.32	5863.33
439.53	5736.36
439.74	5699.50
439.95	5799.85
440.16	5857.19
440.37	5857.19
440.57	5762.98
440.78	5957.54
440.99	6010.79
441.20	5935.01
441.41	5859.24
441.62	5910.44
441.83	5832.62
442.04	6098.85
442.25	6092.71
442.46	6113.19
442.67	6033.32
442.88	6440.86
443.09	5955.49
443.30	6078.37
443.51	6129.57
443.72	6320.03
443.93	6086.56
444.14	6371.23
444.35	6000.55
444.56	6299.55
444.77	6195.11
444.98	6412.19
445.19	6342.56
445.40	6344.61
445.61	6299.55
445.81	6483.87
446.02	6436.77
446.23	6406.05
446.44	6217.63
446.65	6424.48
446.86	6567.84
447.07	6483.87
447.28	6713.24
447.49	6619.04
447.70	6414.24
447.91	6713.24
448.12	6571.93
448.33	6651.80
448.54	6805.40
448.74	6635.42
448.95	6774.68
449.16	6760.34
449.37	7024.53
449.58	6705.05
449.79	6829.98
450.00	6758.30
450.21	6963.09
450.42	6868.89
450.63	6924.18
450.84	6975.38
451.05	6944.66
451.25	6942.61
451.46	6838.17
451.67	7192.47
451.88	7268.24
452.09	7081.88
452.30	7135.12
452.51	7002.01
452.72	7120.79
452.93	7427.98
453.13	7143.32
453.34	7198.61
453.55	7184.27
453.76	7325.58
453.97	7579.53
454.18	7352.21
454.39	7446.41
454.60	7536.52
454.81	7518.09
455.01	7577.48
455.22	7423.89
455.43	7479.18
455.64	7677.83
455.85	7786.38
456.06	7911.30
456.27	7657.36
456.48	7688.07
456.68	7729.03
456.89	7835.53
457.10	7870.34
457.31	7942.02
457.52	8003.46
457.73	8122.24
457.94	8122.24
458.14	7735.18
458.35	8357.76
458.56	8271.75
458.77	8171.40
458.98	8267.65
459.19	8275.84
459.39	8204.16
459.60	8677.24
459.81	8341.38
460.02	8644.48
460.23	8408.96
460.44	8660.86
460.65	8482.69
460.85	8585.08
461.06	8712.06
461.27	8390.53
461.48	9092.98
461.69	8824.70
461.89	8648.57
462.10	9000.82
462.31	8546.17
462.52	8730.49
462.73	8877.94
462.94	9148.28
463.14	9117.56
463.35	8970.10
463.56	9461.62
463.77	9314.16
463.98	9097.08
464.18	9174.90
464.39	9293.68
464.60	9523.05
464.81	9535.34
465.02	9475.95
465.23	9717.61
465.43	9529.20
465.64	9869.16
465.85	9785.19
466.06	9717.61
466.27	10024.81
466.47	10016.62
466.68	9932.65
466.89	9895.78
467.10	9969.51
467.30	9951.08
467.51	10094.44
467.72	10293.09
467.93	10295.14
468.14	10174.31
468.34	10547.04
468.55	10360.67
468.76	10440.54
468.97	10454.88
469.17	10784.60
469.38	10604.38
469.59	10907.48
469.80	10665.82
470.01	10594.14
470.21	10866.52
470.42	11116.37
470.63	11177.81
470.84	11237.20
471.04	11099.99
471.25	11130.71
471.46	11235.16
471.67	11560.78
471.87	11542.35
472.08	11394.90
472.29	11751.24
472.50	11425.62
472.70	11642.70
472.91	11769.68
473.12	11970.38
473.33	12177.22
473.53	11878.22
473.74	11956.04
473.95	12064.58
474.16	12238.66
474.36	12255.04
474.57	12447.55
474.78	12588.86
474.99	12468.03
475.19	12480.32
475.40	12719.93
475.61	13127.48
475.81	12959.55
476.02	13127.48
476.23	12881.72
476.44	13168.44
476.64	13317.94
476.85	13569.84
477.06	13444.91
477.27	13430.58
477.47	13698.86
477.68	13668.14
477.89	13860.65
478.09	13987.63
478.30	13965.10
478.51	14051.11
478.71	14204.71
478.92	14128.94
479.13	14270.25
479.34	14552.87
479.54	14350.12
479.75	14429.99
479.96	14546.72
480.16	14645.02
480.37	14774.05
480.58	14778.14
480.78	15132.44
480.99	15093.53
481.20	15286.04
481.41	15554.32
481.61	15476.50
481.82	15499.03
482.03	15572.75
482.23	15587.09
482.44	15890.19
482.65	15871.76
482.85	16006.92
483.06	16060.17
483.27	16209.67
483.47	16097.03
483.68	16142.09
483.89	16312.07
484.09	16189.19
484.30	16617.22
484.51	16697.09
484.71	16715.52
484.92	16842.50
485.13	16731.90
485.33	16897.79
485.54	16842.50
485.75	17422.07
485.95	17567.48
486.16	17358.58
486.37	17393.40
486.57	17575.67
486.78	17422.07
486.98	17387.25
487.19	17905.39
487.40	17919.73
487.60	17889.01
487.81	18210.54
488.02	18147.05
488.22	18040.56
488.43	18362.09
488.64	18433.77
488.84	18329.32
489.05	18687.71
489.25	18441.96
489.46	18902.75
489.67	18718.43
489.87	19025.63
490.08	19027.68
490.29	19232.47
490.49	19205.85
490.70	19341.02
490.90	19371.74
491.11	19445.46
491.32	19482.33
491.52	19523.29
491.73	19953.36
491.94	19670.74
492.14	19922.64
492.35	19842.77
492.55	19928.78
492.76	20340.43
492.97	20375.24
493.17	19959.50
493.38	20446.92
493.58	20471.50
493.79	20471.50
494.00	20375.24
494.20	20614.85
494.41	20831.94
494.61	20838.08
494.82	20930.24
495.02	20688.58
495.23	21065.41
495.44	21231.29
495.64	21348.03
495.85	21597.88
496.05	21290.68
496.26	21362.36
496.47	21847.73
496.67	21434.04
496.88	21661.37
497.08	21624.50
497.29	21980.85
497.49	21950.13
497.70	21882.55
497.91	22152.88
498.11	22212.27
498.32	22224.56
498.52	22191.79
498.73	22750.88
498.93	22685.35
499.14	22750.88
499.34	22734.50
499.55	22720.17
499.76	22578.86
499.96	22765.22
500.17	22752.93
500.37	23226.01
500.58	23107.23
500.78	23150.24
500.99	23244.45
501.19	23502.49
501.40	22795.94
501.60	23357.08
501.81	23543.45
502.02	23811.73
502.22	23432.86
502.43	23611.03
502.63	23840.40
502.84	23991.95
503.04	23815.83
503.25	23946.90
503.45	23996.05
503.66	24198.80
503.86	24180.37
504.07	24311.44
504.27	24264.33
504.48	24442.51
504.68	24368.78
504.89	24708.74
505.09	24620.68
505.30	24622.73
505.50	24839.81
505.71	24974.98
505.91	24698.50
506.12	24645.26
506.32	24852.10
506.53	24854.15
506.73	25241.21
506.94	25310.85
507.14	25085.57
507.35	24934.02
507.55	25239.17
507.76	25333.37
507.96	25409.15
508.17	25456.25
508.37	25620.09
508.58	25624.18
508.78	25624.18
508.99	25777.78
509.19	25722.49
509.40	25624.18
509.60	26209.90
509.81	25976.44
510.01	25728.63
510.22	26132.08
510.42	26076.79
510.63	26322.54
510.83	26127.99
511.04	26388.08
511.24	26164.85
511.44	26433.13
511.65	26480.24
511.85	26375.79
512.06	26257.01
512.26	26510.96
512.47	26566.25
512.67	26578.54
512.88	26355.31
513.08	26513.00
513.29	26543.72
513.49	27106.91
513.69	27010.66
513.90	26746.47
514.10	27221.60
514.31	27045.48
514.51	26904.17
514.72	27149.92
514.92	27248.22
515.13	26887.78
515.33	27274.85
515.53	27475.55
515.74	27258.46
515.94	27530.84
516.15	27592.28
516.35	27444.83
516.56	27670.11
516.76	27737.69
516.96	27915.86
517.17	28139.09
517.37	27684.44
517.58	28137.04
517.78	27938.39
517.99	28253.78
518.19	28102.23
518.39	27956.82
518.60	28225.11
518.80	28155.47
519.01	28468.81
519.21	28307.02
519.41	28311.12
519.62	28227.15
519.82	28769.86
520.03	28802.63
520.23	28741.19
520.43	28685.90
520.64	29040.20
520.84	29277.76
521.05	29142.60
521.25	29105.73
521.45	29109.83
521.66	29095.49
521.86	29550.14
522.07	29519.42
522.27	29152.84
522.47	29384.26
522.68	29859.38
522.88	29462.08
523.08	30021.17
523.29	29791.80
523.49	30191.16
523.70	29890.10
523.90	30125.62
524.10	29906.49
524.31	30438.96
524.51	30047.80
524.71	30262.83
524.92	30246.45
525.12	30647.85
525.33	30813.74
525.53	30789.16
525.73	30809.64
525.94	30737.96
526.14	30766.63
526.34	31301.15
526.55	31217.19
526.75	31133.22
526.95	31245.86
527.16	31153.70
527.36	31303.20
527.56	31370.79
527.77	31622.69
527.97	31565.34
528.17	31759.90
528.38	32001.56
528.58	31936.02
528.78	32017.94
528.99	31856.15
529.19	32599.57
529.39	32136.73
529.60	32814.60
529.80	32318.99
530.00	32607.76
530.21	33058.31
530.41	32708.11
530.61	32441.87
530.82	32970.25
531.02	32812.56
531.22	33316.36
531.43	33222.15
531.63	33191.43
531.83	33588.74
532.04	33465.86
532.24	33281.54
532.44	33541.63
532.64	33928.70
532.85	33738.24
533.05	33662.46
533.25	34035.19
533.46	33936.89
533.66	34299.38
533.86	33756.67
534.07	34627.06
534.27	34522.61
534.47	34588.14
534.67	34729.45
534.88	34670.06
535.08	34590.19
535.28	34921.96
535.49	35112.42
535.69	35552.74
535.89	35345.89
536.09	35532.26
536.30	35534.31
536.50	35573.22
536.70	35413.48
536.91	35319.27
537.11	35589.60
537.31	35956.19
537.51	35716.58
537.72	36382.16
537.92	36308.44
538.12	36328.92
538.32	35950.04
538.53	36632.02
538.73	36558.29
538.93	36443.60
539.13	36359.64
539.34	36492.76
539.54	36388.31
539.74	36660.69
539.94	36754.90
540.15	36761.04
540.35	37209.54
540.55	37074.38
540.75	37205.45
540.96	37119.43
541.16	37113.29
541.36	37406.15
541.56	37520.84
541.77	37817.79
541.97	37830.08
542.17	37918.14
542.37	37639.62
542.58	37942.72
542.78	37928.38
542.98	37971.39
543.18	38430.13
543.38	38157.75
543.59	38673.84
543.79	38100.41
543.99	38229.43
544.19	38743.47
544.40	38475.19
544.60	38778.29
544.80	38598.07
545.00	39112.11
545.20	39167.40
545.41	38913.45
545.61	38479.28
545.81	39065.00
546.01	39353.77
546.21	39200.17
546.42	38917.55
546.62	39366.06
546.82	39251.37
547.02	39421.35
547.22	39568.80
547.43	39554.47
547.63	39392.68
547.83	39505.32
548.03	39636.39
548.23	40109.47
548.44	39873.95
548.64	39810.46
548.84	39839.14
549.04	39951.77
549.24	39744.93
549.45	40387.99
549.65	40197.53
549.85	40080.80
550.05	40525.21
550.25	40457.62
550.45	40861.07
550.66	40844.69
550.86	40818.07
551.06	40687.00
551.26	40705.43
551.46	41098.64
551.66	40895.89
551.87	40643.99
552.07	40754.58
552.27	40928.66
552.47	41160.08
552.67	41311.63
552.87	41090.44
553.07	41051.53
553.28	41538.95
553.48	41117.07
553.68	41170.32
553.88	41530.76
554.08	41276.81
554.28	41344.39
554.48	40940.94
554.69	41749.89
554.89	41819.52
555.09	41655.68
555.29	41819.52
555.49	41657.73
555.69	41637.25
555.89	41883.01
556.10	41651.59
556.30	41520.52
556.50	42270.08
556.70	41819.52
556.90	42128.77
557.10	42188.16
557.30	42147.20
557.50	42327.42
557.70	42249.60
557.91	42372.47
558.11	41989.50
558.31	42433.91
558.51	42438.01
558.71	42470.78
558.91	42685.81
559.11	42335.61
559.31	42667.38
559.51	42487.16
559.72	42689.91
559.92	42360.19
560.12	42380.67
560.32	42569.08
560.52	42614.13
560.72	42968.43
560.92	42872.18
561.12	43068.78
561.32	43115.89
561.52	42941.81
561.72	43238.76
561.93	42906.99
562.13	43488.62
562.33	42575.22
562.53	43388.27
562.73	42925.42
562.93	43160.94
563.13	43386.22
563.33	43011.44
563.53	43359.59
563.73	43259.24
563.93	43335.02
564.13	43539.82
564.33	43494.76
564.53	43554.15
564.74	43521.38
564.94	43586.92
565.14	43617.64
565.34	43478.38
565.54	43771.24
565.74	43937.12
565.94	43625.83
566.14	43890.02
566.34	43517.29
566.54	43982.18
566.74	43869.54
566.94	43908.45
567.14	44012.90
567.34	43871.59
567.54	44025.18
567.74	43726.18
567.94	44127.58
568.14	44092.77
568.34	43947.36
568.54	44211.55
568.74	44225.89
568.94	44293.47
569.14	44604.76
569.34	44203.36
569.54	44383.58
569.75	43920.74
569.95	44258.65
570.15	44750.17
570.35	44473.69
570.55	44291.42
570.75	44807.51
570.95	44823.89
571.15	45102.42
571.35	44514.65
571.55	44672.34
571.75	44229.98
571.95	44612.95
572.15	44586.33
572.35	45077.84
572.55	44848.47
572.75	44653.91
572.95	44909.91
573.15	44770.64
573.35	45018.45
573.55	44660.05
573.75	45053.26
573.95	44928.34
574.15	45122.90
574.35	45354.32
574.55	45090.13
574.75	45075.79
574.95	45335.88
575.15	45579.59
575.34	45237.58
575.54	45491.53
575.74	45569.35
575.94	45737.29
576.14	45608.26
576.34	45827.40
576.54	46032.19
576.74	46060.87
576.94	45688.13
577.14	46021.95
577.34	46093.63
577.54	45645.13
577.74	45854.02
577.94	46040.39
578.14	45741.38
578.34	45743.43
578.54	45264.21
578.74	45765.96
578.94	46384.44
579.14	46052.67
579.34	46327.10
579.54	46341.44
579.74	46400.83
579.94	46044.48
580.13	46724.41
580.33	46378.30
580.53	46775.61
580.73	46556.47
580.93	46835.00
581.13	46579.00
581.33	46722.36
581.53	47121.71
581.73	46730.55
581.93	46878.00
582.13	47123.76
582.33	47142.19
582.53	47078.71
582.73	47168.82
582.92	47111.47
583.12	47193.39
583.32	47433.00
583.52	46968.12
583.72	47326.51
583.92	47287.60
584.12	47271.21
584.32	47648.04
584.52	47500.59
584.72	47310.13
584.92	47861.03
585.11	48069.92
585.31	48141.60
585.51	47863.08
585.71	47805.73
585.91	47797.54
586.11	47443.24
586.31	48241.95
586.51	48041.25
586.71	47985.96
586.91	48190.75
587.10	48188.70
587.30	48401.69
587.50	48565.53
587.70	48239.90
587.90	48385.31
588.10	48555.29
588.30	48200.99
588.50	48604.44
