SpectraSuite Data File
++++++++++++++++++++++++++++++++++++
Date: Fri Jun 02 14:57:21 CEST 2017
User: INFO_000
Dark Spectrum Present: No
Reference Spectrum Present: No
Number of Sampled Component Spectra: 1
Spectrometers: USB4H00879
Integration Time (usec): 80000 (USB4H00879)
Spectra Averaged: 1 (USB4H00879)
Boxcar Smoothing: 0 (USB4H00879)
Correct for Electrical Dark: No (USB4H00879)
Strobe/Lamp Enabled: No (USB4H00879)
Correct for Detector Non-linearity: No (USB4H00879)
Correct for Stray Light: No (USB4H00879)
Number of Pixels in Processed Spectrum: 3648
>>>>>Begin Processed Spectral Data<<<<<
345.13	1275.88
345.34	1275.88
345.56	1275.88
345.78	1314.80
345.99	1333.23
346.21	1708.01
346.42	1765.35
346.64	1662.95
346.86	1775.59
347.07	1650.66
347.29	1689.57
347.50	1556.46
347.72	1681.38
347.94	1650.66
348.15	1626.09
348.37	1613.80
348.59	1748.97
348.80	1716.20
349.02	1755.11
349.23	1945.57
349.45	1796.07
349.67	1890.28
349.88	1765.35
350.10	2002.91
350.31	1867.75
350.53	1845.22
350.75	1918.95
350.96	1789.92
351.18	1798.12
351.39	1894.37
351.61	1804.26
351.82	1855.46
352.04	1939.43
352.26	1767.40
352.47	1888.23
352.69	1980.39
352.90	1818.60
353.12	1798.12
353.34	1855.46
353.55	1984.48
353.77	1865.70
353.98	1882.08
354.20	1884.13
354.41	1957.86
354.63	1951.71
354.85	1994.72
355.06	1892.32
355.28	1824.74
355.49	1955.81
355.71	1972.19
355.92	1933.28
356.14	1877.99
356.35	1912.80
356.57	1834.98
356.79	1941.47
357.00	1834.98
357.22	1945.57
357.43	1882.08
357.65	1931.23
357.86	1912.80
358.08	1875.94
358.29	2015.20
358.51	1988.58
358.72	2017.25
358.94	1966.05
359.16	1939.43
359.37	2088.93
359.59	1929.19
359.80	1996.77
360.02	1857.51
360.23	1982.43
360.45	1984.48
360.66	1892.32
360.88	1861.60
361.09	1896.42
361.31	2002.91
361.52	1990.63
361.74	2054.11
361.95	2076.64
362.17	1943.52
362.38	2097.12
362.60	1964.00
362.81	1945.57
363.03	1986.53
363.24	2004.96
363.46	2068.45
363.67	2017.25
363.89	2004.96
364.10	2015.20
364.32	1914.85
364.53	2000.87
364.75	1918.95
364.96	2027.49
365.18	2047.97
365.39	1978.34
365.61	1974.24
365.82	2187.23
366.04	2050.02
366.25	1961.95
366.47	2031.58
366.68	2017.25
366.90	1943.52
367.11	2078.69
367.33	2004.96
367.54	2097.12
367.76	2037.73
367.97	2101.22
368.19	2088.93
368.40	2066.40
368.62	1961.95
368.83	1994.72
369.05	2070.50
369.26	1970.15
369.48	2090.98
369.69	2033.63
369.91	2074.59
370.12	1986.53
370.33	2107.36
370.55	1957.86
370.76	1992.67
370.98	2142.18
371.19	1970.15
371.41	2011.11
371.62	2041.82
371.84	2062.30
372.05	2236.38
372.27	2045.92
372.48	2103.26
372.69	2181.09
372.91	2199.52
373.12	2146.27
373.34	1986.53
373.55	2041.82
373.77	2201.57
373.98	2060.26
374.20	2207.71
374.41	2332.64
374.62	2166.75
374.84	2207.71
375.05	2207.71
375.27	2265.05
375.48	2203.61
375.70	2119.65
375.91	2283.49
376.12	2289.63
376.34	2105.31
376.55	2117.60
376.77	2224.09
376.98	2142.18
377.19	2111.46
377.41	2131.94
377.62	2236.38
377.84	2277.34
378.05	2285.53
378.27	2197.47
378.48	2306.01
378.69	2422.75
378.91	2336.73
379.12	2181.09
379.34	2242.53
379.55	2289.63
379.76	2258.91
379.98	2269.15
380.19	2174.94
380.41	2263.01
380.62	2271.20
380.83	2271.20
381.05	2328.54
381.26	2396.12
381.47	2228.19
381.69	2275.29
381.90	2346.97
382.12	2295.77
382.33	2275.29
382.54	2254.81
382.76	2260.96
382.97	2299.87
383.19	2279.39
383.40	2349.02
383.61	2324.44
383.83	2394.08
384.04	2416.60
384.25	2353.12
384.47	2361.31
384.68	2355.16
384.89	2330.59
385.11	2334.68
385.32	2365.40
385.54	2322.40
385.75	2408.41
385.96	2383.84
386.18	2449.37
386.39	2469.85
386.60	2318.30
386.82	2437.08
387.03	2473.95
387.24	2498.52
387.46	2430.94
387.67	2492.38
387.88	2496.47
388.10	2473.95
388.31	2537.43
388.52	2547.67
388.74	2527.19
388.95	2508.76
389.16	2459.61
389.38	2531.29
389.59	2703.32
389.80	2611.16
390.02	2508.76
390.23	2666.46
390.44	2533.34
390.66	2494.43
390.87	2519.00
391.08	2635.74
391.30	2729.94
391.51	2676.70
391.72	2668.50
391.94	2633.69
392.15	2611.16
392.36	2596.82
392.58	2609.11
392.79	2705.37
393.00	2639.83
393.22	2717.65
393.43	2811.86
393.64	2895.83
393.85	2787.29
394.07	2645.98
394.28	2697.17
394.49	2844.63
394.71	2803.67
394.92	2854.87
395.13	2688.98
395.35	2664.41
395.56	2680.79
395.77	2877.40
395.98	2848.72
396.20	2854.87
396.41	2813.91
396.62	2858.96
396.84	2779.09
397.05	2832.34
397.26	2834.39
397.47	3000.27
397.69	2893.78
397.90	2981.84
398.11	2992.08
398.32	2910.16
398.54	2932.69
398.75	2813.91
398.96	2957.27
399.18	2965.46
399.39	2947.03
399.60	2977.75
399.81	2961.36
400.03	2834.39
400.24	3321.81
400.45	2891.73
400.66	3168.21
400.88	3074.00
401.09	3153.87
401.30	2979.79
401.51	3157.97
401.73	3090.38
401.94	3098.58
402.15	3176.40
402.36	3143.63
402.58	3090.38
402.79	3141.58
403.00	3188.69
403.21	3133.39
403.43	3215.31
403.64	3264.46
403.85	3198.93
404.06	3248.08
404.27	3090.38
404.49	3235.79
404.70	3147.73
404.91	3252.17
405.12	3250.13
405.34	3262.41
405.55	3366.86
405.76	3172.30
405.97	3198.93
406.19	3436.49
406.40	3284.94
406.61	3305.42
406.82	3354.57
407.03	3330.00
407.25	3276.75
407.46	3344.33
407.67	3381.20
407.88	3563.47
408.09	3327.95
408.31	3387.34
408.52	3459.02
408.73	3399.63
408.94	3358.67
409.15	3405.77
409.37	3393.48
409.58	3413.96
409.79	3477.45
410.00	3581.90
410.21	3446.73
410.43	3399.63
410.64	3463.12
410.85	3551.18
411.06	3520.46
411.27	3477.45
411.48	3555.27
411.70	3504.07
411.91	3665.86
412.12	3567.56
412.33	3567.56
412.54	3403.72
412.76	3684.30
412.97	3563.47
413.18	3626.95
413.39	3637.19
413.60	3645.38
413.81	3690.44
414.03	3729.35
414.24	3647.43
414.45	3737.54
414.66	3647.43
414.87	3776.45
415.08	3690.44
415.30	3782.60
415.51	3694.54
415.72	3712.97
415.93	3788.74
416.14	3690.44
416.35	3780.55
416.56	3907.52
416.78	3823.56
416.99	3839.94
417.20	3811.27
417.41	3962.82
417.62	3839.94
417.83	3944.39
418.04	3858.37
418.26	3907.52
418.47	3823.56
418.68	3993.54
418.89	4038.59
419.10	4097.99
419.31	4100.03
419.52	4120.51
419.73	4044.74
419.95	4136.90
420.16	3889.09
420.37	4001.73
420.58	4091.84
420.79	3897.28
421.00	4110.27
421.21	4140.99
421.42	4028.35
421.63	4100.03
421.85	4190.14
422.06	4241.34
422.27	4075.46
422.48	4177.86
422.69	4280.25
422.90	4204.48
423.11	4231.10
423.32	4290.49
423.53	4335.55
423.75	4280.25
423.96	4331.45
424.17	4386.75
424.38	4513.72
424.59	4415.42
424.80	4544.44
425.01	4437.95
425.22	4399.04
425.43	4386.75
425.64	4542.39
425.85	4624.31
426.06	4530.11
426.28	4554.68
426.49	4425.66
426.70	4540.35
426.91	4599.74
427.12	4622.27
427.33	4616.12
427.54	4599.74
427.75	4763.58
427.96	4882.36
428.17	4876.21
428.38	4878.26
428.59	4798.39
428.80	4820.92
429.01	4767.67
429.23	4714.42
429.44	4956.08
429.65	4913.08
429.86	4988.85
430.07	4933.56
430.28	4755.38
430.49	5091.25
430.70	5138.35
430.91	5128.11
431.12	4861.88
431.33	5207.98
431.54	5038.00
431.75	5197.74
431.96	5033.91
432.17	5140.40
432.38	5218.22
432.59	5267.38
432.80	5216.18
433.01	5345.20
433.22	5304.24
433.43	5355.44
433.64	5400.49
433.85	5228.46
434.06	5306.29
434.27	5277.62
434.49	5474.22
434.70	5490.60
434.91	5337.01
435.12	5478.32
435.33	5334.96
435.54	5490.60
435.75	5257.14
435.96	5400.49
436.17	5476.27
436.38	5558.19
436.59	5705.64
436.80	5474.22
437.01	5709.74
437.22	5713.83
437.43	5762.98
437.64	5539.76
437.85	5898.15
438.06	5582.76
438.27	5631.91
438.48	5656.49
438.69	5758.89
438.90	5756.84
439.11	5715.88
439.32	5783.46
439.53	5578.67
439.74	5791.66
439.95	5922.73
440.16	5998.50
440.37	5801.90
440.57	5779.37
440.78	5963.68
440.99	6045.60
441.20	6184.87
441.41	5937.06
441.62	6070.18
441.83	5789.61
442.04	6160.29
442.25	6117.28
442.46	6080.42
442.67	6336.42
442.88	6467.49
443.09	6102.95
443.30	6021.03
443.51	6057.89
443.72	6404.00
443.93	6143.91
444.14	6326.18
444.35	6162.34
444.56	6469.53
444.77	6127.52
444.98	6483.87
445.19	6381.47
445.40	6432.67
445.61	6332.32
445.81	6430.62
446.02	6541.21
446.23	6410.14
446.44	6297.50
446.65	6588.32
446.86	6508.44
447.07	6522.78
447.28	6784.92
447.49	6782.87
447.70	6424.48
447.91	6596.51
448.12	6784.92
448.33	6721.43
448.54	6614.94
448.74	6647.71
448.95	6754.20
449.16	6727.58
449.37	6924.18
449.58	6879.13
449.79	7036.82
450.00	6772.63
450.21	6911.89
450.42	6834.07
450.63	6942.61
450.84	7061.40
451.05	6975.38
451.25	6956.95
451.46	6942.61
451.67	7163.79
451.88	7194.51
452.09	7176.08
452.30	7071.64
452.51	7161.75
452.72	7356.30
452.93	7571.34
453.13	7249.81
453.34	7266.19
453.55	7446.41
453.76	7309.20
453.97	7571.34
454.18	7348.11
454.39	7544.72
454.60	7393.17
454.81	7448.46
455.01	7661.45
455.22	7352.21
455.43	7661.45
455.64	7786.38
455.85	7892.87
456.06	7972.74
456.27	7800.71
456.48	7778.19
456.68	7839.62
456.89	7866.25
457.10	7876.49
457.31	7925.64
457.52	8023.94
457.73	8011.65
457.94	8304.51
458.14	7937.93
458.35	8382.34
458.56	8267.65
458.77	7939.97
458.98	8095.62
459.19	8298.37
459.39	8331.14
459.60	8529.79
459.81	8425.34
460.02	8404.86
460.23	8595.32
460.44	8601.47
460.65	8714.11
460.85	8675.20
461.06	8720.25
461.27	8423.30
461.48	8920.95
461.69	8957.82
461.89	8703.87
462.10	8933.24
462.31	8806.27
462.52	8945.53
462.73	9004.92
462.94	9203.57
463.14	8918.90
463.35	9076.60
463.56	9170.80
463.77	9254.77
463.98	9019.25
464.18	9328.50
464.39	9340.79
464.60	9539.44
464.81	9772.91
465.02	9535.34
465.23	9678.70
465.43	9576.30
465.64	9817.96
465.85	9740.14
466.06	9772.91
466.27	10043.24
466.47	9838.44
466.68	10026.86
466.89	9998.18
467.10	10248.04
467.30	9914.22
467.51	10205.03
467.72	10327.91
467.93	10200.93
468.14	10420.06
468.34	10436.45
468.55	10424.16
468.76	10454.88
468.97	10315.62
469.17	10465.12
469.38	10735.45
469.59	10919.77
469.80	10669.92
470.01	10780.51
470.21	10884.95
470.42	11042.65
470.63	11087.70
470.84	11001.69
471.04	11128.66
471.25	11151.19
471.46	11102.04
471.67	11374.42
471.87	11355.99
472.08	11534.16
472.29	11775.82
472.50	11452.24
472.70	11315.03
472.91	11644.75
473.12	12021.58
473.33	11802.44
473.53	12132.17
473.74	11990.86
473.95	12054.34
474.16	12402.50
474.36	12265.28
474.57	12484.42
474.78	12760.89
474.99	12355.40
475.19	12382.02
475.40	12691.26
475.61	12715.84
475.81	12777.28
476.02	13291.32
476.23	12943.16
476.44	13131.58
476.64	13256.50
476.85	13397.81
477.06	13389.62
477.27	13815.60
477.47	13807.41
477.68	13508.40
477.89	13586.22
478.09	13866.80
478.30	13924.14
478.51	13928.24
478.71	14235.43
478.92	14229.29
479.13	14440.23
479.34	14665.50
479.54	14212.90
479.75	14683.94
479.96	14772.00
480.16	14741.28
480.37	14823.20
480.58	15003.42
480.78	15267.61
480.99	14968.60
481.20	15361.81
481.41	15437.59
481.61	15499.03
481.82	15546.13
482.03	15423.25
482.23	15570.71
482.44	15826.70
482.65	15922.96
482.85	15910.67
483.06	15994.64
483.27	16043.79
483.47	16117.51
483.68	16314.12
483.89	16195.34
484.09	16604.93
484.30	16414.47
484.51	16525.06
484.71	16619.27
484.92	16781.06
485.13	16967.42
485.33	16836.35
485.54	16803.58
485.75	17196.79
485.95	17270.52
486.16	17239.80
486.37	17575.67
486.57	17522.42
486.78	17778.42
486.98	17727.22
487.19	17534.71
487.40	17802.99
487.60	17704.69
487.81	18097.90
488.02	18288.36
488.22	17811.18
488.43	18302.70
488.64	18448.10
488.84	18224.87
489.05	18777.83
489.25	18523.88
489.46	18865.89
489.67	18702.05
489.87	19078.88
490.08	18855.65
490.29	19039.97
490.49	19732.18
490.70	19101.40
490.90	19384.02
491.11	19312.35
491.32	19461.85
491.52	19513.05
491.73	19693.27
491.94	19965.65
492.14	19568.34
492.35	20209.36
492.55	20147.92
492.76	20283.08
492.97	20340.43
493.17	20393.67
493.38	20526.79
493.58	20610.76
493.79	20438.73
494.00	20485.83
494.20	20774.60
494.41	21055.17
494.61	20991.68
494.82	20907.71
495.02	20903.62
495.23	21141.18
495.44	21065.41
495.64	21438.14
495.85	21407.42
496.05	21628.60
496.26	21450.42
496.47	21644.98
496.67	21728.95
496.88	22083.25
497.08	21757.62
497.29	22175.41
497.49	21966.51
497.70	22431.40
497.91	22468.27
498.11	22286.00
498.32	22515.37
498.52	22628.01
498.73	22814.37
498.93	22415.02
499.14	22664.87
499.34	22449.83
499.55	22718.12
499.76	22752.93
499.96	23072.42
500.17	22941.35
500.37	23131.81
500.58	22963.87
500.78	23219.87
500.99	23217.82
501.19	23492.25
501.40	23715.48
501.60	23570.07
501.81	23791.25
502.02	24055.44
502.22	23903.89
502.43	23752.34
502.63	23828.12
502.84	24235.66
503.04	24137.36
503.25	24442.51
503.45	24180.37
503.66	24198.80
503.86	24309.39
504.07	24622.73
504.27	24352.40
504.48	24784.52
504.68	24573.58
504.89	24792.71
505.09	24927.88
505.30	24647.30
505.50	24882.82
505.71	24882.82
505.91	24970.88
506.12	24940.16
506.32	24923.78
506.53	25124.48
506.73	25280.13
506.94	25439.87
507.14	25224.83
507.35	25351.81
507.55	25511.55
507.76	25466.49
507.96	25269.89
508.17	25804.41
508.37	25417.34
508.58	25476.73
508.78	25939.57
508.99	26242.67
509.19	25929.33
509.40	26277.49
509.60	25814.65
509.81	25941.62
510.01	25939.57
510.22	26017.40
510.42	26314.35
510.63	26340.97
510.83	26123.89
511.04	26197.62
511.24	26529.39
511.44	26599.02
511.65	26904.17
511.85	26590.83
512.06	26658.41
512.26	26877.54
512.47	26748.52
512.67	26775.14
512.88	27328.10
513.08	26996.32
513.29	26926.69
513.49	26875.49
513.69	26793.58
513.90	27291.23
514.10	27348.57
514.31	27170.40
514.51	27358.81
514.72	27526.75
514.92	27321.95
515.13	27442.78
515.33	27510.36
515.53	27672.15
515.74	27799.13
515.94	27688.54
516.15	27403.87
516.35	27663.96
516.56	27899.48
516.76	27797.08
516.96	27979.35
517.17	27807.32
517.37	27915.86
517.58	27864.66
517.78	28241.49
517.99	28182.10
518.19	28233.30
518.39	28431.95
518.60	28661.32
518.80	28542.54
519.01	28800.58
519.21	28591.69
519.41	28653.13
519.62	28362.32
519.82	28778.06
520.03	28937.80
520.23	29193.79
520.43	28970.57
520.64	29470.27
520.84	29601.34
521.05	29423.17
521.25	29478.46
521.45	29488.70
521.66	29380.16
521.86	29249.09
522.07	29732.41
522.27	29638.20
522.47	29767.23
522.68	30287.41
522.88	29763.13
523.08	30066.23
523.29	30004.79
523.49	30387.76
523.70	30463.54
523.90	30492.21
524.10	30314.03
524.31	30373.42
524.51	30250.55
524.71	30780.97
524.92	30950.95
525.12	30946.86
525.33	30785.07
525.53	30871.08
525.73	31440.42
525.94	31292.96
526.14	31041.06
526.34	31159.84
526.55	31424.03
526.75	31391.26
526.95	31964.70
527.16	31415.84
527.36	31739.42
527.56	32157.21
527.77	32011.80
527.97	31800.86
528.17	31886.87
528.38	32116.25
528.58	32044.57
528.78	32355.86
528.99	32224.79
529.19	32704.01
529.39	32296.47
529.60	32859.66
529.80	33005.06
530.00	32595.47
530.21	32726.54
530.41	33435.14
530.61	32853.51
530.82	33324.55
531.02	32919.05
531.22	33132.04
531.43	33349.12
531.63	33414.66
531.83	33838.59
532.04	34018.81
532.24	33594.88
532.44	34018.81
532.64	34227.70
532.85	34094.58
533.05	34233.85
533.25	34227.70
533.46	34268.66
533.66	34475.51
533.86	34227.70
534.07	35173.86
534.27	34612.72
534.47	35098.09
534.67	34940.39
534.88	34708.97
535.08	34856.43
535.28	35042.79
535.49	35431.91
535.69	35735.01
535.89	35198.44
536.09	35646.94
536.30	35907.04
536.50	35554.79
536.70	35720.67
536.91	35773.92
537.11	35943.90
537.31	35923.42
537.51	35945.95
537.72	36476.37
537.92	36224.47
538.12	36322.77
538.32	36414.93
538.53	36636.11
538.73	36586.96
538.93	36525.52
539.13	36781.52
539.34	36623.83
539.54	36353.49
539.74	37084.62
539.94	36611.54
540.15	37088.71
540.35	37465.54
540.55	37326.28
540.75	37246.41
540.96	37090.76
541.16	37221.83
541.36	37692.86
541.56	37567.94
541.77	37946.81
541.97	37934.53
542.17	37879.23
542.37	37639.62
542.58	37854.65
542.78	37957.05
542.98	37889.47
543.18	38301.11
543.38	38487.48
543.59	38313.40
543.79	38249.91
543.99	38423.99
544.19	38755.76
544.40	38397.37
544.60	39038.38
544.80	38497.72
545.00	39026.09
545.20	38950.32
545.41	38696.37
545.61	38632.88
545.81	39200.17
546.01	39302.57
546.21	39026.09
546.42	39282.09
546.62	39720.35
546.82	39331.24
547.02	39165.35
547.22	39153.07
547.43	39292.33
547.63	39280.04
547.83	39599.52
548.03	39495.08
548.23	39814.56
548.44	39499.17
548.64	40082.84
548.84	40080.80
549.04	39980.45
549.24	39990.69
549.45	40662.42
549.65	40226.20
549.85	40017.31
550.05	40809.87
550.25	40021.41
550.45	40711.57
550.66	40185.24
550.86	40175.00
551.06	40650.13
551.26	40662.42
551.46	40977.81
551.66	40813.97
551.87	40965.52
552.07	40899.98
552.27	40934.80
552.47	40756.63
552.67	40967.57
552.87	40715.67
553.07	41276.81
553.28	41309.58
553.48	41221.52
553.68	41059.73
553.88	41508.23
554.08	41416.07
554.28	41190.80
554.48	41014.67
554.69	41457.03
554.89	41475.46
555.09	41452.94
555.29	41272.71
555.49	41590.15
555.69	41612.68
555.89	41497.99
556.10	42210.68
556.30	41172.36
556.50	41448.84
556.70	41633.16
556.90	41690.50
557.10	41928.06
557.30	41989.50
557.50	42165.63
557.70	42231.16
557.91	42552.69
558.11	41936.26
558.31	41657.73
558.51	41768.32
558.71	42040.70
558.91	42409.34
559.11	41907.58
559.31	42325.37
559.51	42456.44
559.72	42116.48
559.92	42513.78
560.12	42132.86
560.32	42278.27
560.52	42280.31
560.72	42327.42
560.92	42558.84
561.12	42507.64
561.32	42980.72
561.52	42763.64
561.72	43068.78
561.93	42513.78
562.13	43064.69
562.33	42714.48
562.53	43259.24
562.73	42773.88
562.93	42997.10
563.13	42642.81
563.33	43195.76
563.53	43087.21
563.73	42825.07
563.93	42861.94
564.13	43242.86
564.33	42849.65
564.53	43267.44
564.74	43482.47
564.94	42931.57
565.14	43621.73
565.34	43423.08
565.54	43679.08
565.74	43621.73
565.94	43642.21
566.14	43382.12
566.34	43261.29
566.54	43748.71
566.74	43365.74
566.94	43648.36
567.14	44139.87
567.34	43717.99
567.54	44033.38
567.74	43724.13
567.94	43505.00
568.14	43877.73
568.34	44399.96
568.54	43947.36
568.74	44236.12
568.94	44025.18
569.14	43988.32
569.34	43859.30
569.54	43885.92
569.75	44135.77
569.95	44318.04
570.15	44623.19
570.35	44123.49
570.55	44162.40
570.75	44428.63
570.95	44410.20
571.15	44610.90
571.35	45260.11
571.55	44950.87
571.75	44621.14
571.95	44422.49
572.15	44645.72
572.35	44993.87
572.55	44625.24
572.75	44807.51
572.95	44682.58
573.15	44397.91
573.35	44766.55
573.55	44668.25
573.75	44948.82
573.95	45202.77
574.15	45114.70
574.35	45000.02
574.55	44770.64
574.75	44709.21
574.95	45344.08
575.15	45161.81
575.34	45075.79
575.54	45389.13
575.74	45245.77
575.94	45718.85
576.14	45487.43
576.34	45907.27
576.54	45915.46
576.74	46085.44
576.94	45782.34
577.14	46003.52
577.34	45985.09
577.54	45700.42
577.74	46052.67
577.94	45997.38
578.14	46173.50
578.34	46331.20
578.54	45690.18
578.74	46325.05
578.94	46454.08
579.14	45921.60
579.34	45901.12
579.54	45913.41
579.74	46572.86
579.94	46437.69
580.13	46791.99
580.33	46212.41
580.53	46773.56
580.73	46388.54
580.93	47033.65
581.13	46781.75
581.33	47037.75
581.53	47244.59
581.73	46820.66
581.93	47099.19
582.13	46589.24
582.33	47252.78
582.53	46916.92
582.73	47656.23
582.92	47408.43
583.12	47521.07
583.32	47402.28
583.52	47205.68
583.72	47555.88
583.92	47330.61
584.12	47602.99
584.32	47953.19
584.52	47375.66
584.72	47566.12
584.92	47758.63
585.11	47951.14
585.31	48022.82
585.51	48045.35
585.71	47715.62
585.91	48293.15
586.11	48084.26
586.31	48000.29
586.51	48026.92
586.71	48502.04
586.91	48500.00
587.10	48274.72
587.30	48354.59
587.50	48309.53
587.70	48614.68
587.90	48614.68
588.10	48626.97
588.30	48661.79
588.50	48764.18
