SpectraSuite Data File
++++++++++++++++++++++++++++++++++++
Date: Fri Jun 02 14:57:23 CEST 2017
User: INFO_000
Dark Spectrum Present: No
Reference Spectrum Present: No
Number of Sampled Component Spectra: 1
Spectrometers: USB4H00879
Integration Time (usec): 80000 (USB4H00879)
Spectra Averaged: 1 (USB4H00879)
Boxcar Smoothing: 0 (USB4H00879)
Correct for Electrical Dark: No (USB4H00879)
Strobe/Lamp Enabled: No (USB4H00879)
Correct for Detector Non-linearity: No (USB4H00879)
Correct for Stray Light: No (USB4H00879)
Number of Pixels in Processed Spectrum: 3648
>>>>>Begin Processed Spectral Data<<<<<
345.13	1247.21
345.34	1247.21
345.56	1247.21
345.78	1218.54
345.99	1284.08
346.21	1710.05
346.42	1656.81
346.64	1671.14
346.86	1857.51
347.07	1677.29
347.29	1726.44
347.50	1665.00
347.72	1599.46
347.94	1781.73
348.15	1585.13
348.37	1591.27
348.59	1736.68
348.80	1660.90
349.02	1804.26
349.23	1884.13
349.45	1787.88
349.67	1839.08
349.88	1773.54
350.10	1976.29
350.31	1843.17
350.53	1830.88
350.75	1943.52
350.96	1814.50
351.18	1863.65
351.39	1800.16
351.61	1869.80
351.82	1918.95
352.04	1888.23
352.26	1845.22
352.47	1863.65
352.69	1906.66
352.90	1724.39
353.12	1882.08
353.34	1791.97
353.55	1900.52
353.77	1937.38
353.98	1775.59
354.20	1888.23
354.41	1941.47
354.63	1880.04
354.85	2052.06
355.06	1906.66
355.28	1781.73
355.49	1961.95
355.71	1853.41
355.92	1978.34
356.14	1941.47
356.35	1898.47
356.57	1808.36
356.79	1943.52
357.00	1894.37
357.22	1998.82
357.43	1896.42
357.65	1980.39
357.86	1908.71
358.08	1939.43
358.29	1849.32
358.51	1947.62
358.72	1937.38
358.94	1988.58
359.16	1959.91
359.37	1961.95
359.59	1888.23
359.80	1978.34
360.02	2033.63
360.23	2017.25
360.45	2090.98
360.66	1937.38
360.88	1877.99
361.09	1865.70
361.31	1980.39
361.52	1972.19
361.74	1984.48
361.95	2058.21
362.17	1941.47
362.38	2131.94
362.60	2086.88
362.81	2019.30
363.03	1972.19
363.24	1937.38
363.46	2082.78
363.67	2050.02
363.89	2041.82
364.10	1984.48
364.32	1941.47
364.53	2050.02
364.75	2000.87
364.96	1978.34
365.18	2064.35
365.39	2050.02
365.61	1968.10
365.82	2123.74
366.04	2047.97
366.25	2007.01
366.47	2084.83
366.68	1992.67
366.90	2029.54
367.11	2043.87
367.33	2015.20
367.54	2031.58
367.76	2013.15
367.97	2191.33
368.19	2039.78
368.40	2058.21
368.62	2050.02
368.83	2029.54
369.05	2121.70
369.26	2031.58
369.48	1914.85
369.69	2013.15
369.91	2054.11
370.12	2047.97
370.33	2086.88
370.55	1984.48
370.76	2076.64
370.98	2097.12
371.19	2074.59
371.41	2011.11
371.62	2103.26
371.84	2019.30
372.05	2172.89
372.27	2011.11
372.48	2125.79
372.69	2174.94
372.91	2193.37
373.12	2174.94
373.34	2101.22
373.55	2121.70
373.77	2193.37
373.98	2097.12
374.20	2131.94
374.41	2240.48
374.62	2074.59
374.84	2064.35
375.05	2109.41
375.27	2136.03
375.48	2189.28
375.70	2162.66
375.91	2150.37
376.12	2297.82
376.34	2101.22
376.55	2220.00
376.77	2256.86
376.98	2127.84
377.19	2142.18
377.41	2125.79
377.62	2168.80
377.84	2256.86
378.05	2301.92
378.27	2193.37
378.48	2334.68
378.69	2371.55
378.91	2248.67
379.12	2209.76
379.34	2289.63
379.55	2252.77
379.76	2285.53
379.98	2234.33
380.19	2279.39
380.41	2277.34
380.62	2310.11
380.83	2279.39
381.05	2273.25
381.26	2424.80
381.47	2246.62
381.69	2230.24
381.90	2408.41
382.12	2238.43
382.33	2281.44
382.54	2301.92
382.76	2303.96
382.97	2355.16
383.19	2277.34
383.40	2437.08
383.61	2330.59
383.83	2281.44
384.04	2310.11
384.25	2346.97
384.47	2326.49
384.68	2334.68
384.89	2297.82
385.11	2285.53
385.32	2373.60
385.54	2389.98
385.75	2326.49
385.96	2398.17
386.18	2387.93
386.39	2428.89
386.60	2369.50
386.82	2426.84
387.03	2324.44
387.24	2582.49
387.46	2562.01
387.67	2467.80
387.88	2539.48
388.10	2537.43
388.31	2584.54
388.52	2531.29
388.74	2424.80
388.95	2527.19
389.16	2428.89
389.38	2582.49
389.59	2621.40
389.80	2559.96
390.02	2506.71
390.23	2684.89
390.44	2541.53
390.66	2547.67
390.87	2465.75
391.08	2568.15
391.30	2654.17
391.51	2605.02
391.72	2635.74
391.94	2576.34
392.15	2709.46
392.36	2596.82
392.58	2576.34
392.79	2564.06
393.00	2656.22
393.22	2777.05
393.43	2693.08
393.64	2844.63
393.85	2762.71
394.07	2619.35
394.28	2727.89
394.49	2772.95
394.71	2838.48
394.92	2826.20
395.13	2701.27
395.35	2738.13
395.56	2815.96
395.77	2861.01
395.98	2805.72
396.20	2912.21
396.41	2818.00
396.62	2990.03
396.84	2760.66
397.05	2787.29
397.26	2879.44
397.47	2996.18
397.69	2867.16
397.90	2971.60
398.11	2977.75
398.32	2881.49
398.54	2818.00
398.75	2895.83
398.96	2936.79
399.18	3102.67
399.39	3030.99
399.60	3030.99
399.81	2975.70
400.03	2940.88
400.24	3235.79
400.45	2975.70
400.66	2969.55
400.88	3053.52
401.09	3133.39
401.30	3047.38
401.51	3219.41
401.73	3092.43
401.94	3106.77
402.15	3084.24
402.36	3252.17
402.58	3082.19
402.79	3262.41
403.00	3213.26
403.21	3239.89
403.43	3239.89
403.64	3260.37
403.85	3186.64
404.06	3260.37
404.27	3069.91
404.49	3182.54
404.70	3157.97
404.91	3211.22
405.12	3100.62
405.34	3211.22
405.55	3325.90
405.76	3151.82
405.97	3172.30
406.19	3305.42
406.40	3188.69
406.61	3295.18
406.82	3366.86
407.03	3276.75
407.25	3289.04
407.46	3325.90
407.67	3368.91
407.88	3481.55
408.09	3258.32
408.31	3305.42
408.52	3401.68
408.73	3309.52
408.94	3381.20
409.15	3422.16
409.37	3510.22
409.58	3465.16
409.79	3502.03
410.00	3452.88
410.21	3444.68
410.43	3395.53
410.64	3448.78
410.85	3565.51
411.06	3596.23
411.27	3508.17
411.48	3549.13
411.70	3475.40
411.91	3542.99
412.12	3551.18
412.33	3583.95
412.54	3538.89
412.76	3682.25
412.97	3684.30
413.18	3489.74
413.39	3614.66
413.60	3706.82
413.81	3561.42
414.03	3571.66
414.24	3680.20
414.45	3796.93
414.66	3608.52
414.87	3694.54
415.08	3758.02
415.30	3684.30
415.51	3686.34
415.72	3723.21
415.93	3702.73
416.14	3786.69
416.35	3762.12
416.56	3805.13
416.78	3817.41
416.99	3807.17
417.20	3854.28
417.41	3790.79
417.62	3831.75
417.83	3895.24
418.04	3936.20
418.26	3917.76
418.47	3809.22
418.68	3930.05
418.89	3934.15
419.10	4040.64
419.31	4001.73
419.52	4085.70
419.73	4030.40
419.95	4063.17
420.16	3899.33
420.37	3964.87
420.58	4110.27
420.79	3973.06
421.00	3942.34
421.21	4214.72
421.42	3880.90
421.63	4179.90
421.85	4046.79
422.06	4155.33
422.27	4233.15
422.48	4171.71
422.69	4237.25
422.90	4165.57
423.11	4239.30
423.32	4153.28
423.53	4425.66
423.75	4304.83
423.96	4329.41
424.17	4505.53
424.38	4456.38
424.59	4368.32
424.80	4493.24
425.01	4417.47
425.22	4315.07
425.43	4366.27
425.64	4687.80
425.85	4616.12
426.06	4577.21
426.28	4583.35
426.49	4466.62
426.70	4390.84
426.91	4538.30
427.12	4775.86
427.33	4599.74
427.54	4706.23
427.75	4710.33
427.96	4712.38
428.17	4704.18
428.38	4730.81
428.59	4876.21
428.80	4753.34
429.01	4865.97
429.23	4874.17
429.44	5001.14
429.65	5062.58
429.86	4927.41
430.07	4792.25
430.28	4796.34
430.49	4995.00
430.70	5111.73
430.91	5029.81
431.12	4966.32
431.33	5242.80
431.54	5339.05
431.75	5210.03
431.96	5042.10
432.17	5023.67
432.38	5138.35
432.59	5212.08
432.80	5056.43
433.01	5345.20
433.22	5269.42
433.43	5203.89
433.64	5328.81
433.85	5248.94
434.06	5377.97
434.27	5218.22
434.49	5382.06
434.70	5621.67
434.91	5267.38
435.12	5394.35
435.33	5478.32
435.54	5455.79
435.75	5371.82
435.96	5511.08
436.17	5427.12
436.38	5527.47
436.59	5640.11
436.80	5652.39
437.01	5769.13
437.22	5668.78
437.43	5689.26
437.64	5449.64
437.85	5730.22
438.06	5869.48
438.27	5740.46
438.48	5619.63
438.69	5787.56
438.90	5752.74
439.11	5593.00
439.32	5844.90
439.53	5736.36
439.74	5799.85
439.95	5975.97
440.16	5816.23
440.37	5908.39
440.57	5707.69
440.78	6070.18
440.99	5947.30
441.20	5924.77
441.41	5941.16
441.62	5988.26
441.83	5822.38
442.04	6076.32
442.25	6021.03
442.46	5902.25
442.67	6207.39
442.88	6522.78
443.09	6002.60
443.30	6129.57
443.51	6231.97
443.72	6348.70
443.93	6113.19
444.14	6244.26
444.35	6156.19
444.56	6418.33
444.77	6326.18
444.98	6410.14
445.19	6467.49
445.40	6342.56
445.61	6412.19
445.81	6457.25
446.02	6463.39
446.23	6365.09
446.44	6360.99
446.65	6500.25
446.86	6315.94
447.07	6578.08
447.28	6580.12
447.49	6735.77
447.70	6524.83
447.91	6522.78
448.12	6582.17
448.33	6688.67
448.54	6643.61
448.74	6623.13
448.95	6690.71
449.16	6655.90
449.37	6905.75
449.58	6891.41
449.79	6897.56
450.00	6762.39
450.21	6825.88
450.42	6997.91
450.63	6899.61
450.84	6893.46
451.05	6889.37
451.25	6819.74
451.46	6885.27
451.67	6952.85
451.88	7042.96
452.09	7102.36
452.30	7028.63
452.51	7094.16
452.72	7131.03
452.93	7614.35
453.13	7094.16
453.34	7235.47
453.55	7169.94
453.76	7188.37
453.97	7597.96
454.18	7309.20
454.39	7409.55
454.60	7475.09
454.81	7436.17
455.01	7604.11
455.22	7403.41
455.43	7419.79
455.64	7653.26
455.85	7821.19
456.06	7813.00
456.27	7784.33
456.48	7618.44
456.68	7688.07
456.89	7784.33
457.10	7856.01
457.31	7886.73
457.52	7696.27
457.73	8036.23
457.94	8259.46
458.14	7802.76
458.35	8243.07
458.56	8073.09
458.77	7978.89
458.98	8122.24
459.19	8245.12
459.39	8216.45
459.60	8122.24
459.81	8302.47
460.02	8533.89
460.23	8365.95
460.44	8687.48
460.65	8494.97
460.85	8589.18
461.06	8699.77
461.27	8531.84
461.48	8931.19
461.69	8910.71
461.89	8642.43
462.10	8677.24
462.31	8609.66
462.52	8685.44
462.73	9041.78
462.94	8974.20
463.14	8961.91
463.35	9000.82
463.56	9277.30
463.77	9363.31
463.98	8953.72
464.18	9027.45
464.39	9367.41
464.60	9514.86
464.81	9363.31
465.02	9432.94
465.23	9639.79
465.43	9484.14
465.64	9686.89
465.85	9594.73
466.06	9496.43
466.27	10174.31
466.47	9678.70
466.68	9928.55
466.89	9920.36
467.10	9949.03
467.30	9768.81
467.51	10045.29
467.72	10409.83
467.93	10061.67
468.14	10241.89
468.34	10360.67
468.55	10284.90
468.76	10428.26
468.97	10295.14
469.17	10719.07
469.38	10727.26
469.59	10913.63
469.80	10637.15
470.01	10633.05
470.21	10639.20
470.42	11042.65
470.63	11202.39
470.84	10872.67
471.04	11202.39
471.25	11239.25
471.46	10940.25
471.67	11616.08
471.87	11302.74
472.08	11466.58
472.29	11556.69
472.50	11183.96
472.70	11253.59
472.91	11554.64
473.12	11847.50
473.33	11800.40
473.53	12169.03
473.74	11872.07
473.95	12263.24
474.16	12205.89
474.36	12214.09
474.57	12414.79
474.78	12674.88
474.99	12373.83
475.19	12361.54
475.40	12861.24
475.61	12582.72
475.81	12930.87
476.02	13031.23
476.23	12767.04
476.44	13244.21
476.64	13100.86
476.85	13512.50
477.06	13242.17
477.27	13674.29
477.47	13713.20
477.68	13827.88
477.89	13885.23
478.09	13692.72
478.30	14081.83
478.51	13895.47
478.71	14124.84
478.92	14262.05
479.13	14270.25
479.34	14395.17
479.54	14442.28
479.75	14530.34
479.96	14573.35
480.16	14765.85
480.37	14673.70
480.58	14937.88
480.78	15140.63
480.99	15253.27
481.20	15310.61
481.41	15148.82
481.61	15359.77
481.82	15496.98
482.03	15611.67
482.23	15441.68
482.44	15935.24
482.65	15968.01
482.85	16037.64
483.06	15970.06
483.27	16041.74
483.47	16256.78
483.68	16074.51
483.89	16434.95
484.09	16547.59
484.30	16649.99
484.51	16682.75
484.71	16850.69
484.92	16703.23
485.13	17241.85
485.33	17221.37
485.54	17057.53
485.75	17401.59
485.95	17379.06
486.16	17225.47
486.37	17452.79
486.57	17512.18
486.78	17590.00
486.98	17870.58
487.19	18001.65
487.40	17977.07
487.60	17884.91
487.81	18247.40
488.02	18046.70
488.22	18128.62
488.43	18355.94
488.64	18540.26
488.84	18726.63
489.05	18751.20
489.25	18540.26
489.46	18630.37
489.67	18654.95
489.87	19085.02
490.08	19148.51
490.29	19226.33
490.49	19617.49
490.70	19388.12
490.90	19283.67
491.11	19463.90
491.32	19461.85
491.52	19914.45
491.73	19633.88
491.94	19967.70
492.14	19658.45
492.35	19947.22
492.55	20020.94
492.76	20229.84
492.97	20569.80
493.17	20307.66
493.38	20645.57
493.58	20770.50
493.79	20666.05
494.00	20592.33
494.20	21051.07
494.41	20909.76
494.61	21257.92
494.82	21036.74
495.02	21118.65
495.23	21171.90
495.44	21280.44
495.64	21454.52
495.85	21397.18
496.05	21661.37
496.26	21685.94
496.47	21735.09
496.67	21808.82
496.88	21831.35
497.08	21690.04
497.29	21948.08
497.49	21929.65
497.70	22279.85
497.91	22267.56
498.11	22230.70
498.32	22408.87
498.52	22333.10
498.73	22628.01
498.93	22671.01
499.14	22879.91
499.34	22705.83
499.55	22673.06
499.76	22898.34
499.96	23010.98
500.17	22875.81
500.37	23002.78
500.58	23113.38
500.78	23217.82
500.99	23287.45
501.19	23506.59
501.40	23592.60
501.60	23371.42
501.81	23420.57
502.02	23676.57
502.22	23676.57
502.43	24075.92
502.63	23707.29
502.84	23885.46
503.04	23977.62
503.25	24053.39
503.45	23959.19
503.66	24166.03
503.86	24118.93
504.07	24698.50
504.27	24366.73
504.48	24473.23
504.68	24655.50
504.89	24764.04
505.09	24477.32
505.30	24927.88
505.50	24780.42
505.71	25060.99
505.91	25052.80
506.12	24596.10
506.32	24958.60
506.53	25071.23
506.73	25052.80
506.94	25026.18
507.14	25267.84
507.35	25431.68
507.55	25546.36
507.76	25390.72
507.96	25316.99
508.17	25429.63
508.37	25615.99
508.58	25568.89
508.78	25835.13
508.99	25572.99
509.19	25884.28
509.40	25704.06
509.60	25728.63
509.81	25915.00
510.01	26127.99
510.22	25771.64
510.42	25593.47
510.63	26224.24
510.83	26207.86
511.04	26353.26
511.24	26291.82
511.44	26324.59
511.65	26261.10
511.85	26322.54
512.06	26414.70
512.26	26347.12
512.47	26490.48
512.67	26551.91
512.88	26728.04
513.08	26494.57
513.29	27016.80
513.49	26773.10
513.69	26750.57
513.90	26820.20
514.10	26916.45
514.31	27068.00
514.51	27098.72
514.72	27055.72
514.92	26984.04
515.13	27293.28
515.33	27356.77
515.53	27264.61
515.74	27559.52
515.94	27643.48
516.15	27614.81
516.35	27270.75
516.56	27809.37
516.76	27403.87
516.96	28085.84
517.17	27704.92
517.37	27907.67
517.58	28005.97
517.78	28087.89
517.99	27874.90
518.19	28323.41
518.39	27985.49
518.60	27962.97
518.80	28354.13
519.01	28706.38
519.21	28329.55
519.41	28446.29
519.62	28448.33
519.82	28511.82
520.03	28692.04
520.23	28927.56
520.43	28558.92
520.64	28980.81
520.84	29275.71
521.05	28726.86
521.25	29240.90
521.45	29476.41
521.66	29148.74
521.86	29238.85
522.07	29345.34
522.27	29341.25
522.47	29005.38
522.68	30012.98
522.88	29722.17
523.08	29523.52
523.29	29865.53
523.49	29519.42
523.70	29812.28
523.90	29783.61
524.10	29978.17
524.31	29959.73
524.51	29754.94
524.71	30451.25
524.92	30139.96
525.12	30348.85
525.33	30498.35
525.53	30840.36
525.73	30977.58
525.94	30791.21
526.14	30783.02
526.34	30756.39
526.55	30828.07
526.75	30907.94
526.95	31182.37
527.16	30690.86
527.36	31069.73
527.56	31149.60
527.77	31374.88
527.97	31745.56
528.17	31436.32
528.38	31704.60
528.58	31714.84
528.78	31698.46
528.99	31942.17
529.19	31923.74
529.39	31854.11
529.60	32187.92
529.80	32167.45
530.00	32159.25
530.21	32314.90
530.41	32753.16
530.61	32175.64
530.82	32245.27
531.02	32548.37
531.22	32970.25
531.43	32706.06
531.63	32888.33
531.83	33103.37
532.04	33312.26
532.24	33414.66
532.44	33340.93
532.64	33562.11
532.85	33648.13
533.05	33578.50
533.25	33807.87
533.46	33613.31
533.66	33897.98
533.86	34084.34
534.07	34326.00
534.27	34139.64
534.47	34706.93
534.67	34698.73
534.88	34442.74
535.08	34563.57
535.28	34835.95
535.49	35087.85
535.69	34932.20
535.89	35194.34
536.09	35055.08
536.30	35231.21
536.50	35057.13
536.70	35536.35
536.91	35640.80
537.11	35679.71
537.31	35939.80
537.51	35554.79
537.72	35722.72
537.92	35657.18
538.12	36087.26
538.32	36107.74
538.53	36255.19
538.73	36120.02
538.93	36122.07
539.13	36595.15
539.34	36109.78
539.54	36054.49
539.74	36900.30
539.94	36443.60
540.15	36656.59
540.35	36955.60
540.55	36951.50
540.75	36883.92
540.96	37068.23
541.16	37174.73
541.36	37406.15
541.56	37297.61
541.77	37754.30
541.97	37432.77
542.17	37565.89
542.37	37475.78
542.58	37580.23
542.78	37737.92
542.98	37909.95
543.18	37899.71
543.38	38331.83
543.59	38389.17
543.79	38323.64
543.99	37955.00
544.19	38262.20
544.40	38315.45
544.60	38655.41
544.80	38792.62
545.00	38518.20
545.20	38809.01
545.41	38528.44
545.61	38876.59
545.81	38833.58
546.01	38966.70
546.21	39071.15
546.42	39155.11
546.62	39620.00
546.82	39234.99
547.02	39316.90
547.22	39595.43
547.43	39241.13
547.63	39626.15
547.83	39404.97
548.03	38901.17
548.23	39820.70
548.44	39806.37
548.64	39832.99
548.84	39792.03
549.04	39663.01
549.24	39982.49
549.45	40091.04
549.65	40123.80
549.85	40201.63
550.05	40385.94
550.25	40017.31
550.45	40887.70
550.66	40105.37
550.86	40084.89
551.06	40285.59
551.26	40547.73
551.46	40889.74
551.66	40469.91
551.87	40492.44
552.07	40957.33
552.27	40963.47
552.47	40719.76
552.67	40603.03
552.87	40914.32
553.07	40897.94
553.28	41108.88
553.48	41418.12
553.68	40775.06
553.88	41418.12
554.08	41135.50
554.28	40902.03
554.48	40746.39
554.69	41616.77
554.89	41483.66
555.09	41469.32
555.29	41346.44
555.49	41723.27
555.69	41815.43
555.89	41555.33
556.10	41825.67
556.30	41651.59
556.50	41831.81
556.70	41770.37
556.90	41962.88
557.10	42188.16
557.30	41864.58
557.50	42487.16
557.70	42409.34
557.91	42421.62
558.11	42413.43
558.31	42440.06
558.51	42173.82
558.71	42651.00
558.91	42476.92
559.11	42577.27
559.31	42669.43
559.51	42198.40
559.72	42499.45
559.92	42474.87
560.12	42407.29
560.32	42694.00
560.52	42429.82
560.72	42820.98
560.92	43031.92
561.12	42947.95
561.32	43623.78
561.52	42792.31
561.72	43435.37
561.93	43044.21
562.13	42988.91
562.33	42532.22
562.53	43554.15
562.73	43132.27
562.93	42888.56
563.13	43263.34
563.33	43056.50
563.53	43887.97
563.73	43312.49
563.93	43513.19
564.13	43873.63
564.33	43195.76
564.53	43439.47
564.74	43908.45
564.94	43441.51
565.14	43791.72
565.34	43603.30
565.54	43564.39
565.74	43588.97
565.94	43865.44
566.14	43984.22
566.34	43484.52
566.54	43935.07
566.74	43750.76
566.94	43646.31
567.14	44291.42
567.34	43746.66
567.54	44356.96
567.74	44201.31
567.94	44291.42
568.14	44016.99
568.34	44533.08
568.54	44053.86
568.74	44318.04
568.94	44195.17
569.14	44586.33
569.34	44729.69
569.54	44553.56
569.75	44150.11
569.95	44305.76
570.15	45016.40
570.35	44952.91
570.55	44336.48
570.75	44555.61
570.95	44973.39
571.15	44940.63
571.35	44830.04
571.55	45139.28
571.75	44856.66
571.95	45083.98
572.15	44559.70
572.35	45301.07
572.55	45382.99
572.75	45333.84
572.95	45350.22
573.15	45217.10
573.35	45258.06
573.55	44842.32
573.75	45219.15
573.95	45186.38
574.15	45536.59
574.35	45296.97
574.55	44995.92
574.75	45372.75
574.95	45647.18
575.15	45552.97
575.34	45313.36
575.54	46042.43
575.74	45868.36
575.94	46353.72
576.14	45729.09
576.34	46187.84
576.54	45972.80
576.74	46304.57
576.94	45823.30
577.14	45833.54
577.34	46445.88
577.54	46253.37
577.74	46245.18
577.94	46306.62
578.14	46153.02
578.34	46351.68
578.54	45720.90
578.74	46050.63
578.94	46372.16
579.14	46093.63
579.34	46599.48
579.54	46746.93
579.74	46267.71
579.94	46714.17
580.13	46810.42
580.33	46791.99
580.53	46822.71
580.73	47090.99
580.93	47095.09
581.13	47033.65
581.33	47035.70
581.53	47078.71
581.73	47514.92
581.93	47088.95
582.13	46865.72
582.33	47113.52
582.53	47301.93
582.73	47744.30
582.92	47387.95
583.12	47471.92
583.32	47084.85
583.52	46884.15
583.72	48090.40
583.92	47457.58
584.12	47760.68
584.32	47922.47
584.52	47910.18
584.72	48114.98
584.92	48014.63
585.11	48332.06
585.31	47961.38
585.51	47965.48
585.71	48069.92
585.91	48219.42
586.11	47885.61
586.31	47805.73
586.51	48147.75
586.71	47899.94
586.91	48293.15
587.10	48948.50
587.30	48428.32
587.50	48823.58
587.70	48790.81
587.90	48794.90
588.10	48790.81
588.30	48676.12
588.50	48692.50
