SpectraSuite Data File
++++++++++++++++++++++++++++++++++++
Date: Fri Jun 02 14:57:17 CEST 2017
User: INFO_000
Dark Spectrum Present: No
Reference Spectrum Present: No
Number of Sampled Component Spectra: 1
Spectrometers: USB4H00879
Integration Time (usec): 80000 (USB4H00879)
Spectra Averaged: 1 (USB4H00879)
Boxcar Smoothing: 0 (USB4H00879)
Correct for Electrical Dark: No (USB4H00879)
Strobe/Lamp Enabled: No (USB4H00879)
Correct for Detector Non-linearity: No (USB4H00879)
Correct for Stray Light: No (USB4H00879)
Number of Pixels in Processed Spectrum: 3648
>>>>>Begin Processed Spectral Data<<<<<
345.13	1284.08
345.34	1284.08
345.56	1284.08
345.78	1294.32
345.99	1298.41
346.21	1681.38
346.42	1763.30
346.64	1708.01
346.86	1722.34
347.07	1644.52
347.29	1789.92
347.50	1642.47
347.72	1718.25
347.94	1863.65
348.15	1546.22
348.37	1646.57
348.59	1705.96
348.80	1656.81
349.02	1667.05
349.23	1812.45
349.45	1787.88
349.67	1869.80
349.88	1755.11
350.10	1935.33
350.31	1820.64
350.53	1740.77
350.75	1867.75
350.96	1720.29
351.18	1839.08
351.39	1748.97
351.61	1773.54
351.82	1798.12
352.04	1775.59
352.26	1732.58
352.47	1892.32
352.69	1880.04
352.90	1730.53
353.12	1814.50
353.34	1761.25
353.55	1816.55
353.77	1751.01
353.98	1800.16
354.20	1787.88
354.41	1869.80
354.63	1875.94
354.85	1994.72
355.06	1804.26
355.28	1691.62
355.49	1841.12
355.71	1882.08
355.92	1794.02
356.14	1820.64
356.35	1753.06
356.57	1789.92
356.79	1812.45
357.00	1736.68
357.22	1916.90
357.43	1820.64
357.65	1925.09
357.86	1775.59
358.08	1851.36
358.29	1908.71
358.51	1892.32
358.72	1849.32
358.94	1871.84
359.16	1972.19
359.37	1865.70
359.59	1843.17
359.80	1949.67
360.02	1951.71
360.23	1929.19
360.45	1939.43
360.66	1937.38
360.88	1834.98
361.09	1841.12
361.31	1882.08
361.52	1851.36
361.74	1980.39
361.95	2007.01
362.17	1849.32
362.38	1998.82
362.60	1982.43
362.81	1957.86
363.03	1746.92
363.24	1853.41
363.46	2058.21
363.67	1927.14
363.89	1875.94
364.10	2000.87
364.32	1908.71
364.53	1992.67
364.75	1863.65
364.96	1986.53
365.18	2017.25
365.39	1955.81
365.61	1888.23
365.82	2029.54
366.04	2023.39
366.25	1812.45
366.47	1959.91
366.68	2019.30
366.90	1886.18
367.11	2072.54
367.33	1951.71
367.54	2140.13
367.76	1925.09
367.97	2093.02
368.19	1949.67
368.40	2017.25
368.62	1949.67
368.83	1970.15
369.05	1937.38
369.26	1966.05
369.48	2009.06
369.69	1945.57
369.91	2050.02
370.12	1916.90
370.33	2082.78
370.55	1978.34
370.76	2062.30
370.98	2058.21
371.19	2052.06
371.41	1978.34
371.62	2035.68
371.84	1929.19
372.05	2115.55
372.27	1964.00
372.48	2058.21
372.69	2062.30
372.91	2125.79
373.12	2119.65
373.34	1951.71
373.55	2129.89
373.77	2174.94
373.98	2004.96
374.20	2199.52
374.41	2191.33
374.62	2142.18
374.84	2142.18
375.05	2129.89
375.27	2109.41
375.48	2131.94
375.70	2133.98
375.91	2150.37
376.12	2269.15
376.34	2043.87
376.55	2156.51
376.77	2142.18
376.98	2217.95
377.19	2109.41
377.41	2103.26
377.62	2117.60
377.84	2265.05
378.05	2295.77
378.27	2170.85
378.48	2353.12
378.69	2281.44
378.91	2402.27
379.12	2209.76
379.34	2213.85
379.55	2318.30
379.76	2258.91
379.98	2164.70
380.19	2232.29
380.41	2207.71
380.62	2334.68
380.83	2211.81
381.05	2222.05
381.26	2373.60
381.47	2224.09
381.69	2273.25
381.90	2408.41
382.12	2312.16
382.33	2144.22
382.54	2189.28
382.76	2254.81
382.97	2338.78
383.19	2181.09
383.40	2400.22
383.61	2344.92
383.83	2306.01
384.04	2340.83
384.25	2318.30
384.47	2387.93
384.68	2340.83
384.89	2236.38
385.11	2287.58
385.32	2355.16
385.54	2357.21
385.75	2252.77
385.96	2402.27
386.18	2447.32
386.39	2375.64
386.60	2279.39
386.82	2432.99
387.03	2500.57
387.24	2486.23
387.46	2484.19
387.67	2523.10
387.88	2512.86
388.10	2392.03
388.31	2488.28
388.52	2533.34
388.74	2504.67
388.95	2529.24
389.16	2439.13
389.38	2539.48
389.59	2658.26
389.80	2629.59
390.02	2639.83
390.23	2625.50
390.44	2527.19
390.66	2473.95
390.87	2533.34
391.08	2576.34
391.30	2756.57
391.51	2656.22
391.72	2645.98
391.94	2662.36
392.15	2727.89
392.36	2662.36
392.58	2605.02
392.79	2652.12
393.00	2670.55
393.22	2656.22
393.43	2699.22
393.64	2725.85
393.85	2762.71
394.07	2564.06
394.28	2764.76
394.49	2891.73
394.71	2738.13
394.92	2908.12
395.13	2731.99
395.35	2729.94
395.56	2744.28
395.77	2820.05
395.98	2770.90
396.20	2842.58
396.41	2783.19
396.62	2940.88
396.84	2822.10
397.05	2949.08
397.26	2879.44
397.47	2899.92
397.69	2844.63
397.90	2944.98
398.11	3041.23
398.32	2869.20
398.54	2969.55
398.75	2928.60
398.96	2877.40
399.18	3200.98
399.39	3053.52
399.60	3045.33
399.81	2918.36
400.03	2897.88
400.24	3262.41
400.45	3030.99
400.66	3049.43
400.88	2983.89
401.09	3133.39
401.30	3026.90
401.51	3127.25
401.73	2961.36
401.94	3133.39
402.15	3172.30
402.36	3092.43
402.58	3084.24
402.79	3123.15
403.00	3090.38
403.21	3168.21
403.43	3233.74
403.64	3213.26
403.85	3143.63
404.06	3231.69
404.27	3133.39
404.49	3246.03
404.70	3143.63
404.91	3323.85
405.12	3272.65
405.34	3180.50
405.55	3370.96
405.76	3256.27
405.97	3280.85
406.19	3360.72
406.40	3235.79
406.61	3295.18
406.82	3295.18
407.03	3387.34
407.25	3276.75
407.46	3379.15
407.67	3475.40
407.88	3442.64
408.09	3395.53
408.31	3436.49
408.52	3373.00
408.73	3248.08
408.94	3332.05
409.15	3368.91
409.37	3608.52
409.58	3481.55
409.79	3557.32
410.00	3659.72
410.21	3477.45
410.43	3440.59
410.64	3405.77
410.85	3622.86
411.06	3542.99
411.27	3614.66
411.48	3639.24
411.70	3600.33
411.91	3575.75
412.12	3540.94
412.33	3565.51
412.54	3536.84
412.76	3755.97
412.97	3581.90
413.18	3522.51
413.39	3567.56
413.60	3702.73
413.81	3719.11
414.03	3579.85
414.24	3639.24
414.45	3934.15
414.66	3651.53
414.87	3745.73
415.08	3751.88
415.30	3735.50
415.51	3725.26
415.72	3794.89
415.93	3768.26
416.14	3835.85
416.35	3841.99
416.56	3784.65
416.78	3901.38
416.99	3813.32
417.20	3819.46
417.41	3979.20
417.62	3850.18
417.83	4020.16
418.04	3833.80
418.26	3997.64
418.47	3901.38
418.68	4048.83
418.89	3923.91
419.10	4239.30
419.31	4059.07
419.52	4032.45
419.73	3897.28
419.95	4114.37
420.16	3913.67
420.37	4011.97
420.58	4110.27
420.79	3889.09
421.00	4067.27
421.21	4145.09
421.42	4069.31
421.63	4151.23
421.85	4046.79
422.06	4302.78
422.27	4210.62
422.48	4175.81
422.69	4337.60
422.90	4333.50
423.11	4329.41
423.32	4341.69
423.53	4454.33
423.75	4255.68
423.96	4353.98
424.17	4437.95
424.38	4446.14
424.59	4618.17
424.80	4558.78
425.01	4433.85
425.22	4368.32
425.43	4423.61
425.64	4497.34
425.85	4636.60
426.06	4591.55
426.28	4538.30
426.49	4448.19
426.70	4556.73
426.91	4558.78
427.12	4618.17
427.33	4616.12
427.54	4655.03
427.75	4843.45
427.96	4833.21
428.17	4704.18
428.38	4763.58
428.59	4884.41
428.80	4732.86
429.01	4874.17
429.23	4820.92
429.44	5083.06
429.65	4968.37
429.86	5048.24
430.07	4790.20
430.28	4798.39
430.49	4939.70
430.70	5171.12
430.91	5164.98
431.12	5005.24
431.33	5150.64
431.54	5171.12
431.75	4976.56
431.96	5162.93
432.17	5173.17
432.38	5177.26
432.59	5310.38
432.80	5222.32
433.01	5259.18
433.22	5410.73
433.43	5236.66
433.64	5138.35
433.85	5382.06
434.06	5316.53
434.27	5142.45
434.49	5511.08
434.70	5494.70
434.91	5427.12
435.12	5441.45
435.33	5443.50
435.54	5662.63
435.75	5250.99
435.96	5500.84
436.17	5146.55
436.38	5726.12
436.59	5566.38
436.80	5484.46
437.01	5916.58
437.22	5834.66
437.43	5722.02
437.64	5478.32
437.85	5801.90
438.06	5799.85
438.27	5713.83
438.48	5662.63
438.69	5914.53
438.90	5818.28
439.11	5699.50
439.32	5828.52
439.53	5742.50
439.74	5801.90
439.95	5892.01
440.16	5859.24
440.37	5951.40
440.57	5941.16
440.78	5820.33
440.99	5910.44
441.20	5836.71
441.41	5898.15
441.62	6002.60
441.83	6010.79
442.04	6231.97
442.25	6148.00
442.46	6184.87
442.67	6416.29
442.88	6504.35
443.09	5992.36
443.30	6158.24
443.51	6078.37
443.72	6367.13
443.93	6090.66
444.14	6432.67
444.35	6094.76
444.56	6447.01
444.77	6451.10
444.98	6365.09
445.19	6363.04
445.40	6389.66
445.61	6383.52
445.81	6520.73
446.02	6664.09
446.23	6483.87
446.44	6352.80
446.65	6447.01
446.86	6596.51
447.07	6573.98
447.28	6737.82
447.49	6741.91
447.70	6520.73
447.91	6602.65
448.12	6612.89
448.33	6870.94
448.54	6817.69
448.74	6729.63
448.95	6707.10
449.16	6692.76
449.37	6963.09
449.58	6881.18
449.79	6999.96
450.00	6754.20
450.21	6926.23
450.42	7180.18
450.63	7059.35
450.84	6877.08
451.05	7061.40
451.25	7192.47
451.46	6991.77
451.67	7112.60
451.88	7204.75
452.09	7227.28
452.30	7237.52
452.51	7294.86
452.72	7430.03
452.93	7540.62
453.13	7186.32
453.34	7057.30
453.55	7499.66
453.76	7358.35
453.97	7798.66
454.18	7419.79
454.39	7659.40
454.60	7514.00
454.81	7563.15
455.01	7620.49
455.22	7335.82
455.43	7561.10
455.64	7970.69
455.85	7882.63
456.06	8112.00
456.27	7786.38
456.48	7778.19
456.68	7815.05
456.89	7970.69
457.10	8023.94
457.31	7878.54
457.52	7843.72
457.73	8017.80
457.94	8212.35
458.14	8052.61
458.35	8382.34
458.56	8255.36
458.77	8171.40
458.98	8269.70
459.19	8413.06
459.39	8329.09
459.60	8451.97
459.81	8488.83
460.02	8761.21
460.23	8554.37
460.44	8726.39
460.65	8777.59
460.85	8722.30
461.06	8828.79
461.27	8609.66
461.48	8873.85
461.69	8806.27
461.89	8642.43
462.10	8830.84
462.31	8748.92
462.52	8800.12
462.73	8888.18
462.94	9105.27
463.14	9011.06
463.35	9146.23
463.56	9713.52
463.77	9424.75
463.98	9166.71
464.18	9117.56
464.39	9412.46
464.60	9453.42
464.81	9535.34
465.02	9537.39
465.23	9789.29
465.43	9617.26
465.64	10004.33
465.85	9721.71
466.06	9725.80
466.27	10043.24
466.47	10162.02
466.68	9922.41
466.89	10090.34
467.10	10051.43
467.30	9985.90
467.51	10268.52
467.72	10401.63
467.93	10127.21
468.14	10241.89
468.34	10424.16
468.55	10415.97
468.76	10528.61
468.97	10307.43
469.17	10516.32
469.38	10940.25
469.59	10891.10
469.80	10725.21
470.01	10915.67
470.21	10891.10
470.42	11140.95
470.63	11069.27
470.84	11208.53
471.04	11392.85
471.25	11337.56
471.46	11192.15
471.67	11485.01
471.87	11460.43
472.08	11589.46
472.29	11937.61
472.50	11618.13
472.70	11564.88
472.91	11673.42
473.12	12001.10
473.33	12111.69
473.53	12111.69
473.74	11962.19
473.95	12296.00
474.16	12345.16
474.36	12152.65
474.57	12521.28
474.78	12642.11
474.99	12457.79
475.19	12685.12
475.40	12904.25
475.61	13074.23
475.81	13031.23
476.02	13182.77
476.23	12975.93
476.44	13051.70
476.64	13444.91
476.85	13748.01
477.06	13297.46
477.27	13813.55
477.47	13819.69
477.68	13870.89
477.89	13911.85
478.09	13895.47
478.30	14149.42
478.51	14038.83
478.71	14284.58
478.92	14229.29
479.13	14429.99
479.34	14575.39
479.54	14421.80
479.75	14864.16
479.96	14806.81
480.16	14780.19
480.37	14903.07
480.58	14931.74
480.78	15580.95
480.99	14958.36
481.20	15173.40
481.41	15355.67
481.61	15785.74
481.82	15677.20
482.03	15795.98
482.23	15585.04
482.44	15914.77
482.65	15855.37
482.85	16314.12
483.06	16158.47
483.27	15984.40
483.47	16307.98
483.68	16105.23
483.89	16391.94
484.09	16715.52
484.30	16660.23
484.51	16858.88
484.71	16787.20
484.92	17055.48
485.13	17368.82
485.33	17028.86
485.54	16860.93
485.75	17278.71
485.95	17272.57
486.16	17667.83
486.37	17671.92
486.57	17514.23
486.78	17633.01
486.98	17866.48
487.19	18009.84
487.40	18337.51
487.60	17948.40
487.81	18448.10
488.02	18218.73
488.22	18343.66
488.43	18294.50
488.64	18478.82
488.84	18792.16
489.05	18824.93
489.25	18732.77
489.46	19031.77
489.67	18904.80
489.87	19144.41
490.08	19035.87
490.29	19183.32
490.49	19543.77
490.70	19543.77
490.90	19566.29
491.11	19691.22
491.32	19799.76
491.52	19752.66
491.73	19881.68
491.94	19795.67
492.14	19685.08
492.35	20248.27
492.55	20319.95
492.76	20379.34
492.97	20438.73
493.17	20395.72
493.38	20903.62
493.58	21008.06
493.79	20737.73
494.00	20891.33
494.20	20768.45
494.41	20930.24
494.61	21327.55
494.82	21358.27
495.02	21210.81
495.23	21210.81
495.44	21124.80
495.64	21464.76
495.85	21524.15
496.05	21659.32
496.26	21685.94
496.47	21780.15
496.67	21870.26
496.88	22085.30
497.08	21726.90
497.29	22103.73
497.49	22019.76
497.70	22271.66
497.91	22566.57
498.11	22369.96
498.32	22574.76
498.52	22607.53
498.73	22937.25
498.93	22931.11
499.14	22896.29
499.34	22781.60
499.55	23133.86
499.76	22890.15
499.96	23174.81
500.17	22881.95
500.37	23248.54
500.58	23269.02
500.78	23410.33
500.99	23606.94
501.19	23449.24
501.40	23621.27
501.60	23373.47
501.81	23406.23
502.02	23832.21
502.22	23715.48
502.43	23981.71
502.63	24256.14
502.84	24116.88
503.04	24272.53
503.25	24194.70
503.45	24090.26
503.66	24211.09
503.86	24241.81
504.07	24456.84
504.27	24297.10
504.48	24723.08
504.68	24630.92
504.89	25015.94
505.09	24792.71
505.30	24899.20
505.50	24768.13
505.71	24790.66
505.91	25104.00
506.12	24948.36
506.32	24841.86
506.53	24960.64
506.73	25194.11
506.94	25548.41
507.14	25278.08
507.35	25427.58
507.55	25423.48
507.76	25521.79
507.96	25310.85
508.17	25527.93
508.37	25435.77
508.58	25745.02
508.78	25773.69
508.99	25884.28
509.19	26025.59
509.40	25980.53
509.60	25968.24
509.81	26400.37
510.01	26142.32
510.22	25876.09
510.42	26289.77
510.63	26429.04
510.83	26377.84
511.04	26375.79
511.24	26533.48
511.44	26375.79
511.65	26596.97
511.85	26424.94
512.06	26717.80
512.26	27016.80
512.47	26760.81
512.67	27027.04
512.88	26809.96
513.08	26699.37
513.29	27240.03
513.49	26902.12
513.69	27061.86
513.90	27344.48
514.10	27074.15
514.31	27205.22
514.51	27219.55
514.72	27084.39
514.92	27285.09
515.13	27407.97
515.33	27641.43
515.53	27453.02
515.74	27606.62
515.94	27747.93
516.15	27803.22
516.35	27811.42
516.56	28081.75
516.76	27897.43
516.96	27776.60
517.17	28304.98
517.37	28184.15
517.58	28102.23
517.78	28317.26
517.99	28347.98
518.19	28388.94
518.39	28726.86
518.60	28802.63
518.80	28685.90
519.01	28935.75
519.21	28878.41
519.41	28898.89
519.62	28743.24
519.82	29253.19
520.03	29042.24
520.23	29097.54
520.43	28898.89
520.64	29228.61
520.84	29621.82
521.05	29097.54
521.25	29673.02
521.45	29603.39
521.66	29713.98
521.86	29699.64
522.07	29197.89
522.27	29988.41
522.47	30070.33
522.68	30107.19
522.88	29998.65
523.08	30197.30
523.29	30037.56
523.49	30223.92
523.70	30420.53
523.90	30400.05
524.10	30445.10
524.31	30899.75
524.51	30490.16
524.71	30973.48
524.92	30957.10
525.12	31010.34
525.33	31135.27
525.53	31331.87
525.73	31376.93
525.94	31198.76
526.14	31178.28
526.34	31637.02
526.55	31348.26
526.75	31419.94
526.95	31950.36
527.16	31675.93
527.36	31614.49
527.56	31776.28
527.77	31733.28
527.97	31890.97
528.17	32128.53
528.38	32335.38
528.58	32493.07
528.78	32765.45
528.99	32321.04
529.19	32990.73
529.39	32613.90
529.60	32957.96
529.80	32661.01
530.00	32747.02
530.21	33080.84
530.41	33375.75
530.61	33052.17
530.82	33449.47
531.02	33308.16
531.22	33435.14
531.43	33400.32
531.63	33789.44
531.83	33945.08
532.04	34330.10
532.24	33631.74
532.44	34029.05
532.64	34008.57
532.85	34237.94
533.05	34336.24
533.25	34194.93
533.46	34233.85
533.66	34866.67
533.86	34586.10
534.07	35073.51
534.27	34708.97
534.47	35014.12
534.67	35114.47
534.88	34864.62
535.08	35151.34
535.28	35460.58
535.49	35460.58
535.69	35567.07
535.89	35263.97
536.09	35460.58
536.30	36230.62
536.50	35909.08
536.70	36124.12
536.91	35962.33
537.11	36412.88
537.31	36152.79
537.51	36353.49
537.72	36613.59
537.92	36810.19
538.12	36582.87
538.32	36345.30
538.53	36869.58
538.73	36916.68
538.93	36722.13
539.13	36992.46
539.34	36904.40
539.54	36865.49
539.74	37610.95
539.94	36992.46
540.15	37043.66
540.35	37426.63
540.55	37520.84
540.75	37342.66
540.96	37586.37
541.16	37424.58
541.36	37748.16
541.56	37602.75
541.77	38600.12
541.97	37848.51
542.17	38327.74
542.37	38108.60
542.58	38534.58
542.78	38213.05
542.98	37916.09
543.18	38473.14
543.38	39048.62
543.59	38692.27
543.79	38346.17
543.99	38669.75
544.19	38706.61
544.40	38714.80
544.60	39120.30
544.80	38880.69
545.00	38917.55
545.20	38860.21
545.41	39069.10
545.61	39038.38
545.81	39642.53
546.01	39425.45
546.21	39366.06
546.42	39126.44
546.62	39736.74
546.82	39429.54
547.02	39368.10
547.22	39886.24
547.43	39353.77
547.63	39589.28
547.83	39980.45
548.03	39478.69
548.23	39771.55
548.44	40050.08
548.64	39925.15
548.84	40091.04
549.04	40512.92
549.24	40261.02
549.45	40301.98
549.65	39949.73
549.85	40261.02
550.05	40363.42
550.25	40299.93
550.45	40828.30
550.66	40175.00
550.86	39703.97
551.06	41051.53
551.26	40854.93
551.46	40801.68
551.66	40986.00
551.87	40934.80
552.07	40756.63
552.27	41278.86
552.47	41190.80
552.67	40826.26
552.87	40869.26
553.07	40983.95
553.28	40793.49
553.48	41010.57
553.68	41006.48
553.88	41706.88
554.08	41426.31
554.28	41553.29
554.48	40924.56
554.69	41559.43
554.89	41438.60
555.09	41262.47
555.29	41141.64
555.49	41942.40
555.69	41710.98
555.89	41495.94
556.10	42046.85
556.30	41518.47
556.50	41989.50
556.70	41891.20
556.90	41866.63
557.10	42222.97
557.30	42214.78
557.50	42087.81
557.70	42143.10
557.91	42184.06
558.11	42362.23
558.31	42503.54
558.51	42175.87
558.71	42313.08
558.91	42644.85
559.11	42130.81
559.31	42235.26
559.51	42059.13
559.72	42364.28
559.92	42677.62
560.12	42153.34
560.32	42505.59
560.52	42292.60
560.72	42546.55
560.92	42859.89
561.12	42759.54
561.32	43015.54
561.52	42632.57
561.72	43341.16
561.93	42468.73
562.13	43179.37
562.33	42532.22
562.53	43359.59
562.73	42681.72
562.93	42636.66
563.13	43031.92
563.33	42743.16
563.53	43386.22
563.73	42888.56
563.93	43195.76
564.13	43771.24
564.33	43304.30
564.53	43373.93
564.74	43656.55
564.94	43279.72
565.14	43365.74
565.34	43359.59
565.54	43404.65
565.74	43449.70
565.94	43703.65
566.14	44010.85
566.34	43476.33
566.54	44004.70
566.74	43683.17
566.94	43844.96
567.14	43959.65
567.34	43085.17
567.54	44092.77
567.74	44078.43
567.94	44133.73
568.14	44053.86
568.34	44027.23
568.54	44330.33
568.74	44397.91
568.94	44008.80
569.14	44600.66
569.34	44178.78
569.54	44471.64
569.75	44234.08
569.95	44475.74
570.15	44633.43
570.35	44664.15
570.55	43898.21
570.75	44406.11
570.95	44684.63
571.15	44516.70
571.35	44782.93
571.55	44987.73
571.75	45045.07
571.95	44723.54
572.15	44784.98
572.35	45131.09
572.55	44776.79
572.75	44883.28
572.95	44967.25
573.15	45337.93
573.35	45075.79
573.55	45004.11
573.75	45204.81
573.95	45813.06
574.15	45217.10
574.35	45421.90
574.55	45796.68
574.75	45368.65
574.95	45337.93
575.15	45184.33
575.34	45567.30
575.54	45679.94
575.74	45770.05
575.94	46249.28
576.14	45886.79
576.34	46282.05
576.54	46232.89
576.74	46107.97
576.94	46036.29
577.14	46423.36
577.34	46599.48
577.54	46241.09
577.74	46406.97
577.94	46615.86
578.14	46284.09
578.34	46488.89
578.54	46159.17
578.74	46179.65
578.94	46990.64
579.14	46499.13
579.34	46708.02
579.54	47123.76
579.74	47201.58
579.94	47093.04
580.13	47004.98
580.33	46961.97
580.53	47316.27
580.73	47740.20
580.93	47346.99
581.13	47523.11
581.33	47318.32
581.53	47418.67
581.73	47469.87
581.93	47799.59
582.13	47625.51
582.33	47705.38
582.53	47402.28
582.73	47975.72
582.92	47703.34
583.12	47631.66
583.32	48028.96
583.52	47234.35
583.72	48459.04
583.92	47639.85
584.12	48061.73
584.32	48510.24
584.52	48379.17
584.72	48088.35
584.92	48925.97
585.11	48870.68
585.31	48403.74
585.51	48502.04
585.71	48250.14
585.91	48868.63
586.11	48712.98
586.31	48721.18
586.51	48891.16
586.71	48493.85
586.91	49239.31
587.10	49044.76
587.30	49085.72
587.50	49433.87
587.70	48944.41
587.90	49147.15
588.10	49366.29
588.30	48923.93
588.50	49079.57
