SpectraSuite Data File
++++++++++++++++++++++++++++++++++++
Date: Fri Jun 02 14:57:20 CEST 2017
User: INFO_000
Dark Spectrum Present: No
Reference Spectrum Present: No
Number of Sampled Component Spectra: 1
Spectrometers: USB4H00879
Integration Time (usec): 80000 (USB4H00879)
Spectra Averaged: 1 (USB4H00879)
Boxcar Smoothing: 0 (USB4H00879)
Correct for Electrical Dark: No (USB4H00879)
Strobe/Lamp Enabled: No (USB4H00879)
Correct for Detector Non-linearity: No (USB4H00879)
Correct for Stray Light: No (USB4H00879)
Number of Pixels in Processed Spectrum: 3648
>>>>>Begin Processed Spectral Data<<<<<
345.13	1232.88
345.34	1232.88
345.56	1232.88
345.78	1265.64
345.99	1331.18
346.21	1677.29
346.42	1734.63
346.64	1556.46
346.86	1800.16
347.07	1652.71
347.29	1753.06
347.50	1593.32
347.72	1621.99
347.94	1783.78
348.15	1601.51
348.37	1585.13
348.59	1677.29
348.80	1654.76
349.02	1828.84
349.23	1871.84
349.45	1810.40
349.67	1851.36
349.88	1841.12
350.10	1869.80
350.31	1818.60
350.53	1812.45
350.75	2027.49
350.96	1718.25
351.18	1890.28
351.39	1896.42
351.61	1822.69
351.82	1912.80
352.04	1931.23
352.26	1851.36
352.47	1906.66
352.69	1941.47
352.90	1820.64
353.12	1845.22
353.34	1841.12
353.55	1961.95
353.77	1873.89
353.98	1789.92
354.20	1822.69
354.41	1908.71
354.63	1906.66
354.85	2029.54
355.06	1908.71
355.28	1755.11
355.49	1869.80
355.71	1859.56
355.92	1888.23
356.14	1871.84
356.35	1859.56
356.57	1900.52
356.79	1949.67
357.00	1896.42
357.22	1992.67
357.43	1904.61
357.65	1976.29
357.86	1923.04
358.08	1923.04
358.29	1904.61
358.51	2086.88
358.72	1939.43
358.94	1892.32
359.16	1886.18
359.37	1941.47
359.59	1912.80
359.80	2027.49
360.02	2050.02
360.23	1896.42
360.45	1992.67
360.66	2009.06
360.88	1896.42
361.09	1847.27
361.31	1982.43
361.52	1947.62
361.74	2060.26
361.95	2050.02
362.17	1877.99
362.38	2039.78
362.60	2035.68
362.81	2002.91
363.03	1972.19
363.24	1986.53
363.46	2072.54
363.67	2035.68
363.89	1984.48
364.10	2041.82
364.32	1941.47
364.53	2136.03
364.75	1910.75
364.96	2025.44
365.18	2027.49
365.39	1976.29
365.61	2000.87
365.82	2090.98
366.04	1920.99
366.25	1945.57
366.47	2050.02
366.68	2133.98
366.90	2019.30
367.11	2031.58
367.33	2041.82
367.54	2119.65
367.76	2047.97
367.97	2078.69
368.19	1980.39
368.40	2131.94
368.62	1939.43
368.83	1898.47
369.05	2050.02
369.26	2074.59
369.48	2052.06
369.69	1994.72
369.91	2041.82
370.12	1998.82
370.33	2193.37
370.55	2039.78
370.76	2019.30
370.98	2174.94
371.19	2093.02
371.41	2078.69
371.62	2000.87
371.84	2017.25
372.05	2140.13
372.27	2123.74
372.48	2052.06
372.69	2084.83
372.91	2191.33
373.12	2228.19
373.34	2154.46
373.55	2160.61
373.77	2183.13
373.98	2125.79
374.20	2179.04
374.41	2279.39
374.62	2160.61
374.84	2226.14
375.05	2224.09
375.27	2129.89
375.48	2256.86
375.70	2121.70
375.91	2273.25
376.12	2232.29
376.34	2140.13
376.55	2172.89
376.77	2252.77
376.98	2160.61
377.19	2093.02
377.41	2093.02
377.62	2275.29
377.84	2314.20
378.05	2400.22
378.27	2127.84
378.48	2328.54
378.69	2426.84
378.91	2369.50
379.12	2228.19
379.34	2232.29
379.55	2236.38
379.76	2174.94
379.98	2209.76
380.19	2279.39
380.41	2301.92
380.62	2254.81
380.83	2279.39
381.05	2189.28
381.26	2398.17
381.47	2281.44
381.69	2265.05
381.90	2420.70
382.12	2312.16
382.33	2361.31
382.54	2269.15
382.76	2373.60
382.97	2236.38
383.19	2181.09
383.40	2385.88
383.61	2303.96
383.83	2322.40
384.04	2408.41
384.25	2379.74
384.47	2389.98
384.68	2465.75
384.89	2322.40
385.11	2363.36
385.32	2426.84
385.54	2308.06
385.75	2279.39
385.96	2457.56
386.18	2369.50
386.39	2320.35
386.60	2387.93
386.82	2340.83
387.03	2355.16
387.24	2486.23
387.46	2469.85
387.67	2516.95
387.88	2611.16
388.10	2465.75
388.31	2424.80
388.52	2596.82
388.74	2535.39
388.95	2490.33
389.16	2519.00
389.38	2457.56
389.59	2590.68
389.80	2674.65
390.02	2531.29
390.23	2629.59
390.44	2562.01
390.66	2602.97
390.87	2523.10
391.08	2564.06
391.30	2662.36
391.51	2645.98
391.72	2705.37
391.94	2553.82
392.15	2600.92
392.36	2650.07
392.58	2598.87
392.79	2605.02
393.00	2688.98
393.22	2762.71
393.43	2707.41
393.64	2731.99
393.85	2848.72
394.07	2676.70
394.28	2742.23
394.49	2777.05
394.71	2822.10
394.92	2846.68
395.13	2861.01
395.35	2770.90
395.56	2691.03
395.77	2783.19
395.98	2793.43
396.20	2955.22
396.41	2828.24
396.62	2801.62
396.84	2836.44
397.05	2768.85
397.26	2826.20
397.47	2994.13
397.69	2852.82
397.90	2987.99
398.11	2983.89
398.32	2801.62
398.54	2822.10
398.75	2940.88
398.96	3020.75
399.18	3000.27
399.39	2897.88
399.60	3084.24
399.81	2955.22
400.03	2895.83
400.24	3280.85
400.45	2996.18
400.66	3104.72
400.88	3071.95
401.09	3063.76
401.30	3012.56
401.51	3108.82
401.73	3164.11
401.94	3061.71
402.15	3172.30
402.36	3145.68
402.58	3143.63
402.79	3145.68
403.00	3110.86
403.21	3198.93
403.43	3264.46
403.64	3338.19
403.85	3069.91
404.06	3256.27
404.27	3108.82
404.49	3129.30
404.70	3108.82
404.91	3266.51
405.12	3227.60
405.34	3239.89
405.55	3434.44
405.76	3098.58
405.97	3229.65
406.19	3454.92
406.40	3157.97
406.61	3276.75
406.82	3282.89
407.03	3233.74
407.25	3325.90
407.46	3370.96
407.67	3313.61
407.88	3508.17
408.09	3295.18
408.31	3370.96
408.52	3438.54
408.73	3241.93
408.94	3338.19
409.15	3485.64
409.37	3483.59
409.58	3393.48
409.79	3471.31
410.00	3571.66
410.21	3327.95
410.43	3497.93
410.64	3428.30
410.85	3526.60
411.06	3504.07
411.27	3461.07
411.48	3596.23
411.70	3454.92
411.91	3571.66
412.12	3606.47
412.33	3559.37
412.54	3606.47
412.76	3727.30
412.97	3649.48
413.18	3545.03
413.39	3678.15
413.60	3624.90
413.81	3651.53
414.03	3641.29
414.24	3573.71
414.45	3815.37
414.66	3465.16
414.87	3624.90
415.08	3700.68
415.30	3614.66
415.51	3805.13
415.72	3645.38
415.93	3698.63
416.14	3878.85
416.35	3895.24
416.56	3782.60
416.78	3887.04
416.99	3715.02
417.20	3729.35
417.41	3917.76
417.62	3870.66
417.83	3977.16
418.04	3893.19
418.26	3934.15
418.47	3827.65
418.68	3940.29
418.89	3960.77
419.10	4128.70
419.31	3911.62
419.52	4132.80
419.73	3991.49
419.95	4085.70
420.16	4007.87
420.37	4050.88
420.58	4122.56
420.79	3946.44
421.00	4100.03
421.21	4073.41
421.42	4061.12
421.63	4149.18
421.85	4067.27
422.06	4192.19
422.27	4081.60
422.48	4100.03
422.69	4190.14
422.90	4118.47
423.11	4296.64
423.32	4194.24
423.53	4372.41
423.75	4452.28
423.96	4388.80
424.17	4319.17
424.38	4421.56
424.59	4372.41
424.80	4380.61
425.01	4485.05
425.22	4417.47
425.43	4476.86
425.64	4562.87
425.85	4562.87
426.06	4485.05
426.28	4566.97
426.49	4411.32
426.70	4464.57
426.91	4558.78
427.12	4624.31
427.33	4575.16
427.54	4675.51
427.75	4693.94
427.96	4833.21
428.17	4689.85
428.38	4829.11
428.59	4745.14
428.80	4730.81
429.01	4777.91
429.23	4777.91
429.44	4915.12
429.65	4892.60
429.86	4814.77
430.07	4802.49
430.28	4874.17
430.49	5019.57
430.70	5144.50
430.91	5083.06
431.12	4939.70
431.33	5193.65
431.54	5083.06
431.75	5017.52
431.96	5062.58
432.17	5210.03
432.38	5154.74
432.59	5377.97
432.80	5328.81
433.01	5240.75
433.22	5345.20
433.43	5242.80
433.64	5287.86
433.85	5205.94
434.06	5377.97
434.27	5156.79
434.49	5398.45
434.70	5566.38
434.91	5347.25
435.12	5482.41
435.33	5613.48
435.54	5550.00
435.75	5277.62
435.96	5509.04
436.17	5291.95
436.38	5533.61
436.59	5498.80
436.80	5517.23
437.01	5971.88
437.22	5791.66
437.43	5629.87
437.64	5529.52
437.85	5574.57
438.06	5830.57
438.27	5566.38
438.48	5697.45
438.69	5838.76
438.90	5705.64
439.11	5640.11
439.32	6012.84
439.53	5797.80
439.74	5869.48
439.95	5955.49
440.16	5971.88
440.37	5881.77
440.57	5808.04
440.78	5980.07
440.99	5975.97
441.20	5996.45
441.41	5820.33
441.62	6004.64
441.83	5859.24
442.04	6231.97
442.25	6098.85
442.46	6066.08
442.67	6328.22
442.88	6539.16
443.09	6053.80
443.30	6074.28
443.51	6258.59
443.72	6496.16
443.93	6262.69
444.14	6293.41
444.35	6215.59
444.56	6375.33
444.77	6428.57
444.98	6436.77
445.19	6348.70
445.40	6555.55
445.61	6369.18
445.81	6563.74
446.02	6569.88
446.23	6553.50
446.44	6408.09
446.65	6404.00
446.86	6533.02
447.07	6651.80
447.28	6705.05
447.49	6768.54
447.70	6590.36
447.91	6743.96
448.12	6694.81
448.33	6889.37
448.54	6535.07
448.74	6748.06
448.95	7006.10
449.16	6762.39
449.37	7174.03
449.58	6883.22
449.79	7139.22
450.00	6823.83
450.21	6928.28
450.42	7120.79
450.63	7069.59
450.84	7057.30
451.05	7131.03
451.25	7088.02
451.46	6975.38
451.67	7100.31
451.88	7171.99
452.09	7133.08
452.30	7112.60
452.51	7309.20
452.72	7473.04
452.93	7735.18
453.13	7200.66
453.34	7219.09
453.55	7339.92
453.76	7401.36
453.97	7712.65
454.18	7532.43
454.39	7622.54
454.60	7546.76
454.81	7493.52
455.01	7677.83
455.22	7321.49
455.43	7608.20
455.64	7780.23
455.85	7835.53
456.06	8048.52
456.27	7753.61
456.48	7747.47
456.68	7726.99
456.89	8021.89
457.10	8142.72
457.31	7976.84
457.52	7956.36
457.73	7995.27
457.94	8345.47
458.14	8036.23
458.35	8458.11
458.56	8324.99
458.77	8120.20
458.98	8398.72
459.19	8404.86
459.39	8411.01
459.60	8529.79
459.81	8275.84
460.02	8568.70
460.23	8386.43
460.44	8912.76
460.65	8585.08
460.85	8808.31
461.06	8662.91
461.27	8474.49
461.48	8994.68
461.69	8779.64
461.89	8875.90
462.10	8923.00
462.31	8890.23
462.52	8845.18
462.73	8892.28
462.94	9191.28
463.14	9201.52
463.35	9164.66
463.56	9525.10
463.77	9281.39
463.98	9205.62
464.18	9254.77
464.39	9478.00
464.60	9584.49
464.81	9531.25
465.02	9480.05
465.23	9711.47
465.43	9580.40
465.64	9852.78
465.85	9664.36
466.06	9613.17
466.27	10069.86
466.47	9981.80
466.68	9865.07
466.89	9979.75
467.10	10295.14
467.30	9867.11
467.51	10202.98
467.72	10590.05
467.93	9985.90
468.14	10264.42
468.34	10401.63
468.55	10620.77
468.76	10317.67
468.97	10348.39
469.17	10712.92
469.38	10594.14
469.59	10837.85
469.80	10594.14
470.01	10768.22
470.21	10682.20
470.42	10782.56
470.63	11194.20
470.84	10932.06
471.04	11155.29
471.25	11050.84
471.46	11378.51
471.67	11501.39
471.87	11433.81
472.08	11353.94
472.29	11689.81
472.50	11298.64
472.70	11591.50
472.91	11630.41
473.12	11794.25
473.33	11734.86
473.53	12156.74
473.74	11978.57
473.95	12179.27
474.16	12044.10
474.36	12169.03
474.57	12238.66
474.78	12566.34
474.99	12463.94
475.19	12347.20
475.40	12486.47
475.61	12660.54
475.81	12812.09
476.02	13180.73
476.23	13045.56
476.44	12937.02
476.64	13203.25
476.85	13389.62
477.06	13154.10
477.27	13489.97
477.47	13717.29
477.68	13602.61
477.89	13635.38
478.09	13920.04
478.30	13750.06
478.51	13829.93
478.71	13928.24
478.92	14139.18
479.13	14171.94
479.34	14106.41
479.54	14274.34
479.75	14495.52
479.96	14589.73
480.16	14536.48
480.37	14608.16
480.58	14884.64
480.78	15138.58
480.99	15060.76
481.20	15283.99
481.41	15175.45
481.61	15114.01
481.82	15466.26
482.03	15437.59
482.23	15425.30
482.44	15773.46
482.65	15662.86
482.85	15834.89
483.06	15845.13
483.27	15884.05
483.47	15779.60
483.68	16119.56
483.89	15992.59
484.09	16195.34
484.30	16404.23
484.51	16703.23
484.71	16402.18
484.92	16832.26
485.13	16846.59
485.33	16746.24
485.54	16801.54
485.75	17299.19
485.95	17161.98
486.16	17293.05
486.37	17331.96
486.57	17311.48
486.78	17364.73
486.98	17633.01
487.19	17673.97
487.40	17702.64
487.60	17661.68
487.81	18401.00
488.02	17919.73
488.22	17878.77
488.43	18411.24
488.64	18372.33
488.84	18409.19
489.05	18409.19
489.25	18693.86
489.46	18499.30
489.67	18648.80
489.87	19160.80
490.08	18925.28
490.29	18892.51
490.49	19244.76
490.70	19136.22
490.90	19447.51
491.11	19148.51
491.32	19521.24
491.52	19523.29
491.73	19637.97
491.94	19713.75
492.14	19388.12
492.35	19990.22
492.55	19922.64
492.76	20147.92
492.97	20313.80
493.17	20387.53
493.38	20260.55
493.58	20700.87
493.79	20672.20
494.00	20784.83
494.20	20653.76
494.41	20778.69
494.61	21116.61
494.82	21171.90
495.02	20948.67
495.23	21268.16
495.44	21249.72
495.64	21456.57
495.85	21266.11
496.05	21808.82
496.26	21401.27
496.47	21630.65
496.67	21743.28
496.88	22052.53
497.08	21382.84
497.29	22220.46
497.49	21960.37
497.70	22148.78
497.91	22585.00
498.11	22449.83
498.32	22257.32
498.52	22527.66
498.73	22703.78
498.93	22585.00
499.14	22578.86
499.34	22550.18
499.55	23365.28
499.76	22884.00
499.96	23099.04
500.17	23266.97
500.37	23058.08
500.58	23185.05
500.78	23199.39
500.99	23477.91
501.19	23764.63
501.40	23332.51
501.60	23303.84
501.81	23482.01
502.02	23910.04
502.22	23555.74
502.43	23924.37
502.63	24368.78
502.84	24174.22
503.04	24077.97
503.25	24393.36
503.45	24338.06
503.66	24610.44
503.86	24469.13
504.07	24632.97
504.27	24307.34
504.48	24743.56
504.68	24522.38
504.89	25038.47
505.09	25224.83
505.30	25089.67
505.50	24893.06
505.71	25226.88
505.91	25214.59
506.12	25380.48
506.32	25603.71
506.53	25263.74
506.73	25407.10
506.94	25888.37
507.14	25448.06
507.35	25765.49
507.55	25740.92
507.76	25679.48
507.96	25880.18
508.17	26111.60
508.37	25833.08
508.58	25917.04
508.78	26103.41
508.99	26424.94
509.19	26136.18
509.40	26349.17
509.60	26351.21
509.81	26322.54
510.01	26144.37
510.22	26236.53
510.42	26441.32
510.63	26644.07
510.83	26642.03
511.04	26623.59
511.24	26676.84
511.44	26781.29
511.65	27278.94
511.85	26953.32
512.06	26990.18
512.26	27096.67
512.47	27303.52
512.67	27117.15
512.88	27360.86
513.08	26984.04
513.29	27496.03
513.49	27573.85
513.69	27594.33
513.90	27190.88
514.10	27518.56
514.31	27825.75
514.51	27754.07
514.72	27663.96
514.92	27772.50
515.13	27745.88
515.33	27969.11
515.53	27895.38
515.74	28032.60
515.94	27891.29
516.15	28270.16
516.35	27969.11
516.56	28304.98
516.76	28374.61
516.96	28333.65
517.17	28726.86
517.37	28134.99
517.58	28321.36
517.78	28233.30
517.99	28575.31
518.19	28831.30
518.39	28819.02
518.60	29222.47
518.80	28816.97
519.01	29406.78
519.21	29015.62
519.41	29281.86
519.62	29255.23
519.82	29476.41
520.03	29486.65
520.23	29630.01
520.43	29335.10
520.64	29974.07
520.84	29832.76
521.05	29576.76
521.25	29838.90
521.45	29951.54
521.66	29793.85
521.86	29906.49
522.07	29828.66
522.27	30250.55
522.47	30101.04
522.68	30596.65
522.88	30185.01
523.08	30565.93
523.29	30074.42
523.49	30723.63
523.70	30674.48
523.90	30711.34
524.10	30918.18
524.31	31102.50
524.51	30869.03
524.71	31364.64
524.92	30981.67
525.12	31458.85
525.33	31165.99
525.53	31432.22
525.73	31882.78
525.94	31499.81
526.14	31411.74
526.34	31628.83
526.55	31684.12
526.75	31774.24
526.95	31821.34
527.16	31950.36
527.36	31929.88
527.56	32280.08
527.77	32232.98
527.97	32165.40
528.17	32245.27
528.38	32280.08
528.58	32001.56
528.78	32661.01
528.99	32587.28
529.19	32830.99
529.39	32781.84
529.60	33037.83
529.80	32837.13
530.00	33117.70
530.21	33148.42
530.41	33326.60
530.61	33342.98
530.82	33302.02
531.02	33216.01
531.22	33365.51
531.43	33465.86
531.63	33547.78
531.83	33951.23
532.04	34186.74
532.24	33916.41
532.44	34278.90
532.64	34213.37
532.85	34364.92
533.05	34741.74
533.25	34334.20
533.46	34362.87
533.66	34860.52
533.86	34457.07
534.07	35069.42
534.27	34477.55
534.47	35241.45
534.67	34952.68
534.88	35032.55
535.08	34944.49
535.28	35139.05
535.49	35440.10
535.69	35866.08
535.89	35460.58
536.09	35687.90
536.30	35915.23
536.50	36046.30
536.70	36054.49
536.91	36054.49
537.11	36072.92
537.31	36214.23
537.51	35909.08
537.72	36185.56
537.92	36279.77
538.12	36883.92
538.32	36361.69
538.53	36707.79
538.73	36488.66
538.93	37060.04
539.13	36621.78
539.34	36896.20
539.54	36722.13
539.74	36896.20
539.94	37438.92
540.15	37000.65
540.35	37176.78
540.55	37318.09
540.75	37176.78
540.96	37410.25
541.16	37735.87
541.36	37313.99
541.56	37664.19
541.77	38000.06
541.97	37465.54
542.17	37811.65
542.37	37569.99
542.58	38020.54
542.78	37778.88
542.98	37725.63
543.18	37893.57
543.38	38397.37
543.59	38247.86
543.79	38254.01
543.99	38213.05
544.19	38485.43
544.40	38489.52
544.60	38860.21
544.80	38600.12
545.00	38915.50
545.20	38714.80
545.41	38518.20
545.61	39009.71
545.81	38712.75
546.01	39015.85
546.21	39056.81
546.42	38739.38
546.62	39335.34
546.82	38854.06
547.02	39226.79
547.22	39194.03
547.43	39312.81
547.63	39667.11
547.83	39296.42
548.03	39333.29
548.23	39521.70
548.44	39536.04
548.64	39636.39
548.84	39759.27
549.04	39665.06
549.24	40129.95
549.45	39894.43
549.65	39595.43
549.85	39650.72
550.05	40166.81
550.25	39763.36
550.45	40394.14
550.66	40230.30
550.86	40344.98
551.06	40293.79
551.26	40387.99
551.46	40314.26
551.66	40531.35
551.87	40218.01
552.07	40588.69
552.27	40256.92
552.47	40834.45
552.67	40197.53
552.87	40244.63
553.07	40963.47
553.28	40813.97
553.48	41010.57
553.68	40609.17
553.88	41545.09
554.08	40986.00
554.28	40779.15
554.48	40338.84
554.69	41059.73
554.89	40924.56
555.09	41035.15
555.29	40910.22
555.49	41112.97
555.69	41024.91
555.89	41168.27
556.10	41588.10
556.30	41135.50
556.50	41526.66
556.70	41246.09
556.90	41510.28
557.10	41336.20
557.30	41260.43
557.50	41266.57
557.70	41659.78
557.91	41819.52
558.11	41567.62
558.31	41897.34
558.51	41618.82
558.71	42167.68
558.91	41911.68
559.11	41792.90
559.31	41985.41
559.51	41739.65
559.72	41645.44
559.92	42298.75
560.12	41547.14
560.32	42061.18
560.52	41719.17
560.72	42317.18
560.92	42538.36
561.12	42384.76
561.32	42859.89
561.52	41792.90
561.72	42634.61
561.93	41919.87
562.13	42022.27
562.33	42171.77
562.53	43206.00
562.73	42599.80
562.93	42290.55
563.13	42843.51
563.33	42339.71
563.53	42921.33
563.73	42186.11
563.93	42657.14
564.13	43005.30
564.33	42704.24
564.53	42837.36
564.74	42767.73
564.94	42521.98
565.14	42726.77
565.34	42732.92
565.54	43138.41
565.74	43097.45
565.94	43058.54
566.14	42947.95
566.34	42863.99
566.54	43289.96
566.74	43156.85
566.94	43521.38
567.14	43263.34
567.34	43062.64
567.54	43332.97
567.74	43468.14
567.94	43578.73
568.14	43599.21
568.34	43730.28
568.54	43398.51
568.74	43386.22
568.94	43492.71
569.14	43816.29
569.34	43717.99
569.54	43881.83
569.75	43390.31
569.95	43867.49
570.15	43976.03
570.35	44221.79
570.55	44068.19
570.75	43883.87
570.95	44078.43
571.15	44260.70
571.35	44047.71
571.55	44459.35
571.75	44465.50
571.95	44285.28
572.15	44371.29
572.35	44467.55
572.55	44146.01
572.75	44250.46
572.95	44379.48
573.15	44467.55
573.35	44582.23
573.55	44524.89
573.75	44662.10
573.95	44717.40
574.15	44496.22
574.35	44723.54
574.55	45055.31
574.75	44844.37
574.95	44840.28
575.15	45034.83
575.34	45233.49
575.54	45122.90
575.74	44997.97
575.94	45364.56
576.14	45380.94
576.34	45573.45
576.54	45505.87
576.74	45546.82
576.94	45454.67
577.14	45720.90
577.34	45765.96
577.54	45194.57
577.74	45401.42
577.94	45907.27
578.14	45483.34
578.34	46142.78
578.54	45458.76
578.74	46253.37
578.94	46120.26
579.14	45655.37
579.34	45985.09
579.54	46232.89
579.74	46476.60
579.94	46187.84
580.13	46335.29
580.33	46474.55
580.53	46220.61
580.73	46134.59
580.93	46607.67
581.13	46736.69
581.33	46617.91
581.53	46970.16
581.73	46945.59
581.93	47025.46
582.13	47217.97
582.33	47179.06
582.53	46802.23
582.73	47248.69
582.92	47009.07
583.12	47387.95
583.32	47183.15
583.52	47465.77
583.72	47617.32
583.92	47293.74
584.12	47625.51
584.32	48174.37
584.52	47734.06
584.72	47437.10
584.92	47701.29
585.11	48276.77
585.31	47760.68
585.51	47873.32
585.71	47764.78
585.91	48358.69
586.11	47695.14
586.31	47930.66
586.51	47873.32
586.71	48293.15
586.91	48313.63
587.10	48520.48
587.30	48643.35
587.50	48411.93
587.70	48837.91
587.90	48551.20
588.10	48637.21
588.30	48430.36
588.50	48870.68
