SpectraSuite Data File
++++++++++++++++++++++++++++++++++++
Date: Fri Jun 02 14:57:23 CEST 2017
User: INFO_000
Dark Spectrum Present: No
Reference Spectrum Present: No
Number of Sampled Component Spectra: 1
Spectrometers: USB4H00879
Integration Time (usec): 80000 (USB4H00879)
Spectra Averaged: 1 (USB4H00879)
Boxcar Smoothing: 0 (USB4H00879)
Correct for Electrical Dark: No (USB4H00879)
Strobe/Lamp Enabled: No (USB4H00879)
Correct for Detector Non-linearity: No (USB4H00879)
Correct for Stray Light: No (USB4H00879)
Number of Pixels in Processed Spectrum: 3648
>>>>>Begin Processed Spectral Data<<<<<
345.13	1267.69
345.34	1267.69
345.56	1267.69
345.78	1339.37
345.99	1257.45
346.21	1738.73
346.42	1730.53
346.64	1685.48
346.86	1794.02
347.07	1652.71
347.29	1671.14
347.50	1574.89
347.72	1763.30
347.94	1789.92
348.15	1583.08
348.37	1638.38
348.59	1718.25
348.80	1662.95
349.02	1779.68
349.23	1894.37
349.45	1892.32
349.67	1966.05
349.88	1814.50
350.10	1966.05
350.31	1877.99
350.53	1769.44
350.75	2019.30
350.96	1820.64
351.18	1834.98
351.39	1886.18
351.61	1740.77
351.82	1933.28
352.04	1906.66
352.26	1847.27
352.47	1896.42
352.69	1867.75
352.90	1855.46
353.12	1925.09
353.34	1847.27
353.55	1961.95
353.77	1765.35
353.98	1863.65
354.20	1800.16
354.41	1896.42
354.63	2017.25
354.85	2093.02
355.06	1933.28
355.28	1810.40
355.49	1904.61
355.71	1851.36
355.92	1888.23
356.14	1951.71
356.35	1798.12
356.57	1843.17
356.79	1941.47
357.00	1855.46
357.22	2029.54
357.43	1888.23
357.65	1984.48
357.86	1857.51
358.08	1849.32
358.29	1918.95
358.51	2021.35
358.72	1966.05
358.94	1902.56
359.16	1925.09
359.37	1957.86
359.59	1920.99
359.80	2031.58
360.02	1951.71
360.23	1912.80
360.45	1929.19
360.66	1931.23
360.88	1894.37
361.09	1933.28
361.31	1931.23
361.52	1974.24
361.74	2066.40
361.95	2074.59
362.17	1912.80
362.38	2113.50
362.60	2043.87
362.81	2035.68
363.03	1859.56
363.24	2011.11
363.46	2095.07
363.67	2011.11
363.89	1929.19
364.10	2035.68
364.32	1947.62
364.53	2088.93
364.75	1906.66
364.96	1986.53
365.18	1992.67
365.39	1980.39
365.61	1970.15
365.82	2166.75
366.04	2027.49
366.25	2007.01
366.47	2070.50
366.68	2070.50
366.90	2002.91
367.11	2052.06
367.33	2078.69
367.54	2039.78
367.76	2093.02
367.97	2107.36
368.19	2002.91
368.40	2107.36
368.62	2007.01
368.83	1984.48
369.05	2062.30
369.26	1988.58
369.48	2093.02
369.69	1966.05
369.91	2060.26
370.12	2062.30
370.33	2131.94
370.55	2076.64
370.76	2095.07
370.98	2076.64
371.19	2068.45
371.41	2007.01
371.62	2099.17
371.84	2076.64
372.05	2148.32
372.27	2072.54
372.48	2029.54
372.69	2050.02
372.91	2121.70
373.12	2179.04
373.34	2117.60
373.55	2111.46
373.77	2215.90
373.98	2076.64
374.20	2158.56
374.41	2248.67
374.62	2056.16
374.84	2211.81
375.05	2226.14
375.27	2156.51
375.48	2242.53
375.70	2142.18
375.91	2283.49
376.12	2256.86
376.34	2111.46
376.55	2217.95
376.77	2174.94
376.98	2113.50
377.19	2248.67
377.41	2189.28
377.62	2154.46
377.84	2344.92
378.05	2385.88
378.27	2222.05
378.48	2330.59
378.69	2369.50
378.91	2334.68
379.12	2236.38
379.34	2193.37
379.55	2285.53
379.76	2215.90
379.98	2193.37
380.19	2273.25
380.41	2314.20
380.62	2349.02
380.83	2236.38
381.05	2199.52
381.26	2367.45
381.47	2267.10
381.69	2226.14
381.90	2367.45
382.12	2306.01
382.33	2236.38
382.54	2344.92
382.76	2385.88
382.97	2392.03
383.19	2293.72
383.40	2369.50
383.61	2297.82
383.83	2244.57
384.04	2289.63
384.25	2344.92
384.47	2416.60
384.68	2346.97
384.89	2330.59
385.11	2322.40
385.32	2389.98
385.54	2410.46
385.75	2314.20
385.96	2342.88
386.18	2361.31
386.39	2353.12
386.60	2367.45
386.82	2459.61
387.03	2387.93
387.24	2480.09
387.46	2482.14
387.67	2494.43
387.88	2531.29
388.10	2439.13
388.31	2494.43
388.52	2562.01
388.74	2453.47
388.95	2484.19
389.16	2527.19
389.38	2457.56
389.59	2611.16
389.80	2662.36
390.02	2478.04
390.23	2623.45
390.44	2631.64
390.66	2514.91
390.87	2539.48
391.08	2607.06
391.30	2637.78
391.51	2519.00
391.72	2672.60
391.94	2662.36
392.15	2682.84
392.36	2594.78
392.58	2596.82
392.79	2756.57
393.00	2682.84
393.22	2768.85
393.43	2764.76
393.64	2766.81
393.85	2854.87
394.07	2633.69
394.28	2688.98
394.49	2818.00
394.71	2781.14
394.92	2830.29
395.13	2641.88
395.35	2660.31
395.56	2762.71
395.77	2838.48
395.98	2803.67
396.20	2789.33
396.41	2793.43
396.62	2867.16
396.84	2791.38
397.05	2727.89
397.26	2861.01
397.47	3041.23
397.69	2830.29
397.90	3010.51
398.11	2977.75
398.32	2967.51
398.54	2901.97
398.75	2932.69
398.96	2861.01
399.18	3030.99
399.39	2934.74
399.60	2971.60
399.81	2973.65
400.03	2969.55
400.24	3305.42
400.45	2955.22
400.66	3063.76
400.88	3018.71
401.09	3239.89
401.30	3069.91
401.51	3137.49
401.73	3143.63
401.94	3186.64
402.15	3166.16
402.36	3164.11
402.58	3127.25
402.79	3147.73
403.00	3246.03
403.21	3207.12
403.43	3237.84
403.64	3332.05
403.85	3141.58
404.06	3192.78
404.27	3221.45
404.49	3203.02
404.70	3198.93
404.91	3305.42
405.12	3227.60
405.34	3227.60
405.55	3551.18
405.76	3174.35
405.97	3264.46
406.19	3475.40
406.40	3286.99
406.61	3385.29
406.82	3278.80
407.03	3305.42
407.25	3342.28
407.46	3463.12
407.67	3391.44
407.88	3461.07
408.09	3297.23
408.31	3219.41
408.52	3432.40
408.73	3352.52
408.94	3272.65
409.15	3514.31
409.37	3346.38
409.58	3526.60
409.79	3465.16
410.00	3452.88
410.21	3379.15
410.43	3522.51
410.64	3538.89
410.85	3555.27
411.06	3577.80
411.27	3579.85
411.48	3508.17
411.70	3491.79
411.91	3524.55
412.12	3532.75
412.33	3600.33
412.54	3614.66
412.76	3706.82
412.97	3764.17
413.18	3450.83
413.39	3635.14
413.60	3649.48
413.81	3594.19
414.03	3579.85
414.24	3665.86
414.45	3727.30
414.66	3522.51
414.87	3817.41
415.08	3676.10
415.30	3856.33
415.51	3852.23
415.72	3653.58
415.93	3755.97
416.14	3946.44
416.35	3758.02
416.56	3760.07
416.78	3850.18
416.99	3882.95
417.20	3665.86
417.41	3878.85
417.62	3919.81
417.83	3899.33
418.04	3858.37
418.26	3755.97
418.47	3954.63
418.68	4042.69
418.89	3805.13
419.10	4057.03
419.31	3979.20
419.52	4116.42
419.73	3985.35
419.95	4081.60
420.16	3899.33
420.37	4024.26
420.58	4173.76
420.79	3858.37
421.00	4165.57
421.21	4132.80
421.42	3975.11
421.63	4048.83
421.85	4134.85
422.06	4181.95
422.27	4147.14
422.48	4294.59
422.69	4112.32
422.90	4241.34
423.11	4253.63
423.32	4288.45
423.53	4327.36
423.75	4259.78
423.96	4333.50
424.17	4485.05
424.38	4548.54
424.59	4401.08
424.80	4597.69
425.01	4288.45
425.22	4325.31
425.43	4485.05
425.64	4665.27
425.85	4630.46
426.06	4519.87
426.28	4458.43
426.49	4386.75
426.70	4489.15
426.91	4681.66
427.12	4638.65
427.33	4646.84
427.54	4614.07
427.75	4695.99
427.96	4818.87
428.17	4796.34
428.38	4917.17
428.59	4829.11
428.80	4667.32
429.01	4857.78
429.23	4794.29
429.44	5052.34
429.65	4904.89
429.86	4859.83
430.07	4853.69
430.28	4839.35
430.49	5038.00
430.70	5197.74
430.91	5134.26
431.12	4935.60
431.33	5111.73
431.54	5121.97
431.75	5171.12
431.96	5011.38
432.17	5001.14
432.38	4974.52
432.59	5373.87
432.80	5275.57
433.01	5273.52
433.22	5310.38
433.43	5199.79
433.64	5220.27
433.85	5318.57
434.06	5226.42
434.27	5253.04
434.49	5439.40
434.70	5392.30
434.91	5525.42
435.12	5480.36
435.33	5412.78
435.54	5492.65
435.75	5334.96
435.96	5308.34
436.17	5296.05
436.38	5523.37
436.59	5463.98
436.80	5398.45
437.01	5664.68
437.22	5652.39
437.43	5687.21
437.64	5484.46
437.85	5666.73
438.06	5760.94
438.27	5533.61
438.48	5529.52
438.69	5785.51
438.90	5681.07
439.11	5593.00
439.32	5771.18
439.53	5797.80
439.74	5844.90
439.95	5959.59
440.16	5816.23
440.37	5781.42
440.57	5816.23
440.78	6070.18
440.99	5959.59
441.20	5803.94
441.41	5820.33
441.62	5818.28
441.83	5760.94
442.04	6047.65
442.25	5978.02
442.46	5877.67
442.67	6080.42
442.88	6324.13
443.09	6115.23
443.30	5955.49
443.51	5928.87
443.72	6369.18
443.93	6033.32
444.14	6281.12
444.35	6365.09
444.56	6262.69
444.77	6326.18
444.98	6338.46
445.19	6344.61
445.40	6197.15
445.61	6293.41
445.81	6576.03
446.02	6315.94
446.23	6424.48
446.44	6305.70
446.65	6393.76
446.86	6404.00
447.07	6578.08
447.28	6692.76
447.49	6653.85
447.70	6541.21
447.91	6465.44
448.12	6492.06
448.33	6649.75
448.54	6635.42
448.74	6594.46
448.95	6764.44
449.16	6545.31
449.37	7016.34
449.58	6655.90
449.79	6999.96
450.00	6770.58
450.21	6879.13
450.42	7038.87
450.63	7045.01
450.84	6883.22
451.05	6973.33
451.25	6850.46
451.46	6856.60
451.67	7075.73
451.88	7163.79
452.09	7161.75
452.30	6973.33
452.51	7079.83
452.72	7354.26
452.93	7360.40
453.13	7053.20
453.34	7167.89
453.55	7167.89
453.76	7210.90
453.97	7569.29
454.18	7376.78
454.39	7509.90
454.60	7323.54
454.81	7448.46
455.01	7663.50
455.22	7163.79
455.43	7688.07
455.64	7722.89
455.85	7827.34
456.06	7872.39
456.27	7759.75
456.48	7798.66
456.68	7837.58
456.89	7792.52
457.10	7913.35
457.31	7935.88
457.52	7866.25
457.73	7954.31
457.94	8216.45
458.14	8001.41
458.35	8277.89
458.56	8095.62
458.77	8146.82
458.98	8281.99
459.19	8275.84
459.39	8294.27
459.60	8421.25
459.81	8392.58
460.02	8388.48
460.23	8513.41
460.44	8822.65
460.65	8699.77
460.85	8705.92
461.06	8818.55
461.27	8445.82
461.48	8929.14
461.69	9013.11
461.89	8677.24
462.10	8894.33
462.31	8705.92
462.52	8875.90
462.73	9025.40
462.94	9021.30
463.14	8890.23
463.35	8830.84
463.56	9478.00
463.77	9459.57
463.98	9330.55
464.18	9277.30
464.39	9586.54
464.60	9731.95
464.81	9713.52
465.02	9443.18
465.23	9871.21
465.43	9504.62
465.64	9813.87
465.85	9660.27
466.06	9650.03
466.27	10030.95
466.47	9924.46
466.68	10010.47
466.89	9903.98
467.10	9879.40
467.30	9971.56
467.51	10248.04
467.72	10366.82
467.93	10190.69
468.14	10504.03
468.34	10661.73
468.55	10524.51
468.76	10375.01
468.97	10553.18
469.17	10850.14
469.38	10796.89
469.59	10846.04
469.80	10708.83
470.01	10729.31
470.21	10880.86
470.42	10927.96
470.63	11208.53
470.84	10948.44
471.04	11278.16
471.25	11323.22
471.46	11229.01
471.67	11587.41
471.87	11335.51
472.08	11456.34
472.29	11773.77
472.50	11427.67
472.70	11659.09
472.91	11759.44
473.12	11857.74
473.33	11941.71
473.53	12236.61
473.74	12111.69
473.95	12398.40
474.16	12433.22
474.36	12277.57
474.57	12429.12
474.78	12672.83
474.99	12613.44
475.19	12691.26
475.40	12803.90
475.61	12775.23
475.81	13129.53
476.02	13227.83
476.23	12992.31
476.44	13117.24
476.64	13262.65
476.85	13403.96
477.06	13332.28
477.27	13586.22
477.47	13797.17
477.68	13750.06
477.89	13829.93
478.09	13872.94
478.30	13961.00
478.51	13856.56
478.71	14145.32
478.92	14126.89
479.13	14247.72
479.34	14372.64
479.54	14487.33
479.75	14685.98
479.96	14450.47
480.16	14565.15
480.37	14593.83
480.58	14817.05
480.78	14931.74
480.99	15120.15
481.20	15236.89
481.41	15271.70
481.61	15220.50
481.82	15370.01
482.03	15359.77
482.23	15660.82
482.44	15793.94
482.65	15910.67
482.85	16006.92
483.06	16023.31
483.27	15843.09
483.47	16056.08
483.68	16084.75
483.89	16252.68
484.09	16207.62
484.30	16373.51
484.51	16627.46
484.71	16715.52
484.92	16674.56
485.13	17026.81
485.33	16992.00
485.54	17014.52
485.75	17237.75
485.95	17219.32
486.16	17389.30
486.37	17342.20
486.57	17293.05
486.78	17331.96
486.98	17608.44
487.19	17608.44
487.40	17905.39
487.60	17854.19
487.81	18102.00
488.02	17995.50
488.22	17987.31
488.43	18398.95
488.64	18048.75
488.84	18341.61
489.05	18634.47
489.25	18626.28
489.46	18646.76
489.67	18534.12
489.87	18859.74
490.08	18894.56
490.29	18888.42
490.49	19343.06
490.70	19359.45
490.90	19494.61
491.11	19115.74
491.32	19439.32
491.52	19556.05
491.73	19693.27
491.94	19406.55
492.14	19664.60
492.35	19756.75
492.55	20125.39
492.76	19969.74
492.97	19926.74
493.17	20281.03
493.38	20414.15
493.58	20633.29
493.79	20606.66
494.00	20616.90
494.20	20451.02
494.41	21059.26
494.61	20893.38
494.82	20852.42
495.02	20971.20
495.23	21071.55
495.44	21126.85
495.64	21235.39
495.85	21364.41
496.05	21438.14
496.26	21163.71
496.47	22005.42
496.67	21307.07
496.88	21888.69
497.08	21374.65
497.29	21941.94
497.49	21810.87
497.70	22027.95
497.91	21974.70
498.11	22134.45
498.32	22175.41
498.52	22183.60
498.73	22662.82
498.93	22611.62
499.14	22513.32
499.34	22478.50
499.55	22826.66
499.76	22478.50
499.96	22685.35
500.17	22838.95
500.37	22654.63
500.58	22896.29
500.78	22847.14
500.99	22826.66
501.19	23293.60
501.40	23160.48
501.60	23201.44
501.81	23244.45
502.02	23637.66
502.22	23191.20
502.43	23680.66
502.63	23789.20
502.84	23533.21
503.04	23953.04
503.25	23768.73
503.45	23781.01
503.66	23805.59
503.86	23985.81
504.07	24213.13
504.27	23885.46
504.48	24172.18
504.68	24256.14
504.89	24153.74
505.09	24397.45
505.30	24841.86
505.50	24602.25
505.71	24587.91
505.91	24718.98
506.12	24766.09
506.32	24684.17
506.53	24848.00
506.73	24862.34
506.94	25212.54
507.14	25071.23
507.35	25040.51
507.55	25458.30
507.76	24970.88
507.96	25073.28
508.17	25462.40
508.37	25282.17
508.58	25626.23
508.78	25618.04
508.99	25919.09
509.19	25609.85
509.40	25556.60
509.60	25697.91
509.81	25742.97
510.01	25882.23
510.22	25876.09
510.42	25878.13
510.63	25753.21
510.83	26154.61
511.04	26017.40
511.24	26039.92
511.44	26140.27
511.65	26408.56
511.85	26230.38
512.06	26373.74
512.26	26451.56
512.47	26553.96
512.67	26482.28
512.88	26664.55
513.08	26517.10
513.29	26771.05
513.49	26662.51
513.69	26445.42
513.90	26816.10
514.10	27201.12
514.31	26730.09
514.51	26961.51
514.72	26885.73
514.92	27262.56
515.13	26830.44
515.33	27324.00
515.53	27508.32
515.74	27041.38
515.94	27469.40
516.15	27584.09
516.35	27453.02
516.56	27135.59
516.76	27362.91
516.96	27526.75
517.17	27850.33
517.37	27651.67
517.58	27725.40
517.78	27803.22
517.99	27899.48
518.19	28112.47
518.39	28159.57
518.60	28517.96
518.80	28247.63
519.01	28474.96
519.21	28313.17
519.41	28294.74
519.62	28341.84
519.82	28905.03
520.03	28972.61
520.23	28579.40
520.43	28497.49
520.64	28958.28
520.84	29218.37
521.05	29075.01
521.25	29167.17
521.45	29130.31
521.66	29341.25
521.86	29154.88
522.07	29322.82
522.27	29550.14
522.47	29468.22
522.68	29832.76
522.88	29562.43
523.08	30035.51
523.29	29857.34
523.49	29572.67
523.70	29849.14
523.90	29953.59
524.10	30090.80
524.31	30357.04
524.51	30058.04
524.71	30606.89
524.92	30570.03
525.12	30432.82
525.33	30701.10
525.53	30971.43
525.73	30989.86
525.94	30588.46
526.14	31047.21
526.34	30942.76
526.55	31364.64
526.75	31086.12
526.95	31387.17
527.16	31254.05
527.36	31245.86
527.56	31579.68
527.77	31921.69
527.97	31829.53
528.17	31942.17
528.38	31802.91
528.58	31778.33
528.78	32445.97
528.99	31809.05
529.19	32318.99
529.39	32151.06
529.60	32648.72
529.80	32679.44
530.00	32448.02
530.21	32984.58
530.41	32943.63
530.61	32857.61
530.82	33125.89
531.02	33193.48
531.22	32998.92
531.43	32859.66
531.63	33201.67
531.83	33678.85
532.04	33560.06
532.24	33254.92
532.44	33742.33
532.64	33854.97
532.85	33859.07
533.05	33963.51
533.25	34455.03
533.46	33994.23
533.66	34596.34
533.86	34215.41
534.07	34614.77
534.27	34321.91
534.47	34881.00
534.67	34909.68
534.88	34852.33
535.08	34856.43
535.28	35053.03
535.49	35018.22
535.69	35374.56
535.89	35581.41
536.09	35534.31
536.30	35759.58
536.50	35270.12
536.70	35622.37
536.91	35605.98
537.11	35861.98
537.31	35974.62
537.51	35845.60
537.72	36503.00
537.92	36279.77
538.12	36441.56
538.32	36525.52
538.53	36488.66
538.73	36255.19
538.93	36931.02
539.13	36185.56
539.34	36869.58
539.54	36640.21
539.74	36906.44
539.94	37129.67
540.15	36967.88
540.35	37367.24
540.55	36857.29
540.75	37205.45
540.96	37807.55
541.16	37445.06
541.36	37522.88
541.56	37569.99
541.77	38297.02
541.97	37539.27
542.17	38118.84
542.37	37717.44
542.58	37983.68
542.78	38002.11
542.98	38041.02
543.18	38219.19
543.38	38577.59
543.59	38401.46
543.79	38335.93
543.99	38333.88
544.19	38608.31
544.40	38444.47
544.60	38809.01
544.80	38686.13
545.00	38899.12
545.20	39159.21
545.41	38911.41
545.61	39087.53
545.81	39001.52
546.01	39218.60
546.21	39036.33
546.42	38958.51
546.62	39507.37
546.82	39435.69
547.02	39136.68
547.22	39331.24
547.43	39091.63
547.63	39523.75
547.83	39832.99
548.03	39923.10
548.23	39697.83
548.44	39890.34
548.64	39566.76
548.84	39579.04
549.04	40154.52
549.24	40011.17
549.45	40476.05
549.65	40234.39
549.85	40445.33
550.05	40316.31
550.25	40549.78
550.45	40703.38
550.66	40287.64
550.86	40293.79
551.06	40940.94
551.26	40580.50
551.46	40646.04
551.66	40535.45
551.87	40891.79
552.07	40736.15
552.27	41053.58
552.47	41264.52
552.67	40830.35
552.87	40871.31
553.07	41082.25
553.28	40942.99
553.48	41373.06
553.68	40994.19
553.88	41287.05
554.08	41397.64
554.28	40983.95
554.48	41506.18
554.69	41489.80
554.89	41375.11
555.09	41616.77
555.29	41473.42
555.49	41737.60
555.69	41354.63
555.89	41530.76
556.10	41880.96
556.30	41022.86
556.50	41864.58
556.70	41647.49
556.90	41923.97
557.10	42329.47
557.30	41694.60
557.50	41819.52
557.70	42052.99
557.91	42311.03
558.11	42253.69
558.31	42366.33
558.51	42448.25
558.71	42179.96
558.91	42448.25
559.11	42116.48
559.31	42571.13
559.51	41934.21
559.72	42370.43
559.92	42472.82
560.12	42259.84
560.32	42743.16
560.52	42382.71
560.72	42526.07
560.92	42722.68
561.12	42573.17
561.32	42954.10
561.52	42816.88
561.72	43535.72
561.93	42999.15
562.13	42767.73
562.33	42794.36
562.53	43244.91
562.73	42761.59
562.93	42753.40
563.13	43414.89
563.33	43185.52
563.53	42980.72
563.73	43158.89
563.93	43447.66
564.13	43736.42
564.33	43472.23
564.53	43365.74
564.74	43562.34
564.94	43519.34
565.14	43490.66
565.34	42784.12
565.54	43119.98
565.74	43734.37
565.94	43701.61
566.14	43406.70
566.34	43482.47
566.54	44184.93
566.74	43230.57
566.94	43472.23
567.14	43732.32
567.34	44037.47
567.54	43537.77
567.74	43603.30
567.94	43605.35
568.14	44471.64
568.34	43969.89
568.54	44272.99
568.74	44356.96
568.94	43783.52
569.14	44406.11
569.34	44379.48
569.54	44088.67
569.75	44039.52
569.95	44084.58
570.15	44500.31
570.35	44252.51
570.55	44082.53
570.75	44408.15
570.95	44520.79
571.15	44553.56
571.35	44297.56
571.55	44914.00
571.75	44506.46
571.95	44787.03
572.15	44172.64
572.35	44889.43
572.55	44522.84
572.75	44559.70
572.95	44741.97
573.15	44606.81
573.35	44823.89
573.55	44983.63
573.75	44690.77
573.95	45004.11
574.15	45073.74
574.35	44735.83
574.55	45122.90
574.75	45100.37
574.95	45149.52
575.15	45063.50
575.34	44952.91
575.54	45151.57
575.74	45583.69
575.94	45360.46
576.14	45356.36
576.34	45856.07
576.54	45331.79
576.74	45489.48
576.94	45444.43
577.14	45477.19
577.34	45813.06
577.54	45561.16
577.74	46114.11
577.94	46116.16
578.14	45940.04
578.34	45831.49
578.54	45864.26
578.74	45817.16
578.94	46181.70
579.14	45653.32
579.34	46335.29
579.54	46456.12
579.74	46441.79
579.94	46249.28
580.13	46644.54
580.33	46103.87
580.53	46460.22
580.73	46329.15
580.93	46427.45
581.13	46464.32
581.33	46779.70
581.53	46572.86
581.73	46529.85
581.93	46482.75
582.13	47076.66
582.33	46761.27
582.53	46597.43
582.73	47285.55
582.92	47197.49
583.12	47250.74
583.32	47107.38
583.52	46955.83
583.72	47076.66
583.92	47011.12
584.12	47557.93
584.32	48145.70
584.52	47357.23
584.72	47355.18
584.92	47449.39
585.11	47449.39
585.31	47844.65
585.51	47463.72
585.71	47600.94
585.91	47766.82
586.11	47621.42
586.31	47764.78
586.51	47521.07
586.71	47762.73
586.91	48170.27
587.10	48442.65
587.30	48016.68
587.50	48246.05
587.70	48260.38
587.90	48248.10
588.10	48563.48
588.30	48203.04
588.50	48325.92
