SpectraSuite Data File
++++++++++++++++++++++++++++++++++++
Date: Fri Jun 02 14:57:19 CEST 2017
User: INFO_000
Dark Spectrum Present: No
Reference Spectrum Present: No
Number of Sampled Component Spectra: 1
Spectrometers: USB4H00879
Integration Time (usec): 80000 (USB4H00879)
Spectra Averaged: 1 (USB4H00879)
Boxcar Smoothing: 0 (USB4H00879)
Correct for Electrical Dark: No (USB4H00879)
Strobe/Lamp Enabled: No (USB4H00879)
Correct for Detector Non-linearity: No (USB4H00879)
Correct for Stray Light: No (USB4H00879)
Number of Pixels in Processed Spectrum: 3648
>>>>>Begin Processed Spectral Data<<<<<
345.13	1296.36
345.34	1296.36
345.56	1296.36
345.78	1296.36
345.99	1253.36
346.21	1699.81
346.42	1726.44
346.64	1671.14
346.86	1828.84
347.07	1642.47
347.29	1785.83
347.50	1607.66
347.72	1671.14
347.94	1642.47
348.15	1597.42
348.37	1621.99
348.59	1626.09
348.80	1658.85
349.02	1757.16
349.23	1849.32
349.45	1818.60
349.67	1892.32
349.88	1851.36
350.10	1939.43
350.31	1816.55
350.53	1845.22
350.75	1994.72
350.96	1730.53
351.18	1798.12
351.39	1863.65
351.61	1834.98
351.82	1875.94
352.04	1822.69
352.26	1812.45
352.47	1966.05
352.69	1929.19
352.90	1691.62
353.12	1888.23
353.34	1865.70
353.55	1912.80
353.77	1869.80
353.98	1875.94
354.20	1849.32
354.41	1867.75
354.63	1920.99
354.85	2099.17
355.06	1886.18
355.28	1767.40
355.49	1910.75
355.71	1875.94
355.92	1888.23
356.14	1984.48
356.35	1816.55
356.57	1748.97
356.79	1961.95
357.00	1873.89
357.22	1933.28
357.43	1902.56
357.65	1920.99
357.86	1765.35
358.08	1908.71
358.29	1986.53
358.51	2025.44
358.72	2009.06
358.94	1937.38
359.16	1959.91
359.37	1880.04
359.59	1957.86
359.80	2047.97
360.02	1970.15
360.23	2035.68
360.45	1931.23
360.66	1968.10
360.88	1886.18
361.09	1925.09
361.31	1978.34
361.52	1976.29
361.74	2064.35
361.95	2082.78
362.17	1861.60
362.38	2004.96
362.60	1994.72
362.81	2002.91
363.03	1914.85
363.24	1955.81
363.46	2107.36
363.67	1994.72
363.89	1996.77
364.10	1980.39
364.32	1912.80
364.53	2054.11
364.75	1886.18
364.96	1996.77
365.18	2052.06
365.39	1939.43
365.61	1980.39
365.82	2109.41
366.04	2009.06
366.25	1945.57
366.47	2000.87
366.68	2074.59
366.90	1974.24
367.11	2052.06
367.33	2037.73
367.54	2097.12
367.76	2041.82
367.97	2070.50
368.19	1988.58
368.40	2111.46
368.62	2050.02
368.83	1951.71
369.05	2103.26
369.26	1972.19
369.48	1988.58
369.69	1996.77
369.91	2101.22
370.12	1976.29
370.33	2150.37
370.55	1964.00
370.76	2088.93
370.98	2121.70
371.19	2066.40
371.41	2052.06
371.62	2074.59
371.84	2035.68
372.05	2183.13
372.27	2109.41
372.48	2127.84
372.69	2054.11
372.91	2166.75
373.12	2133.98
373.34	2174.94
373.55	2197.47
373.77	2217.95
373.98	2097.12
374.20	2199.52
374.41	2269.15
374.62	2136.03
374.84	2224.09
375.05	2154.46
375.27	2103.26
375.48	2209.76
375.70	2213.85
375.91	2148.32
376.12	2240.48
376.34	2103.26
376.55	2168.80
376.77	2263.01
376.98	2119.65
377.19	2176.99
377.41	2162.66
377.62	2199.52
377.84	2289.63
378.05	2428.89
378.27	2220.00
378.48	2326.49
378.69	2377.69
378.91	2330.59
379.12	2203.61
379.34	2234.33
379.55	2371.55
379.76	2213.85
379.98	2240.48
380.19	2269.15
380.41	2185.18
380.62	2279.39
380.83	2318.30
381.05	2213.85
381.26	2340.83
381.47	2207.71
381.69	2285.53
381.90	2432.99
382.12	2312.16
382.33	2336.73
382.54	2295.77
382.76	2379.74
382.97	2297.82
383.19	2281.44
383.40	2353.12
383.61	2269.15
383.83	2215.90
384.04	2334.68
384.25	2353.12
384.47	2414.56
384.68	2400.22
384.89	2301.92
385.11	2353.12
385.32	2340.83
385.54	2248.67
385.75	2324.44
385.96	2471.90
386.18	2484.19
386.39	2377.69
386.60	2285.53
386.82	2400.22
387.03	2437.08
387.24	2500.57
387.46	2490.33
387.67	2553.82
387.88	2525.15
388.10	2469.85
388.31	2443.23
388.52	2598.87
388.74	2465.75
388.95	2562.01
389.16	2533.34
389.38	2459.61
389.59	2588.63
389.80	2600.92
390.02	2500.57
390.23	2676.70
390.44	2566.10
390.66	2580.44
390.87	2574.30
391.08	2607.06
391.30	2727.89
391.51	2701.27
391.72	2613.21
391.94	2637.78
392.15	2639.83
392.36	2545.63
392.58	2615.26
392.79	2652.12
393.00	2734.04
393.22	2748.37
393.43	2682.84
393.64	2799.57
393.85	2781.14
394.07	2639.83
394.28	2805.72
394.49	2756.57
394.71	2756.57
394.92	2820.05
395.13	2705.37
395.35	2779.09
395.56	2787.29
395.77	2779.09
395.98	2867.16
396.20	2830.29
396.41	2793.43
396.62	2932.69
396.84	2895.83
397.05	2871.25
397.26	2912.21
397.47	3090.38
397.69	2838.48
397.90	3012.56
398.11	2959.31
398.32	2850.77
398.54	2928.60
398.75	2920.40
398.96	2893.78
399.18	3137.49
399.39	2973.65
399.60	2998.23
399.81	2895.83
400.03	2981.84
400.24	3254.22
400.45	3020.75
400.66	3041.23
400.88	2992.08
401.09	3205.07
401.30	3065.81
401.51	3235.79
401.73	3157.97
401.94	3190.74
402.15	3010.51
402.36	3035.09
402.58	3162.06
402.79	3190.74
403.00	3229.65
403.21	3098.58
403.43	3213.26
403.64	3221.45
403.85	3110.86
404.06	3323.85
404.27	3133.39
404.49	3137.49
404.70	3176.40
404.91	3315.66
405.12	3297.23
405.34	3278.80
405.55	3483.59
405.76	3184.59
405.97	3266.51
406.19	3454.92
406.40	3233.74
406.61	3266.51
406.82	3286.99
407.03	3325.90
407.25	3323.85
407.46	3454.92
407.67	3465.16
407.88	3483.59
408.09	3317.71
408.31	3413.96
408.52	3469.26
408.73	3364.81
408.94	3229.65
409.15	3422.16
409.37	3499.98
409.58	3561.42
409.79	3489.74
410.00	3549.13
410.21	3518.41
410.43	3442.64
410.64	3436.49
410.85	3479.50
411.06	3487.69
411.27	3594.19
411.48	3563.47
411.70	3551.18
411.91	3600.33
412.12	3698.63
412.33	3690.44
412.54	3618.76
412.76	3696.58
412.97	3551.18
413.18	3497.93
413.39	3567.56
413.60	3579.85
413.81	3702.73
414.03	3739.59
414.24	3594.19
414.45	3766.21
414.66	3463.12
414.87	3649.48
415.08	3721.16
415.30	3739.59
415.51	3790.79
415.72	3733.45
415.93	3596.23
416.14	3844.04
416.35	3641.29
416.56	3772.36
416.78	3727.30
416.99	3819.46
417.20	3870.66
417.41	3960.77
417.62	3917.76
417.83	3921.86
418.04	3878.85
418.26	3899.33
418.47	3786.69
418.68	3954.63
418.89	3942.34
419.10	4075.46
419.31	4016.07
419.52	3940.29
419.73	4034.50
419.95	4108.23
420.16	3977.16
420.37	4028.35
420.58	4038.59
420.79	3858.37
421.00	4118.47
421.21	4163.52
421.42	3977.16
421.63	3966.92
421.85	4097.99
422.06	4126.66
422.27	4091.84
422.48	4270.01
422.69	4208.58
422.90	4192.19
423.11	4233.15
423.32	4194.24
423.53	4304.83
423.75	4190.14
423.96	4427.71
424.17	4382.65
424.38	4548.54
424.59	4401.08
424.80	4591.55
425.01	4280.25
425.22	4507.58
425.43	4390.84
425.64	4640.70
425.85	4571.07
426.06	4648.89
426.28	4626.36
426.49	4433.85
426.70	4380.61
426.91	4528.06
427.12	4607.93
427.33	4591.55
427.54	4499.39
427.75	4601.79
427.96	4786.10
428.17	4677.56
428.38	4763.58
428.59	4884.41
428.80	4863.93
429.01	4659.13
429.23	4747.19
429.44	5031.86
429.65	4974.52
429.86	4954.04
430.07	4734.90
430.28	4810.68
430.49	4997.04
430.70	5064.63
430.91	5099.44
431.12	5025.72
431.33	5158.83
431.54	5160.88
431.75	5040.05
431.96	5056.43
432.17	5042.10
432.38	5003.19
432.59	5365.68
432.80	5269.42
433.01	5250.99
433.22	5253.04
433.43	5298.10
433.64	5185.46
433.85	5164.98
434.06	5369.77
434.27	5199.79
434.49	5197.74
434.70	5373.87
434.91	5398.45
435.12	5478.32
435.33	5470.12
435.54	5463.98
435.75	5394.35
435.96	5513.13
436.17	5324.72
436.38	5658.54
436.59	5644.20
436.80	5515.18
437.01	5709.74
437.22	5683.11
437.43	5601.19
437.64	5318.57
437.85	5752.74
438.06	5742.50
438.27	5627.82
438.48	5672.87
438.69	5816.23
438.90	5666.73
439.11	5740.46
439.32	5828.52
439.53	5701.54
439.74	5826.47
439.95	5875.62
440.16	5732.26
440.37	5941.16
440.57	5828.52
440.78	5945.25
440.99	6057.89
441.20	6043.56
441.41	5871.53
441.62	6166.43
441.83	5881.77
442.04	5812.14
442.25	6162.34
442.46	6004.64
442.67	6199.20
442.88	6438.81
443.09	6049.70
443.30	6051.75
443.51	6102.95
443.72	6434.72
443.93	6166.43
444.14	6324.13
444.35	6023.08
444.56	6266.78
444.77	6424.48
444.98	6367.13
445.19	6438.81
445.40	6365.09
445.61	6444.96
445.81	6551.45
446.02	6512.54
446.23	6528.92
446.44	6516.64
446.65	6590.36
446.86	6692.76
447.07	6487.96
447.28	6684.57
447.49	6623.13
447.70	6543.26
447.91	6561.69
448.12	6522.78
448.33	6723.48
448.54	6950.81
448.74	6696.86
448.95	6782.87
449.16	6733.72
449.37	7081.88
449.58	6829.98
449.79	7092.12
450.00	6770.58
450.21	6760.34
450.42	6959.00
450.63	7004.05
450.84	6932.37
451.05	7069.59
451.25	6920.09
451.46	6860.70
451.67	7169.94
451.88	7268.24
452.09	7184.27
452.30	7182.23
452.51	7198.61
452.72	7450.51
452.93	7563.15
453.13	7116.69
453.34	7221.14
453.55	7278.48
453.76	7327.63
453.97	7536.52
454.18	7438.22
454.39	7569.29
454.60	7432.08
454.81	7491.47
455.01	7731.08
455.22	7358.35
455.43	7655.31
455.64	7872.39
455.85	7987.08
456.06	7915.40
456.27	7847.82
456.48	7731.08
456.68	7800.71
456.89	7917.45
457.10	8097.67
457.31	8021.89
457.52	7911.30
457.73	8185.73
457.94	8277.89
458.14	7843.72
458.35	8370.05
458.56	8386.43
458.77	8161.16
458.98	8343.42
459.19	8318.85
459.39	8327.04
459.60	8619.90
459.81	8320.90
460.02	8501.12
460.23	8456.06
460.44	8798.07
460.65	8865.66
460.85	8755.07
461.06	8828.79
461.27	8523.65
461.48	8959.86
461.69	8916.86
461.89	8710.01
462.10	8968.06
462.31	8718.20
462.52	8916.86
462.73	8890.23
462.94	9258.87
463.14	9164.66
463.35	9090.93
463.56	9412.46
463.77	9578.35
463.98	9209.72
464.18	9330.55
464.39	9410.42
464.60	9645.93
464.81	9539.44
465.02	9539.44
465.23	9824.11
465.43	9797.48
465.64	9756.52
465.85	9875.31
466.06	9611.12
466.27	9979.75
466.47	9844.59
466.68	10065.77
466.89	9979.75
467.10	10151.78
467.30	9924.46
467.51	10317.67
467.72	10438.50
467.93	10176.36
468.14	10352.48
468.34	10704.73
468.55	10565.47
468.76	10663.77
468.97	10272.61
469.17	10569.57
469.38	10792.80
469.59	10784.60
469.80	10911.58
470.01	10782.56
470.21	10970.97
470.42	11200.34
470.63	11237.20
470.84	10960.73
471.04	11253.59
471.25	11218.77
471.46	11231.06
471.67	11525.97
471.87	11122.52
472.08	11509.58
472.29	11802.44
472.50	11337.56
472.70	11411.28
472.91	11884.36
473.12	12044.10
473.33	12037.96
473.53	12150.60
473.74	12074.82
473.95	12011.34
474.16	12447.55
474.36	12324.68
474.57	12361.54
474.78	12560.19
474.99	12611.39
475.19	12613.44
475.40	12812.09
475.61	12832.57
475.81	13043.51
476.02	13188.92
476.23	12961.59
476.44	13272.89
476.64	13338.42
476.85	13365.04
477.06	13549.36
477.27	13612.85
477.47	13887.28
477.68	13727.53
477.89	13897.52
478.09	13920.04
478.30	13989.67
478.51	13805.36
478.71	13952.81
478.92	14311.21
479.13	14597.92
479.34	14352.16
479.54	14499.62
479.75	14577.44
479.96	14552.87
480.16	14995.23
480.37	14569.25
480.58	14878.49
480.78	14987.04
480.99	15120.15
481.20	15312.66
481.41	15236.89
481.61	15515.41
481.82	15460.12
482.03	15589.14
482.23	15562.51
482.44	15714.06
482.65	15865.61
482.85	16248.58
483.06	15834.89
483.27	15980.30
483.47	15984.40
483.68	16197.38
483.89	16531.20
484.09	16326.41
484.30	16414.47
484.51	16551.68
484.71	16979.71
484.92	16770.82
485.13	17065.72
485.33	17061.63
485.54	16987.90
485.75	17391.35
485.95	17499.89
486.16	17348.34
486.37	17747.70
486.57	17483.51
486.78	17585.91
486.98	17473.27
487.19	17874.67
487.40	17901.29
487.60	17827.57
487.81	18124.52
488.02	17848.05
488.22	18075.37
488.43	18431.72
488.64	18239.21
488.84	18538.21
489.05	18892.51
489.25	18380.52
489.46	18939.62
489.67	18700.00
489.87	18964.19
490.08	19042.01
490.29	19072.73
490.49	19455.70
490.70	19449.56
490.90	19533.53
491.11	19279.58
491.32	19664.60
491.52	19564.25
491.73	19846.87
491.94	19715.80
492.14	19793.62
492.35	19963.60
492.55	20152.01
492.76	20164.30
492.97	20289.23
493.17	20457.16
493.38	20600.52
493.58	20606.66
493.79	20481.74
494.00	20408.01
494.20	20539.08
494.41	20917.95
494.61	20854.47
494.82	20768.45
495.02	21327.55
495.23	21270.20
495.44	21167.80
495.64	21376.70
495.85	21288.64
496.05	21444.28
496.26	21524.15
496.47	21692.08
496.67	21673.65
496.88	22265.52
497.08	21583.54
497.29	21954.22
497.49	21876.40
497.70	22173.36
497.91	22138.54
498.11	22204.08
498.32	22716.07
498.52	22333.10
498.73	22384.30
498.93	22335.15
499.14	22498.98
499.34	22746.79
499.55	23189.15
499.76	22525.61
499.96	22890.15
500.17	23062.18
500.37	22994.59
500.58	23058.08
500.78	23178.91
500.99	23451.29
501.19	23522.97
501.40	23457.43
501.60	23172.77
501.81	23588.50
502.02	23615.13
502.22	23459.48
502.43	23590.55
502.63	23907.99
502.84	23545.50
503.04	24002.19
503.25	23746.20
503.45	23889.56
503.66	24116.88
503.86	24061.58
504.07	24299.15
504.27	24215.18
504.48	24891.01
504.68	24479.37
504.89	24661.64
505.09	24426.12
505.30	25026.18
505.50	24766.09
505.71	25063.04
505.91	25099.90
506.12	25187.97
506.32	24802.95
506.53	24944.26
506.73	25017.99
506.94	25362.04
507.14	25290.37
507.35	25171.58
507.55	25316.99
507.76	25200.26
507.96	25411.20
508.17	25405.05
508.37	25798.26
508.58	25546.36
508.78	25642.62
508.99	26062.45
509.19	25826.93
509.40	25927.28
509.60	25802.36
509.81	25935.48
510.01	25906.80
510.22	25783.93
510.42	26013.30
510.63	26359.41
510.83	26375.79
511.04	26156.66
511.24	26379.89
511.44	26498.67
511.65	26306.16
511.85	26308.21
512.06	26510.96
512.26	26852.97
512.47	27088.48
512.67	26908.26
512.88	26910.31
513.08	26439.28
513.29	27221.60
513.49	26977.89
513.69	26834.53
513.90	27014.76
514.10	27336.29
514.31	27330.14
514.51	27274.85
514.72	27416.16
514.92	27055.72
515.13	27346.53
515.33	27485.79
515.53	27131.49
515.74	27420.25
515.94	27633.24
516.15	27792.98
516.35	27737.69
516.56	27706.97
516.76	27670.11
516.96	27594.33
517.17	27960.92
517.37	28046.93
517.58	28141.14
517.78	28251.73
517.99	28071.51
518.19	28618.32
518.39	28091.99
518.60	28481.10
518.80	28585.55
519.01	28438.09
519.21	28585.55
519.41	28464.72
519.62	28384.85
519.82	28692.04
520.03	28755.53
520.23	28784.20
520.43	28941.89
520.64	29261.38
520.84	29625.92
521.05	29167.17
521.25	29335.10
521.45	29455.93
521.66	29769.27
521.86	29486.65
522.07	29486.65
522.27	29427.26
522.47	29496.89
522.68	30084.66
522.88	29793.85
523.08	29980.21
523.29	30158.39
523.49	30074.42
523.70	30064.18
523.90	30320.18
524.10	30344.75
524.31	30453.30
524.51	29967.93
524.71	30613.04
524.92	30133.81
525.12	30703.15
525.33	30783.02
525.53	31106.60
525.73	31014.44
525.94	31063.59
526.14	30805.55
526.34	31002.15
526.55	31186.47
526.75	31110.69
526.95	32093.72
527.16	31555.10
527.36	31376.93
527.56	32050.71
527.77	31991.32
527.97	31774.24
528.17	31739.42
528.38	32388.63
528.58	32099.86
528.78	31813.15
528.99	32267.80
529.19	32540.18
529.39	32314.90
529.60	32882.19
529.80	32263.70
530.00	32581.13
530.21	33054.22
530.41	32841.23
530.61	32667.15
530.82	32992.78
531.02	33418.75
531.22	33109.51
531.43	33164.81
531.63	33621.50
531.83	33756.67
532.04	33977.85
532.24	33566.21
532.44	33867.26
532.64	33826.30
532.85	34067.96
533.05	34162.17
533.25	34383.35
533.46	33867.26
533.66	34393.59
533.86	34217.46
534.07	34739.69
534.27	34477.55
534.47	34899.44
534.67	34602.48
534.88	34860.52
535.08	34889.20
535.28	35274.21
535.49	35159.53
535.69	34958.83
535.89	34915.82
536.09	35343.84
536.30	35706.34
536.50	35462.63
536.70	35749.34
536.91	35780.06
537.11	35728.86
537.31	36324.82
537.51	35997.15
537.72	36285.91
537.92	36533.71
538.12	36496.85
538.32	36175.32
538.53	36564.43
538.73	36392.40
538.93	36642.26
539.13	36732.37
539.34	36650.45
539.54	36994.51
539.74	37189.06
539.94	37053.90
540.15	37232.07
540.35	37227.98
540.55	37664.19
540.75	37070.28
540.96	37420.48
541.16	37574.08
541.36	37811.65
541.56	37346.76
541.77	38200.76
541.97	37957.05
542.17	37866.94
542.37	37881.28
542.58	38077.88
542.78	37995.96
542.98	38022.59
543.18	38225.34
543.38	38581.68
543.59	38567.35
543.79	38337.98
543.99	38260.15
544.19	38903.21
544.40	38292.92
544.60	38694.32
544.80	38856.11
545.00	38847.92
545.20	38938.03
545.41	39015.85
545.61	39118.25
545.81	39216.55
546.01	39136.68
546.21	38909.36
546.42	39065.00
546.62	39558.56
546.82	39560.61
547.02	39738.79
547.22	39413.16
547.43	39288.23
547.63	39716.26
547.83	39929.25
548.03	39665.06
548.23	39884.19
548.44	39929.25
548.64	39951.77
548.84	39953.82
549.04	39896.48
549.24	40471.96
549.45	40666.52
549.65	39867.81
549.85	40111.52
550.05	40390.04
550.25	40033.69
550.45	40885.65
550.66	40539.54
550.86	40467.86
551.06	40924.56
551.26	40986.00
551.46	40848.78
551.66	40869.26
551.87	40758.67
552.07	40940.94
552.27	41137.55
552.47	40932.75
552.67	41313.67
552.87	41330.06
553.07	41391.50
553.28	41106.83
553.48	41592.20
553.68	41434.50
553.88	41596.29
554.08	41432.46
554.28	41842.05
554.48	41395.59
554.69	41620.87
554.89	41577.86
555.09	41692.55
555.29	41584.01
555.49	41946.50
555.69	41817.47
555.89	42196.35
556.10	41913.73
556.30	41985.41
556.50	41930.11
556.70	42247.55
556.90	42589.56
557.10	42440.06
557.30	42370.43
557.50	42425.72
557.70	42538.36
557.91	42632.57
558.11	42474.87
558.31	43013.49
558.51	42505.59
558.71	42636.66
558.91	42665.33
559.11	42399.10
559.31	42694.00
559.51	42499.45
559.72	42829.17
559.92	42671.48
560.12	42724.72
560.32	43414.89
560.52	42743.16
560.72	43105.65
560.92	42749.30
561.12	43298.16
561.32	43396.46
561.52	42861.94
561.72	43269.48
561.93	42913.14
562.13	43314.54
562.33	43308.40
562.53	43761.00
562.73	42810.74
562.93	43451.75
563.13	43695.46
563.33	43439.47
563.53	43812.20
563.73	43203.95
563.93	43316.59
564.13	43951.46
564.33	43361.64
564.53	43543.91
564.74	44193.12
564.94	43453.80
565.14	44004.70
565.34	43369.83
565.54	43877.73
565.74	43844.96
565.94	44387.67
566.14	43857.25
566.34	43609.45
566.54	44463.45
566.74	43529.58
566.94	44070.24
567.14	44563.80
567.34	44162.40
567.54	44107.10
567.74	44195.17
567.94	44127.58
568.14	44649.81
568.34	44586.33
568.54	44170.59
568.74	44311.90
568.94	44311.90
569.14	44696.92
569.34	45022.54
569.54	45020.50
569.75	44426.59
569.95	44739.93
570.15	45004.11
570.35	44995.92
570.55	44643.67
570.75	44719.45
570.95	44877.14
571.15	45247.82
571.35	44848.47
571.55	45292.88
571.75	44739.93
571.95	45120.85
572.15	45098.32
572.35	45423.95
572.55	45045.07
572.75	45167.95
572.95	45350.22
573.15	45479.24
573.35	45178.19
573.55	45096.27
573.75	45358.41
573.95	45788.49
574.15	45231.44
574.35	45835.59
574.55	45608.26
574.75	45331.79
574.95	45894.98
575.15	45661.51
575.34	45747.53
575.54	45786.44
575.74	45780.29
575.94	46185.79
576.14	45983.04
576.34	46296.38
576.54	46562.62
576.74	45919.56
576.94	46216.51
577.14	46132.54
577.34	46767.41
577.54	46316.86
577.74	46314.81
577.94	46124.35
578.14	46945.59
578.34	47027.51
578.54	46343.48
578.74	46445.88
578.94	47119.66
579.14	46808.37
579.34	46409.02
579.54	46492.99
579.74	46822.71
579.94	46933.30
580.13	47158.58
580.33	46875.96
580.53	47152.43
580.73	47154.48
580.93	47045.94
581.13	46794.04
581.33	47525.16
581.53	47486.25
581.73	47367.47
581.93	47619.37
582.13	47465.77
582.33	47572.27
582.53	47510.83
582.73	47594.79
582.92	47566.12
583.12	48078.11
583.32	47371.57
583.52	47609.13
583.72	48160.03
583.92	47678.76
584.12	47924.52
584.32	48063.78
584.52	47775.02
584.72	48309.53
584.92	48151.84
585.11	48891.16
585.31	48248.10
585.51	48608.54
585.71	48170.27
585.91	48755.99
586.11	48213.28
586.31	48252.19
586.51	48284.96
586.71	48649.50
586.91	48569.63
587.10	48704.79
587.30	48567.58
587.50	48792.86
587.70	48805.14
587.90	49198.35
588.10	49124.63
588.30	49151.25
588.50	49147.15
