SpectraSuite Data File
++++++++++++++++++++++++++++++++++++
Date: Fri Jun 02 14:47:56 CEST 2017
User: INFO_000
Dark Spectrum Present: No
Reference Spectrum Present: No
Number of Sampled Component Spectra: 1
Spectrometers: USB4H00879
Integration Time (usec): 80000 (USB4H00879)
Spectra Averaged: 1 (USB4H00879)
Boxcar Smoothing: 0 (USB4H00879)
Correct for Electrical Dark: No (USB4H00879)
Strobe/Lamp Enabled: No (USB4H00879)
Correct for Detector Non-linearity: No (USB4H00879)
Correct for Stray Light: No (USB4H00879)
Number of Pixels in Processed Spectrum: 3648
>>>>>Begin Processed Spectral Data<<<<<
345.13	1337.32
345.34	1337.32
345.56	1337.32
345.78	1314.80
345.99	1298.41
346.21	1712.10
346.42	1630.18
346.64	1683.43
346.86	1794.02
347.07	1638.38
347.29	1748.97
347.50	1644.52
347.72	1656.81
347.94	1703.91
348.15	1564.65
348.37	1626.09
348.59	1712.10
348.80	1646.57
349.02	1791.97
349.23	1785.83
349.45	1822.69
349.67	1890.28
349.88	1744.87
350.10	1970.15
350.31	1900.52
350.53	1834.98
350.75	2023.39
350.96	1843.17
351.18	1918.95
351.39	1910.75
351.61	1814.50
351.82	1865.70
352.04	1914.85
352.26	1796.07
352.47	1880.04
352.69	1933.28
352.90	1732.58
353.12	1787.88
353.34	1880.04
353.55	1918.95
353.77	1898.47
353.98	1939.43
354.20	1871.84
354.41	1923.04
354.63	1964.00
354.85	1918.95
355.06	1929.19
355.28	1771.49
355.49	1851.36
355.71	1849.32
355.92	1867.75
356.14	1861.60
356.35	1867.75
356.57	1847.27
356.79	1935.33
357.00	1945.57
357.22	1961.95
357.43	1882.08
357.65	1920.99
357.86	1861.60
358.08	1933.28
358.29	1918.95
358.51	1998.82
358.72	2019.30
358.94	1931.23
359.16	1910.75
359.37	1949.67
359.59	1875.94
359.80	2070.50
360.02	1964.00
360.23	1992.67
360.45	2045.92
360.66	1935.33
360.88	1884.13
361.09	1970.15
361.31	1959.91
361.52	1990.63
361.74	2068.45
361.95	2105.31
362.17	1910.75
362.38	2090.98
362.60	2050.02
362.81	1986.53
363.03	1982.43
363.24	2070.50
363.46	2068.45
363.67	2072.54
363.89	2025.44
364.10	2097.12
364.32	1986.53
364.53	2054.11
364.75	1875.94
364.96	2021.35
365.18	2052.06
365.39	1964.00
365.61	2052.06
365.82	2119.65
366.04	2002.91
366.25	1966.05
366.47	1976.29
366.68	2072.54
366.90	1943.52
367.11	2117.60
367.33	2033.63
367.54	2035.68
367.76	1982.43
367.97	2086.88
368.19	2035.68
368.40	2007.01
368.62	2011.11
368.83	1949.67
369.05	2105.31
369.26	1990.63
369.48	2035.68
369.69	1957.86
369.91	2109.41
370.12	2037.73
370.33	1947.62
370.55	1972.19
370.76	2043.87
370.98	2105.31
371.19	1996.77
371.41	2023.39
371.62	2052.06
371.84	1949.67
372.05	2191.33
372.27	1982.43
372.48	2107.36
372.69	2138.08
372.91	2211.81
373.12	2156.51
373.34	2056.16
373.55	2158.56
373.77	2101.22
373.98	2074.59
374.20	2111.46
374.41	2207.71
374.62	2150.37
374.84	2125.79
375.05	2222.05
375.27	2183.13
375.48	2203.61
375.70	2090.98
375.91	2166.75
376.12	2222.05
376.34	2107.36
376.55	2170.85
376.77	2203.61
376.98	2144.22
377.19	2084.83
377.41	2011.11
377.62	2220.00
377.84	2232.29
378.05	2351.07
378.27	2207.71
378.48	2201.57
378.69	2449.37
378.91	2318.30
379.12	2232.29
379.34	2228.19
379.55	2322.40
379.76	2334.68
379.98	2328.54
380.19	2252.77
380.41	2205.66
380.62	2293.72
380.83	2228.19
381.05	2285.53
381.26	2338.78
381.47	2174.94
381.69	2328.54
381.90	2346.97
382.12	2357.21
382.33	2226.14
382.54	2238.43
382.76	2379.74
382.97	2322.40
383.19	2248.67
383.40	2365.40
383.61	2269.15
383.83	2248.67
384.04	2324.44
384.25	2332.64
384.47	2426.84
384.68	2383.84
384.89	2306.01
385.11	2236.38
385.32	2306.01
385.54	2312.16
385.75	2312.16
385.96	2473.95
386.18	2473.95
386.39	2392.03
386.60	2418.65
386.82	2510.81
387.03	2404.32
387.24	2400.22
387.46	2453.47
387.67	2447.32
387.88	2453.47
388.10	2443.23
388.31	2496.47
388.52	2562.01
388.74	2488.28
388.95	2519.00
389.16	2465.75
389.38	2447.32
389.59	2582.49
389.80	2641.88
390.02	2574.30
390.23	2582.49
390.44	2572.25
390.66	2508.76
390.87	2539.48
391.08	2621.40
391.30	2613.21
391.51	2723.80
391.72	2699.22
391.94	2699.22
392.15	2615.26
392.36	2519.00
392.58	2537.43
392.79	2594.78
393.00	2654.17
393.22	2754.52
393.43	2793.43
393.64	2877.40
393.85	2674.65
394.07	2578.39
394.28	2668.50
394.49	2734.04
394.71	2719.70
394.92	2820.05
395.13	2785.24
395.35	2719.70
395.56	2695.13
395.77	2668.50
395.98	2813.91
396.20	2846.68
396.41	2760.66
396.62	2795.48
396.84	2856.92
397.05	2758.61
397.26	2856.92
397.47	2981.84
397.69	2789.33
397.90	2983.89
398.11	2807.77
398.32	2775.00
398.54	2785.24
398.75	2889.68
398.96	3006.42
399.18	3065.81
399.39	2885.59
399.60	2985.94
399.81	2899.92
400.03	2930.64
400.24	3246.03
400.45	2963.41
400.66	3045.33
400.88	2887.64
401.09	3215.31
401.30	2906.07
401.51	3110.86
401.73	3090.38
401.94	3018.71
402.15	3131.34
402.36	3053.52
402.58	3119.06
402.79	3227.60
403.00	3123.15
403.21	3190.74
403.43	3162.06
403.64	3280.85
403.85	3133.39
404.06	3188.69
404.27	3184.59
404.49	3098.58
404.70	3194.83
404.91	3305.42
405.12	3289.04
405.34	3313.61
405.55	3362.76
405.76	3166.16
405.97	3143.63
406.19	3327.95
406.40	3262.41
406.61	3264.46
406.82	3315.66
407.03	3340.24
407.25	3307.47
407.46	3362.76
407.67	3381.20
407.88	3540.94
408.09	3426.25
408.31	3375.05
408.52	3350.48
408.73	3370.96
408.94	3358.67
409.15	3377.10
409.37	3442.64
409.58	3538.89
409.79	3422.16
410.00	3516.36
410.21	3411.92
410.43	3444.68
410.64	3383.24
410.85	3461.07
411.06	3547.08
411.27	3530.70
411.48	3534.79
411.70	3493.83
411.91	3547.08
412.12	3645.38
412.33	3518.41
412.54	3549.13
412.76	3645.38
412.97	3575.75
413.18	3520.46
413.39	3657.67
413.60	3661.77
413.81	3614.66
414.03	3581.90
414.24	3583.95
414.45	3729.35
414.66	3592.14
414.87	3731.40
415.08	3649.48
415.30	3661.77
415.51	3739.59
415.72	3618.76
415.93	3811.27
416.14	3686.34
416.35	3733.45
416.56	3809.22
416.78	3811.27
416.99	3807.17
417.20	3837.89
417.41	3917.76
417.62	3870.66
417.83	3776.45
418.04	3878.85
418.26	3925.96
418.47	3815.37
418.68	4036.55
418.89	3977.16
419.10	4063.17
419.31	3968.96
419.52	4011.97
419.73	3989.44
419.95	4132.80
420.16	3952.58
420.37	4022.21
420.58	4069.31
420.79	3803.08
421.00	4073.41
421.21	4040.64
421.42	4032.45
421.63	4075.46
421.85	4130.75
422.06	4108.23
422.27	4175.81
422.48	4159.42
422.69	4210.62
422.90	4292.54
423.11	4220.86
423.32	4155.33
423.53	4409.28
423.75	4423.61
423.96	4411.32
424.17	4325.31
424.38	4421.56
424.59	4327.36
424.80	4579.26
425.01	4319.17
425.22	4425.66
425.43	4265.92
425.64	4597.69
425.85	4603.83
426.06	4597.69
426.28	4513.72
426.49	4466.62
426.70	4405.18
426.91	4575.16
427.12	4698.04
427.33	4638.65
427.54	4620.22
427.75	4646.84
427.96	4868.02
428.17	4683.70
428.38	4843.45
428.59	4779.96
428.80	4646.84
429.01	4863.93
429.23	4822.97
429.44	4882.36
429.65	5040.05
429.86	4837.30
430.07	4908.98
430.28	4845.49
430.49	4972.47
430.70	5091.25
430.91	5121.97
431.12	4966.32
431.33	5222.32
431.54	5119.92
431.75	5105.59
431.96	5083.06
432.17	5128.11
432.38	5148.59
432.59	5400.49
432.80	5195.70
433.01	5230.51
433.22	5162.93
433.43	5341.10
433.64	5187.50
433.85	5181.36
434.06	5461.93
434.27	5148.59
434.49	5373.87
434.70	5537.71
434.91	5406.64
435.12	5484.46
435.33	5445.55
435.54	5472.17
435.75	5345.20
435.96	5433.26
436.17	5304.24
436.38	5713.83
436.59	5631.91
436.80	5586.86
437.01	5660.59
437.22	5750.70
437.43	5754.79
437.64	5377.97
437.85	5799.85
438.06	5750.70
438.27	5736.36
438.48	5642.15
438.69	5855.14
438.90	5861.29
439.11	5738.41
439.32	5902.25
439.53	5916.58
439.74	5775.27
439.95	5824.42
440.16	5779.37
440.37	5920.68
440.57	5765.03
440.78	5973.92
440.99	5955.49
441.20	5939.11
441.41	5851.05
441.62	5949.35
441.83	6031.27
442.04	6125.47
442.25	6076.32
442.46	6123.43
442.67	6201.25
442.88	6461.34
443.09	5990.31
443.30	6133.67
443.51	6168.48
443.72	6455.20
443.93	6066.08
444.14	6549.40
444.35	6293.41
444.56	6209.44
444.77	6346.66
444.98	6371.23
445.19	6485.92
445.40	6442.91
445.61	6326.18
445.81	6473.63
446.02	6524.83
446.23	6430.62
446.44	6123.43
446.65	6610.84
446.86	6522.78
447.07	6553.50
447.28	6709.15
447.49	6680.47
447.70	6481.82
447.91	6719.39
448.12	6719.39
448.33	6635.42
448.54	6903.70
448.74	6608.80
448.95	6815.64
449.16	6631.32
449.37	6799.26
449.58	6631.32
449.79	6817.69
450.00	6703.00
450.21	6952.85
450.42	7053.20
450.63	7030.68
450.84	7014.29
451.05	7014.29
451.25	7016.34
451.46	6975.38
451.67	7223.19
451.88	7346.06
452.09	7045.01
452.30	7065.49
452.51	7063.44
452.72	7233.43
452.93	7479.18
453.13	7223.19
453.34	7196.56
453.55	7270.29
453.76	7163.79
453.97	7544.72
454.18	7421.84
454.39	7499.66
454.60	7620.49
454.81	7370.64
455.01	7700.36
455.22	7446.41
455.43	7440.27
455.64	7751.56
455.85	7726.99
456.06	8023.94
456.27	7597.96
456.48	7800.71
456.68	7792.52
456.89	7821.19
457.10	7763.85
457.31	7800.71
457.52	7925.64
457.73	7997.32
457.94	8206.21
458.14	7923.59
458.35	8363.90
458.56	8134.53
458.77	7944.07
458.98	8195.97
459.19	8230.79
459.39	8320.90
459.60	8423.30
459.81	8183.68
460.02	8382.34
460.23	8492.93
460.44	8611.71
460.65	8550.27
460.85	8652.67
461.06	8667.00
461.27	8484.73
461.48	8845.18
461.69	8998.77
461.89	8605.56
462.10	9060.21
462.31	8615.80
462.52	8728.44
462.73	8879.99
462.94	9168.76
463.14	9084.79
463.35	8963.96
463.56	9394.03
463.77	9457.52
463.98	9262.96
464.18	9396.08
464.39	9400.18
464.60	9658.22
464.81	9576.30
465.02	9539.44
465.23	9770.86
465.43	9471.86
465.64	9693.04
465.85	9707.37
466.06	9566.06
466.27	10067.81
466.47	9809.77
466.68	10082.15
466.89	10131.30
467.10	10147.69
467.30	9781.10
467.51	10219.36
467.72	10254.18
467.93	9969.51
468.14	10254.18
468.34	10483.55
468.55	10327.91
468.76	10446.69
468.97	10485.60
469.17	10434.40
469.38	10760.03
469.59	10784.60
469.80	10735.45
470.01	10768.22
470.21	10792.80
470.42	11210.58
470.63	11304.79
470.84	11102.04
471.04	11173.72
471.25	11218.77
471.46	11327.32
471.67	11470.67
471.87	11284.31
472.08	11560.78
472.29	11515.73
472.50	11466.58
472.70	11611.98
472.91	11579.22
473.12	11882.31
473.33	11999.05
473.53	12070.73
473.74	11929.42
473.95	12304.20
474.16	12353.35
474.36	12275.52
474.57	12400.45
474.78	12566.34
474.99	12484.42
475.19	12484.42
475.40	12838.72
475.61	12916.54
475.81	12867.39
476.02	13229.88
476.23	13057.85
476.44	13150.01
476.64	13205.30
476.85	13305.65
477.06	13434.68
477.27	13520.69
477.47	13735.73
477.68	13719.34
477.89	14098.22
478.09	13899.56
478.30	13948.72
478.51	14120.74
478.71	14325.54
478.92	14339.88
479.13	14554.91
479.34	14520.10
479.54	14401.32
479.75	14333.73
479.96	14610.21
480.16	15034.14
480.37	14966.56
480.58	14964.51
480.78	15275.80
480.99	15159.06
481.20	15343.38
481.41	15249.18
481.61	15566.61
481.82	15607.57
482.03	15568.66
482.23	15740.69
482.44	15830.80
482.65	15834.89
482.85	16176.91
483.06	15791.89
483.27	16056.08
483.47	16350.98
483.68	16160.52
483.89	16527.11
484.09	16578.31
484.30	16434.95
484.51	16826.11
484.71	16674.56
484.92	16576.26
485.13	16840.45
485.33	17094.40
485.54	17096.44
485.75	17520.37
485.95	17274.62
486.16	17366.78
486.37	17260.28
486.57	17616.63
486.78	17657.59
486.98	17551.09
487.19	17776.37
487.40	17952.49
487.60	17864.43
487.81	18259.69
488.02	17950.45
488.22	17962.73
488.43	18192.11
488.64	18415.34
488.84	18611.94
489.05	18349.80
489.25	18675.43
489.46	18786.02
489.67	18646.76
489.87	18912.99
490.08	18943.71
490.29	18956.00
490.49	19306.20
490.70	19371.74
490.90	19506.90
491.11	19402.46
491.32	19461.85
491.52	19312.35
491.73	19635.92
491.94	19609.30
492.14	19558.10
492.35	19963.60
492.55	20168.40
492.76	20047.57
492.97	20164.30
493.17	20008.65
493.38	20262.60
493.58	20672.20
493.79	20698.82
494.00	20584.13
494.20	20575.94
494.41	20623.05
494.61	20915.90
494.82	20741.83
495.02	20917.95
495.23	20897.47
495.44	21135.04
495.64	21315.26
495.85	21223.10
496.05	21388.99
496.26	21282.49
496.47	21720.76
496.67	21440.18
496.88	21878.45
497.08	21425.85
497.29	21753.52
497.49	21640.89
497.70	22062.77
497.91	22044.34
498.11	22132.40
498.32	22529.70
498.52	22263.47
498.73	22597.29
498.93	22673.06
499.14	22472.36
499.34	22705.83
499.55	22781.60
499.76	22437.55
499.96	22695.59
500.17	22689.45
500.37	22884.00
500.58	23060.13
500.78	22732.45
500.99	23027.36
501.19	23406.23
501.40	23355.04
501.60	23295.64
501.81	23426.71
502.02	23496.35
502.22	23176.86
502.43	23991.95
502.63	23803.54
502.84	24090.26
503.04	23910.04
503.25	23946.90
503.45	23828.12
503.66	24149.65
503.86	24016.53
504.07	24250.00
504.27	23936.66
504.48	24559.24
504.68	24665.74
504.89	24567.43
505.09	24735.37
505.30	24483.47
505.50	24761.99
505.71	25022.08
505.91	24938.12
506.12	25024.13
506.32	25249.41
506.53	25155.20
506.73	25028.23
506.94	25382.52
507.14	24981.12
507.35	25339.52
507.55	25032.32
507.76	25214.59
507.96	25353.85
508.17	25443.96
508.37	25599.61
508.58	25572.99
508.78	25435.77
508.99	26048.11
509.19	25755.26
509.40	26082.93
509.60	25917.04
509.81	26087.03
510.01	26099.31
510.22	26115.70
510.42	26125.94
510.63	26173.04
510.83	26115.70
511.04	26394.22
511.24	26383.98
511.44	26486.38
511.65	26338.93
511.85	26459.76
512.06	26627.69
512.26	26682.98
512.47	26758.76
512.67	26906.21
512.88	26775.14
513.08	26900.07
513.29	26523.24
513.49	27010.66
513.69	26992.23
513.90	26961.51
514.10	27297.38
514.31	27268.70
514.51	27305.57
514.72	27278.94
514.92	27307.62
515.13	27467.36
515.33	27487.84
515.53	27807.32
515.74	27686.49
515.94	27635.29
516.15	27909.72
516.35	27692.63
516.56	27919.96
516.76	27934.29
516.96	28169.81
517.17	28268.11
517.37	27854.42
517.58	28206.67
517.78	28223.06
517.99	28350.03
518.19	28370.51
518.39	28560.97
518.60	28743.24
518.80	28567.12
519.01	28388.94
519.21	28720.71
519.41	29070.92
519.62	28735.05
519.82	28841.54
520.03	28915.27
520.23	28976.71
520.43	28964.42
520.64	29363.78
520.84	29355.58
521.05	29431.36
521.25	29701.69
521.45	29503.04
521.66	29894.20
521.86	29558.33
522.07	29974.07
522.27	29687.36
522.47	30133.81
522.68	30000.69
522.88	30088.76
523.08	30203.44
523.29	30408.24
523.49	30225.97
523.70	30369.33
523.90	30670.38
524.10	30260.79
524.31	30793.26
524.51	30346.80
524.71	31049.25
524.92	30547.50
525.12	30873.13
525.33	30742.06
525.53	30662.19
525.73	31122.98
525.94	31266.34
526.14	31297.06
526.34	31282.72
526.55	31458.85
526.75	31618.59
526.95	31536.67
527.16	31784.48
527.36	31686.17
527.56	31956.50
527.77	32269.84
527.97	31890.97
528.17	32044.57
528.38	32472.59
528.58	32396.82
528.78	32482.83
528.99	32314.90
529.19	32935.43
529.39	32466.45
529.60	32947.72
529.80	32767.50
530.00	32638.48
530.21	32890.38
530.41	33168.90
530.61	32759.31
530.82	33068.55
531.02	33037.83
531.22	33029.64
531.43	33332.74
531.63	33547.78
531.83	33728.00
532.04	33945.08
532.24	33699.33
532.44	34229.75
532.64	34020.86
532.85	34022.90
533.05	33908.22
533.25	34211.32
533.46	34483.70
533.66	34629.10
533.86	34149.88
534.07	34735.60
534.27	34266.61
534.47	34807.28
534.67	34928.11
534.88	34483.70
535.08	34749.93
535.28	35263.97
535.49	35155.43
535.69	35022.31
535.89	35247.59
536.09	35139.05
536.30	35597.79
536.50	35495.39
536.70	35526.11
536.91	35485.15
537.11	35393.00
537.31	36507.09
537.51	35597.79
537.72	36240.86
537.92	36335.06
538.12	36330.97
538.32	35960.28
538.53	36353.49
538.73	36396.50
538.93	36582.87
539.13	36373.97
539.34	36357.59
539.54	36509.14
539.74	36965.84
539.94	36779.47
540.15	36771.28
540.35	36828.62
540.55	37049.80
540.75	37047.75
540.96	37184.97
541.16	37391.81
541.36	37500.36
541.56	37209.54
541.77	37416.39
541.97	37117.39
542.17	37533.12
542.37	37752.26
542.58	37397.96
542.78	37750.21
542.98	37799.36
543.18	37629.38
543.38	38256.06
543.59	38280.63
543.79	37551.56
543.99	38010.30
544.19	38344.12
544.40	37832.13
544.60	38624.69
544.80	38428.09
545.00	38503.86
545.20	38643.12
545.41	38442.42
545.61	38366.65
545.81	38514.10
546.01	38366.65
546.21	38763.95
546.42	38815.15
546.62	39191.98
546.82	38827.44
547.02	38806.96
547.22	38862.26
547.43	39544.23
547.63	39204.27
547.83	39499.17
548.03	38989.23
548.23	39355.82
548.44	39435.69
548.64	39636.39
548.84	39249.32
549.04	39304.62
549.24	39716.26
549.45	40002.97
549.65	39765.41
549.85	39468.45
550.05	39925.15
550.25	39490.98
550.45	40377.75
550.66	40068.51
550.86	39923.10
551.06	40400.28
551.26	40283.55
551.46	40240.54
551.66	40359.32
551.87	40625.56
552.07	40254.87
552.27	40285.59
552.47	40332.70
552.67	40752.53
552.87	40893.84
553.07	40910.22
553.28	40850.83
553.48	40666.52
553.68	40873.36
553.88	41006.48
554.08	40924.56
554.28	40701.33
554.48	41084.30
554.69	41141.64
554.89	41133.45
555.09	41481.61
555.29	40994.19
555.49	41508.23
555.69	41299.34
555.89	41317.77
556.10	41516.42
556.30	41403.78
556.50	41670.02
556.70	41420.17
556.90	41747.84
557.10	41700.74
557.30	41780.61
557.50	41655.68
557.70	42036.61
557.91	41907.58
558.11	41680.26
558.31	42284.41
558.51	41620.87
558.71	42020.22
558.91	41842.05
559.11	41883.01
559.31	41899.39
559.51	42003.84
559.72	42478.97
559.92	42505.59
560.12	42022.27
560.32	42511.74
560.52	42214.78
560.72	42653.05
560.92	42440.06
561.12	42749.30
561.32	43054.45
561.52	42655.09
561.72	42866.03
561.93	42812.79
562.13	42739.06
562.33	42648.95
562.53	43449.70
562.73	42796.40
562.93	43003.25
563.13	42767.73
563.33	43228.52
563.53	43482.47
563.73	42820.98
563.93	43283.82
564.13	43513.19
564.33	43050.35
564.53	43132.27
564.74	43638.12
564.94	43083.12
565.14	43539.82
565.34	43308.40
565.54	43636.07
565.74	43347.31
565.94	43916.64
566.14	44170.59
566.34	43568.49
566.54	44397.91
566.74	43691.37
566.94	43904.35
567.14	43982.18
567.34	43986.27
567.54	44307.80
567.74	43896.16
567.94	44156.25
568.14	44471.64
568.34	44504.41
568.54	44012.90
568.74	44248.41
568.94	44541.27
569.14	44619.10
569.34	44719.45
569.54	44375.39
569.75	44402.01
569.95	44545.37
570.15	44881.24
570.35	44692.82
570.55	44744.02
570.75	44725.59
570.95	44952.91
571.15	45106.51
571.35	44774.74
571.55	45360.46
571.75	44864.85
571.95	44871.00
572.15	45047.12
572.35	45647.18
572.55	45198.67
572.75	45086.03
572.95	45409.61
573.15	45454.67
573.35	45409.61
573.55	45446.47
573.75	45200.72
573.95	45585.74
574.15	45071.70
574.35	45800.77
574.55	45661.51
574.75	45569.35
574.95	46122.30
575.15	45763.91
575.34	45868.36
575.54	45909.32
575.74	46245.18
575.94	46067.01
576.14	46212.41
576.34	46220.61
576.54	46474.55
576.74	46605.62
576.94	46298.43
577.14	46398.78
577.34	46601.53
577.54	46562.62
577.74	46675.26
577.94	46816.57
578.14	46708.02
578.34	47271.21
578.54	46316.86
578.74	46449.98
578.94	46695.74
579.14	46587.19
579.34	46728.50
579.54	46941.49
579.74	47271.21
579.94	47060.27
580.13	47488.30
580.33	47318.32
580.53	47478.06
580.73	47324.46
580.93	47314.22
581.13	47156.53
581.33	47373.61
581.53	47711.53
581.73	47420.72
581.93	47781.16
582.13	47414.57
582.33	48014.63
582.53	47807.78
582.73	47895.85
582.92	48317.73
583.12	48196.90
583.32	47920.42
583.52	47906.08
583.72	48203.04
583.92	47988.00
584.12	47689.00
584.32	48545.05
584.52	48104.74
584.72	48155.94
584.92	48207.14
585.11	48770.33
585.31	48629.02
585.51	48583.96
585.71	48291.10
585.91	49116.43
586.11	48641.31
586.31	48538.91
586.51	48397.60
586.71	49044.76
586.91	48755.99
587.10	48911.64
587.30	49263.89
587.50	49186.07
587.70	48618.78
587.90	49222.93
588.10	49306.90
588.30	48813.34
588.50	48993.56
