SpectraSuite Data File
++++++++++++++++++++++++++++++++++++
Date: Fri Jun 02 14:47:56 CEST 2017
User: INFO_000
Dark Spectrum Present: No
Reference Spectrum Present: No
Number of Sampled Component Spectra: 1
Spectrometers: USB4H00879
Integration Time (usec): 80000 (USB4H00879)
Spectra Averaged: 1 (USB4H00879)
Boxcar Smoothing: 0 (USB4H00879)
Correct for Electrical Dark: No (USB4H00879)
Strobe/Lamp Enabled: No (USB4H00879)
Correct for Detector Non-linearity: No (USB4H00879)
Correct for Stray Light: No (USB4H00879)
Number of Pixels in Processed Spectrum: 3648
>>>>>Begin Processed Spectral Data<<<<<
345.13	1337.32
345.34	1337.32
345.56	1337.32
345.78	1290.22
345.99	1271.79
346.21	1724.39
346.42	1689.57
346.64	1599.46
346.86	1710.05
347.07	1607.66
347.29	1697.77
347.50	1601.51
347.72	1675.24
347.94	1716.20
348.15	1626.09
348.37	1628.14
348.59	1675.24
348.80	1652.71
349.02	1789.92
349.23	1861.60
349.45	1867.75
349.67	1918.95
349.88	1724.39
350.10	1943.52
350.31	1839.08
350.53	1837.03
350.75	2031.58
350.96	1740.77
351.18	1843.17
351.39	1875.94
351.61	1853.41
351.82	1900.52
352.04	1918.95
352.26	1771.49
352.47	1896.42
352.69	1920.99
352.90	1705.96
353.12	1902.56
353.34	1847.27
353.55	1953.76
353.77	1931.23
353.98	1818.60
354.20	1888.23
354.41	1867.75
354.63	1912.80
354.85	2013.15
355.06	1929.19
355.28	1769.44
355.49	1859.56
355.71	1968.10
355.92	1869.80
356.14	1998.82
356.35	1869.80
356.57	1816.55
356.79	1910.75
357.00	1859.56
357.22	1964.00
357.43	1888.23
357.65	2019.30
357.86	1841.12
358.08	1832.93
358.29	1972.19
358.51	2000.87
358.72	1970.15
358.94	1961.95
359.16	1920.99
359.37	1914.85
359.59	1939.43
359.80	1974.24
360.02	1943.52
360.23	2000.87
360.45	2031.58
360.66	1920.99
360.88	1886.18
361.09	1937.38
361.31	1986.53
361.52	1886.18
361.74	2101.22
361.95	2060.26
362.17	1910.75
362.38	2080.74
362.60	2090.98
362.81	2025.44
363.03	1900.52
363.24	2060.26
363.46	2009.06
363.67	2029.54
363.89	1986.53
364.10	2002.91
364.32	1861.60
364.53	2056.16
364.75	1865.70
364.96	1957.86
365.18	1966.05
365.39	2029.54
365.61	2064.35
365.82	2105.31
366.04	2021.35
366.25	1984.48
366.47	2047.97
366.68	2072.54
366.90	1937.38
367.11	2074.59
367.33	2117.60
367.54	2043.87
367.76	1947.62
367.97	2056.16
368.19	2041.82
368.40	2047.97
368.62	1912.80
368.83	1968.10
369.05	2000.87
369.26	2035.68
369.48	2072.54
369.69	1947.62
369.91	2101.22
370.12	2000.87
370.33	2115.55
370.55	2009.06
370.76	2068.45
370.98	2156.51
371.19	2115.55
371.41	2019.30
371.62	2080.74
371.84	2002.91
372.05	2211.81
372.27	2052.06
372.48	2004.96
372.69	2090.98
372.91	2129.89
373.12	2164.70
373.34	2039.78
373.55	2084.83
373.77	2267.10
373.98	2197.47
374.20	2144.22
374.41	2277.34
374.62	2050.02
374.84	2179.04
375.05	2138.08
375.27	2174.94
375.48	2138.08
375.70	2146.27
375.91	2242.53
376.12	2213.85
376.34	2146.27
376.55	2199.52
376.77	2265.05
376.98	2097.12
377.19	2191.33
377.41	2127.84
377.62	2191.33
377.84	2211.81
378.05	2320.35
378.27	2152.42
378.48	2283.49
378.69	2273.25
378.91	2334.68
379.12	2164.70
379.34	2211.81
379.55	2330.59
379.76	2283.49
379.98	2230.24
380.19	2256.86
380.41	2289.63
380.62	2392.03
380.83	2156.51
381.05	2213.85
381.26	2404.32
381.47	2265.05
381.69	2283.49
381.90	2394.08
382.12	2318.30
382.33	2293.72
382.54	2330.59
382.76	2357.21
382.97	2291.68
383.19	2334.68
383.40	2367.45
383.61	2277.34
383.83	2269.15
384.04	2289.63
384.25	2394.08
384.47	2344.92
384.68	2394.08
384.89	2281.44
385.11	2328.54
385.32	2318.30
385.54	2338.78
385.75	2353.12
385.96	2330.59
386.18	2432.99
386.39	2478.04
386.60	2375.64
386.82	2416.60
387.03	2387.93
387.24	2529.24
387.46	2265.05
387.67	2371.55
387.88	2478.04
388.10	2496.47
388.31	2533.34
388.52	2521.05
388.74	2447.32
388.95	2392.03
389.16	2506.71
389.38	2473.95
389.59	2600.92
389.80	2633.69
390.02	2549.72
390.23	2568.15
390.44	2541.53
390.66	2602.97
390.87	2498.52
391.08	2547.67
391.30	2648.02
391.51	2609.11
391.72	2678.74
391.94	2566.10
392.15	2693.08
392.36	2559.96
392.58	2572.25
392.79	2721.75
393.00	2666.46
393.22	2731.99
393.43	2713.56
393.64	2729.94
393.85	2725.85
394.07	2658.26
394.28	2756.57
394.49	2746.33
394.71	2799.57
394.92	2809.81
395.13	2791.38
395.35	2707.41
395.56	2740.18
395.77	2658.26
395.98	2879.44
396.20	2897.88
396.41	2772.95
396.62	2846.68
396.84	2850.77
397.05	2865.11
397.26	2904.02
397.47	2846.68
397.69	2828.24
397.90	2998.23
398.11	2918.36
398.32	2918.36
398.54	2936.79
398.75	2858.96
398.96	2969.55
399.18	3117.01
399.39	2910.16
399.60	2881.49
399.81	2930.64
400.03	2924.50
400.24	3139.54
400.45	2985.94
400.66	2969.55
400.88	2895.83
401.09	3160.02
401.30	3051.47
401.51	3203.02
401.73	3026.90
401.94	3139.54
402.15	3131.34
402.36	3137.49
402.58	3170.26
402.79	3157.97
403.00	3166.16
403.21	3248.08
403.43	3174.35
403.64	3243.98
403.85	3172.30
404.06	3217.36
404.27	3026.90
404.49	3135.44
404.70	3092.43
404.91	3330.00
405.12	3252.17
405.34	3143.63
405.55	3393.48
405.76	3266.51
405.97	3297.23
406.19	3442.64
406.40	3293.13
406.61	3342.28
406.82	3315.66
407.03	3260.37
407.25	3307.47
407.46	3399.63
407.67	3450.83
407.88	3428.30
408.09	3344.33
408.31	3266.51
408.52	3432.40
408.73	3485.64
408.94	3276.75
409.15	3401.68
409.37	3393.48
409.58	3592.14
409.79	3585.99
410.00	3534.79
410.21	3502.03
410.43	3512.27
410.64	3420.11
410.85	3530.70
411.06	3590.09
411.27	3602.38
411.48	3622.86
411.70	3542.99
411.91	3530.70
412.12	3653.58
412.33	3682.25
412.54	3557.32
412.76	3647.43
412.97	3600.33
413.18	3573.71
413.39	3499.98
413.60	3612.62
413.81	3592.14
414.03	3686.34
414.24	3563.47
414.45	3803.08
414.66	3600.33
414.87	3682.25
415.08	3598.28
415.30	3700.68
415.51	3805.13
415.72	3672.01
415.93	3798.98
416.14	3717.06
416.35	3837.89
416.56	3880.90
416.78	3747.78
416.99	3854.28
417.20	3868.61
417.41	3876.80
417.62	3860.42
417.83	4083.65
418.04	3948.48
418.26	3913.67
418.47	3846.09
418.68	3971.01
418.89	3917.76
419.10	4097.99
419.31	3862.47
419.52	4048.83
419.73	3911.62
419.95	4118.47
420.16	3882.95
420.37	3934.15
420.58	4067.27
420.79	3895.24
421.00	4071.36
421.21	3979.20
421.42	4034.50
421.63	4212.67
421.85	3940.29
422.06	4181.95
422.27	4114.37
422.48	4063.17
422.69	4212.67
422.90	4124.61
423.11	4192.19
423.32	4272.06
423.53	4446.14
423.75	4286.40
423.96	4382.65
424.17	4206.53
424.38	4556.73
424.59	4325.31
424.80	4472.76
425.01	4331.45
425.22	4245.44
425.43	4378.56
425.64	4503.48
425.85	4440.00
426.06	4435.90
426.28	4597.69
426.49	4374.46
426.70	4544.44
426.91	4468.67
427.12	4540.35
427.33	4566.97
427.54	4616.12
427.75	4638.65
427.96	4890.55
428.17	4587.45
428.38	4773.82
428.59	4759.48
428.80	4757.43
429.01	4812.73
429.23	4702.14
429.44	4814.77
429.65	4829.11
429.86	4941.75
430.07	4960.18
430.28	4888.50
430.49	5015.48
430.70	4999.09
430.91	5054.39
431.12	5062.58
431.33	5066.67
431.54	5115.83
431.75	5093.30
431.96	5105.59
432.17	5060.53
432.38	5058.48
432.59	5230.51
432.80	5175.22
433.01	5228.46
433.22	5289.90
433.43	5236.66
433.64	5287.86
433.85	5322.67
434.06	5287.86
434.27	5300.14
434.49	5394.35
434.70	5437.36
434.91	5517.23
435.12	5468.08
435.33	5400.49
435.54	5431.21
435.75	5398.45
435.96	5470.12
436.17	5433.26
436.38	5588.91
436.59	5687.21
436.80	5558.19
437.01	5676.97
437.22	5846.95
437.43	5648.30
437.64	5586.86
437.85	5832.62
438.06	5879.72
438.27	5588.91
438.48	5748.65
438.69	5863.33
438.90	5892.01
439.11	5695.40
439.32	5988.26
439.53	5889.96
439.74	5963.68
439.95	5957.54
440.16	5904.29
440.37	6094.76
440.57	5889.96
440.78	6096.80
440.99	5957.54
441.20	5953.45
441.41	5994.40
441.62	5996.45
441.83	6012.84
442.04	6158.24
442.25	6064.04
442.46	6137.76
442.67	6242.21
442.88	6606.75
443.09	6154.15
443.30	6266.78
443.51	6166.43
443.72	6490.01
443.93	6092.71
444.14	6436.77
444.35	6201.25
444.56	6221.73
444.77	6391.71
444.98	6274.98
445.19	6369.18
445.40	6471.58
445.61	6272.93
445.81	6526.88
446.02	6453.15
446.23	6576.03
446.44	6238.11
446.65	6584.22
446.86	6647.71
447.07	6494.11
447.28	6799.26
447.49	6762.39
447.70	6543.26
447.91	6711.19
448.12	6614.94
448.33	6768.54
448.54	6616.99
448.74	6637.47
448.95	6731.67
449.16	6688.67
449.37	6971.29
449.58	6684.57
449.79	6940.57
450.00	6842.26
450.21	6932.37
450.42	7016.34
450.63	6852.50
450.84	6942.61
451.05	6920.09
451.25	7020.44
451.46	6889.37
451.67	7112.60
451.88	7229.33
452.09	7096.21
452.30	7008.15
452.51	7008.15
452.72	7051.16
452.93	7341.97
453.13	7077.78
453.34	7026.58
453.55	7253.91
453.76	7262.10
453.97	7514.00
454.18	7266.19
454.39	7417.74
454.60	7239.57
454.81	7274.38
455.01	7606.16
455.22	7264.15
455.43	7511.95
455.64	7776.14
455.85	7698.31
456.06	7726.99
456.27	7645.07
456.48	7565.20
456.68	7815.05
456.89	7737.23
457.10	7866.25
457.31	7870.34
457.52	7753.61
457.73	8003.46
457.94	7980.93
458.14	7753.61
458.35	8261.51
458.56	7946.12
458.77	7909.26
458.98	8146.82
459.19	8292.23
459.39	8183.68
459.60	8286.08
459.81	8146.82
460.02	8245.12
460.23	8347.52
460.44	8601.47
460.65	8505.21
460.85	8703.87
461.06	8664.96
461.27	8507.26
461.48	8669.05
461.69	8787.83
461.89	8439.68
462.10	8744.83
462.31	8546.17
462.52	8710.01
462.73	8857.46
462.94	8941.43
463.14	8947.58
463.35	8957.82
463.56	9250.67
463.77	9201.52
463.98	9035.64
464.18	9187.19
464.39	9316.21
464.60	9226.10
464.81	9375.60
465.02	9367.41
465.23	9797.48
465.43	9344.88
465.64	9727.85
465.85	9740.14
466.06	9471.86
466.27	10082.15
466.47	9815.91
466.68	9836.39
466.89	9953.13
467.10	10051.43
467.30	9924.46
467.51	10057.57
467.72	10411.87
467.93	9924.46
468.14	10413.92
468.34	10186.60
468.55	10506.08
468.76	10585.95
468.97	10188.64
469.17	10719.07
469.38	10778.46
469.59	10884.95
469.80	10645.34
470.01	10776.41
470.21	10927.96
470.42	11308.88
470.63	11202.39
470.84	11016.02
471.04	11218.77
471.25	11169.62
471.46	11136.85
471.67	11605.84
471.87	11644.75
472.08	11673.42
472.29	11857.74
472.50	11355.99
472.70	11757.39
472.91	11638.61
473.12	11960.14
473.33	12183.37
473.53	12226.37
473.74	12269.38
473.95	12414.79
474.16	12205.89
474.36	12398.40
474.57	12678.97
474.78	12531.52
474.99	12609.34
475.19	12554.05
475.40	12863.29
475.61	12885.82
475.81	13068.09
476.02	13254.45
476.23	13186.87
476.44	13524.79
476.64	13643.57
476.85	13778.73
477.06	13383.48
477.27	13852.46
477.47	13721.39
477.68	13885.23
477.89	14178.09
478.09	14133.03
478.30	13872.94
478.51	14180.14
478.71	14485.28
478.92	14429.99
479.13	14438.18
479.34	14698.27
479.54	14636.83
479.75	14511.91
479.96	14821.15
480.16	14839.58
480.37	15023.90
480.58	15222.55
480.78	15462.16
480.99	15114.01
481.20	15568.66
481.41	15466.26
481.61	15671.06
481.82	15810.32
482.03	15822.61
482.23	15976.20
482.44	15947.53
482.65	16219.91
482.85	16281.35
483.06	16264.97
483.27	16305.93
483.47	16119.56
483.68	16226.06
483.89	16680.71
484.09	16299.78
484.30	16576.26
484.51	16910.08
484.71	16895.74
484.92	16883.45
485.13	17190.65
485.33	17102.59
485.54	17270.52
485.75	17657.59
485.95	17549.04
486.16	17587.96
486.37	17637.11
486.57	17639.15
486.78	17571.57
486.98	17645.30
487.19	17862.38
487.40	18122.48
487.60	18112.24
487.81	18245.35
488.02	18298.60
488.22	18114.28
488.43	18464.49
488.64	18587.36
488.84	18570.98
489.05	18874.08
489.25	18575.08
489.46	18855.65
489.67	18849.50
489.87	19056.35
490.08	18814.69
490.29	18972.38
490.49	19285.72
490.70	19298.01
490.90	19455.70
491.11	19414.74
491.32	19551.96
491.52	19390.17
491.73	19564.25
491.94	19629.78
492.14	19511.00
492.35	19478.23
492.55	20037.33
492.76	20213.45
492.97	20385.48
493.17	20235.98
493.38	20223.69
493.58	20225.74
493.79	20281.03
494.00	20491.98
494.20	20465.35
494.41	20563.65
494.61	20553.41
494.82	20635.33
495.02	20539.08
495.23	20762.31
495.44	21012.16
495.64	21096.13
495.85	20989.63
496.05	20973.25
496.26	20913.86
496.47	21442.23
496.67	21452.47
496.88	21690.04
497.08	21274.30
497.29	21647.03
497.49	21436.09
497.70	21628.60
497.91	21733.04
498.11	22185.65
498.32	22122.16
498.52	22058.67
498.73	22390.44
498.93	22216.36
499.14	22290.09
499.34	22374.06
499.55	22537.90
499.76	22300.33
499.96	22359.72
500.17	22511.27
500.37	22689.45
500.58	22609.58
500.78	22654.63
500.99	22912.67
501.19	23242.40
501.40	23004.83
501.60	23058.08
501.81	23152.29
502.02	23228.06
502.22	23015.07
502.43	23344.80
502.63	23467.67
502.84	23408.28
503.04	23330.46
503.25	23684.76
503.45	23520.92
503.66	23690.90
503.86	23602.84
504.07	24104.59
504.27	23746.20
504.48	24274.57
504.68	24188.56
504.89	24362.64
505.09	24075.92
505.30	24327.82
505.50	24161.94
505.71	24641.16
505.91	24688.26
506.12	24497.80
506.32	24454.79
506.53	24807.05
506.73	24903.30
506.94	24821.38
507.14	25020.03
507.35	25034.37
507.55	24751.75
507.76	25136.77
507.96	25140.86
508.17	24852.10
508.37	25259.65
508.58	25448.06
508.78	25597.56
508.99	25702.01
509.19	25857.65
509.40	25939.57
509.60	25890.42
509.81	25978.48
510.01	25740.92
510.22	25847.41
510.42	26027.63
510.63	25714.30
510.83	26060.40
511.04	26017.40
511.24	26525.29
511.44	26371.69
511.65	26367.60
511.85	26381.93
512.06	26433.13
512.26	26318.45
512.47	27022.95
512.67	26820.20
512.88	27018.85
513.08	26408.56
513.29	26867.30
513.49	26803.82
513.69	27100.77
513.90	27205.22
514.10	27025.00
514.31	27260.51
514.51	27598.43
514.72	27432.54
514.92	27532.89
515.13	27391.58
515.33	27383.39
515.53	27559.52
515.74	27641.43
515.94	27874.90
516.15	28046.93
516.35	27651.67
516.56	27846.23
516.76	28059.22
516.96	28042.84
517.17	28454.48
517.37	28257.87
517.58	28276.30
517.78	28677.71
517.99	28624.46
518.19	28784.20
518.39	28403.28
518.60	28802.63
518.80	28753.48
519.01	28825.16
519.21	29079.11
519.41	29404.74
519.62	29025.86
519.82	29486.65
520.03	28816.97
520.23	29244.99
520.43	28905.03
520.64	29728.31
520.84	29752.89
521.05	29490.75
521.25	29767.23
521.45	30113.33
521.66	29965.88
521.86	29818.42
522.07	29867.58
522.27	30144.05
522.47	30205.49
522.68	30322.23
522.88	30430.77
523.08	30881.32
523.29	30473.78
523.49	30512.69
523.70	30930.47
523.90	31010.34
524.10	31039.01
524.31	30690.86
524.51	30957.10
524.71	31143.46
524.92	30772.78
525.12	31168.04
525.33	31591.97
525.53	31292.96
525.73	31479.33
525.94	32017.94
526.14	31827.48
526.34	31899.16
526.55	31872.54
526.75	31911.45
526.95	32130.58
527.16	32011.80
527.36	32347.67
527.56	32366.10
527.77	32511.50
527.97	32386.58
528.17	32278.04
528.38	32523.79
528.58	32476.69
528.78	32718.35
528.99	32773.64
529.19	32964.10
529.39	32902.67
529.60	33129.99
529.80	33017.35
530.00	33095.18
530.21	33390.08
530.41	33433.09
530.61	33494.53
530.82	33263.11
531.02	33695.23
531.22	33502.72
531.43	33607.17
531.63	33779.20
531.83	34035.19
532.04	34151.93
532.24	33830.40
532.44	34450.93
532.64	34301.43
532.85	34178.55
533.05	34491.89
533.25	34881.00
533.46	34512.37
533.66	34723.31
533.86	34954.73
534.07	35104.23
534.27	34774.51
534.47	35102.18
534.67	34842.09
534.88	34582.00
535.08	35194.34
535.28	35298.79
535.49	35175.91
535.69	35573.22
535.89	35372.52
536.09	35347.94
536.30	35931.61
536.50	35810.78
536.70	35943.90
536.91	35708.38
537.11	35986.91
537.31	36013.53
537.51	35808.73
537.72	36249.05
537.92	36130.26
538.12	36691.41
538.32	36513.23
538.53	36685.26
538.73	36007.39
538.93	36535.76
539.13	36419.03
539.34	36527.57
539.54	36345.30
539.74	37105.10
539.94	36431.32
540.15	36718.03
540.35	37176.78
540.55	37266.89
540.75	37039.56
540.96	36984.27
541.16	37297.61
541.36	37170.63
541.56	36939.21
541.77	37225.93
541.97	37631.43
542.17	37518.79
542.37	37348.81
542.58	37672.39
542.78	37408.20
542.98	37492.16
543.18	37483.97
543.38	37944.76
543.59	37811.65
543.79	37651.91
543.99	37627.33
544.19	37717.44
544.40	38170.04
544.60	38069.69
544.80	37713.34
545.00	37901.76
545.20	38573.49
545.41	38075.84
545.61	38237.62
545.81	38446.52
546.01	38444.47
546.21	38454.71
546.42	38348.21
546.62	38598.07
546.82	38426.04
547.02	38720.95
547.22	38700.47
547.43	38722.99
547.63	38677.94
547.83	38770.10
548.03	38821.30
548.23	39130.54
548.44	38696.37
548.64	39054.76
548.84	39001.52
549.04	39261.61
549.24	39470.50
549.45	39247.27
549.65	39277.99
549.85	38978.99
550.05	39148.97
550.25	39456.17
550.45	39466.41
550.66	39650.72
550.86	39597.48
551.06	39411.11
551.26	39695.78
551.46	39579.04
551.66	39703.97
551.87	39847.33
552.07	40013.21
552.27	39663.01
552.47	40052.12
552.67	40207.77
552.87	39775.65
553.07	40015.26
553.28	40541.59
553.48	40510.87
553.68	40213.91
553.88	40496.53
554.08	40416.66
554.28	40265.11
554.48	40289.69
554.69	40381.85
554.89	40375.70
555.09	40246.68
555.29	40066.46
555.49	40422.81
555.69	40478.10
555.89	40596.88
556.10	40971.66
556.30	40613.27
556.50	40793.49
556.70	40992.14
556.90	40916.37
557.10	40902.03
557.30	40816.02
557.50	41178.51
557.70	41190.80
557.91	41211.28
558.11	41506.18
558.31	41461.13
558.51	41407.88
558.71	41264.52
558.91	41753.99
559.11	41170.32
559.31	41653.64
559.51	41627.01
559.72	41684.36
559.92	41678.21
560.12	41307.53
560.32	41993.60
560.52	42030.46
560.72	41969.02
560.92	42149.24
561.12	41969.02
561.32	42208.64
561.52	42014.08
561.72	42339.71
561.93	42669.43
562.13	42564.98
562.33	42007.94
562.53	42911.09
562.73	42040.70
562.93	42667.38
563.13	42628.47
563.33	42136.96
563.53	42472.82
563.73	42698.10
563.93	42874.23
564.13	43171.18
564.33	43068.78
564.53	42845.55
564.74	43001.20
564.94	42861.94
565.14	43103.60
565.34	43158.89
565.54	43378.03
565.74	43556.20
565.94	43568.49
566.14	43648.36
566.34	43246.96
566.54	43615.59
566.74	43279.72
566.94	43814.24
567.14	43654.50
567.34	44189.02
567.54	43853.15
567.74	44148.06
567.94	43816.29
568.14	44473.69
568.34	44092.77
568.54	44266.84
568.74	44635.48
568.94	44404.06
569.14	44516.70
569.34	44615.00
569.54	44791.12
569.75	44660.05
569.95	44397.91
570.15	45454.67
570.35	45321.55
570.55	44438.87
570.75	44825.94
570.95	45155.66
571.15	45151.57
571.35	45055.31
571.55	45391.18
571.75	45157.71
571.95	45315.40
572.15	45256.01
572.35	45573.45
572.55	45106.51
572.75	45184.33
572.95	45391.18
573.15	45725.00
573.35	45725.00
573.55	45491.53
573.75	45604.17
573.95	45989.19
574.15	46011.71
574.35	46036.29
574.55	45516.11
574.75	45761.86
574.95	46114.11
575.15	45929.80
575.34	46406.97
575.54	46351.68
575.74	46441.79
575.94	46417.21
576.14	46411.07
576.34	46738.74
576.54	46964.02
576.74	46951.73
576.94	46964.02
577.14	47230.26
577.34	46966.07
577.54	46824.76
577.74	47258.93
577.94	47222.06
578.14	46855.48
578.34	47660.33
578.54	46751.03
578.74	47236.40
578.94	47709.48
579.14	47082.80
579.34	47220.02
579.54	47410.48
579.74	48018.72
579.94	47912.23
580.13	47416.62
580.33	47623.47
580.53	47539.50
580.73	48026.92
580.93	48043.30
581.13	47969.57
581.33	48053.54
581.53	48362.78
581.73	47584.55
581.93	48704.79
582.13	48024.87
582.33	48313.63
582.53	48459.04
582.73	48479.52
582.92	48440.60
583.12	48176.42
583.32	48768.28
583.52	48295.20
583.72	48862.49
583.92	48422.17
584.12	48598.30
584.32	49098.00
584.52	48330.01
584.72	49259.79
584.92	49128.72
585.11	49452.30
585.31	49394.96
585.51	49165.59
585.71	49083.67
585.91	49282.32
586.11	48993.56
586.31	48960.79
586.51	48964.88
586.71	49028.37
586.91	49730.83
587.10	49759.50
587.30	49816.84
587.50	49513.74
587.70	49462.54
587.90	49700.11
588.10	49759.50
588.30	49962.25
588.50	49818.89
