SpectraSuite Data File
++++++++++++++++++++++++++++++++++++
Date: Fri Jun 02 14:47:59 CEST 2017
User: INFO_000
Dark Spectrum Present: No
Reference Spectrum Present: No
Number of Sampled Component Spectra: 1
Spectrometers: USB4H00879
Integration Time (usec): 80000 (USB4H00879)
Spectra Averaged: 1 (USB4H00879)
Boxcar Smoothing: 0 (USB4H00879)
Correct for Electrical Dark: No (USB4H00879)
Strobe/Lamp Enabled: No (USB4H00879)
Correct for Detector Non-linearity: No (USB4H00879)
Correct for Stray Light: No (USB4H00879)
Number of Pixels in Processed Spectrum: 3648
>>>>>Begin Processed Spectral Data<<<<<
345.13	1247.21
345.34	1247.21
345.56	1247.21
345.78	1247.21
345.99	1288.17
346.21	1662.95
346.42	1744.87
346.64	1617.90
346.86	1748.97
347.07	1656.81
347.29	1763.30
347.50	1578.98
347.72	1683.43
347.94	1765.35
348.15	1527.78
348.37	1572.84
348.59	1728.49
348.80	1679.33
349.02	1771.49
349.23	1798.12
349.45	1886.18
349.67	1898.47
349.88	1791.97
350.10	1900.52
350.31	1902.56
350.53	1834.98
350.75	1992.67
350.96	1712.10
351.18	1896.42
351.39	1920.99
351.61	1714.15
351.82	1941.47
352.04	1880.04
352.26	1796.07
352.47	1914.85
352.69	1892.32
352.90	1789.92
353.12	1798.12
353.34	1847.27
353.55	1945.57
353.77	1830.88
353.98	1865.70
354.20	1812.45
354.41	1927.14
354.63	1918.95
354.85	2017.25
355.06	1933.28
355.28	1701.86
355.49	1828.84
355.71	1880.04
355.92	1908.71
356.14	1931.23
356.35	1814.50
356.57	1806.31
356.79	1880.04
357.00	1865.70
357.22	1920.99
357.43	1863.65
357.65	2015.20
357.86	1834.98
358.08	1900.52
358.29	1925.09
358.51	1976.29
358.72	2041.82
358.94	1918.95
359.16	1877.99
359.37	1896.42
359.59	1953.76
359.80	2039.78
360.02	1931.23
360.23	1927.14
360.45	1990.63
360.66	1968.10
360.88	1910.75
361.09	1859.56
361.31	1957.86
361.52	1929.19
361.74	2043.87
361.95	2068.45
362.17	2037.73
362.38	2009.06
362.60	2015.20
362.81	1994.72
363.03	1984.48
363.24	2033.63
363.46	2058.21
363.67	2027.49
363.89	2011.11
364.10	1955.81
364.32	1886.18
364.53	2068.45
364.75	1908.71
364.96	2025.44
365.18	2007.01
365.39	2054.11
365.61	1929.19
365.82	2129.89
366.04	2002.91
366.25	1980.39
366.47	2031.58
366.68	2068.45
366.90	1955.81
367.11	2072.54
367.33	2183.13
367.54	2082.78
367.76	1937.38
367.97	2115.55
368.19	2011.11
368.40	2117.60
368.62	1990.63
368.83	1937.38
369.05	2035.68
369.26	1976.29
369.48	1894.37
369.69	1984.48
369.91	2052.06
370.12	1982.43
370.33	2050.02
370.55	1957.86
370.76	2027.49
370.98	2148.32
371.19	2064.35
371.41	2011.11
371.62	2138.08
371.84	1937.38
372.05	2195.42
372.27	2047.97
372.48	2090.98
372.69	2080.74
372.91	2176.99
373.12	2189.28
373.34	2045.92
373.55	2164.70
373.77	2138.08
373.98	2072.54
374.20	2170.85
374.41	2232.29
374.62	2142.18
374.84	2154.46
375.05	2125.79
375.27	2150.37
375.48	2111.46
375.70	2248.67
375.91	2099.17
376.12	2207.71
376.34	2113.50
376.55	2156.51
376.77	2215.90
376.98	2152.42
377.19	2148.32
377.41	2176.99
377.62	2158.56
377.84	2172.89
378.05	2289.63
378.27	2199.52
378.48	2275.29
378.69	2377.69
378.91	2230.24
379.12	2312.16
379.34	2213.85
379.55	2222.05
379.76	2285.53
379.98	2226.14
380.19	2306.01
380.41	2238.43
380.62	2279.39
380.83	2176.99
381.05	2195.42
381.26	2371.55
381.47	2281.44
381.69	2246.62
381.90	2330.59
382.12	2260.96
382.33	2289.63
382.54	2277.34
382.76	2303.96
382.97	2312.16
383.19	2326.49
383.40	2346.97
383.61	2336.73
383.83	2248.67
384.04	2295.77
384.25	2435.03
384.47	2371.55
384.68	2359.26
384.89	2392.03
385.11	2342.88
385.32	2303.96
385.54	2381.79
385.75	2402.27
385.96	2435.03
386.18	2310.11
386.39	2418.65
386.60	2271.20
386.82	2394.08
387.03	2424.80
387.24	2457.56
387.46	2451.42
387.67	2537.43
387.88	2527.19
388.10	2490.33
388.31	2480.09
388.52	2588.63
388.74	2527.19
388.95	2447.32
389.16	2506.71
389.38	2381.79
389.59	2461.66
389.80	2645.98
390.02	2508.76
390.23	2621.40
390.44	2469.85
390.66	2484.19
390.87	2590.68
391.08	2600.92
391.30	2629.59
391.51	2541.53
391.72	2668.50
391.94	2600.92
392.15	2619.35
392.36	2600.92
392.58	2609.11
392.79	2648.02
393.00	2727.89
393.22	2641.88
393.43	2756.57
393.64	2838.48
393.85	2809.81
394.07	2633.69
394.28	2740.18
394.49	2793.43
394.71	2656.22
394.92	2906.07
395.13	2744.28
395.35	2672.60
395.56	2691.03
395.77	2838.48
395.98	2854.87
396.20	2787.29
396.41	2828.24
396.62	2938.84
396.84	2803.67
397.05	2818.00
397.26	2775.00
397.47	2922.45
397.69	2895.83
397.90	3043.28
398.11	2998.23
398.32	2904.02
398.54	2893.78
398.75	2885.59
398.96	2910.16
399.18	2961.36
399.39	2957.27
399.60	2998.23
399.81	2867.16
400.03	2891.73
400.24	3223.50
400.45	2889.68
400.66	3047.38
400.88	2981.84
401.09	3264.46
401.30	3051.47
401.51	3248.08
401.73	3049.43
401.94	3049.43
402.15	3135.44
402.36	3147.73
402.58	3131.34
402.79	3110.86
403.00	3141.58
403.21	3237.84
403.43	3229.65
403.64	3184.59
403.85	3114.96
404.06	3153.87
404.27	3108.82
404.49	3125.20
404.70	3160.02
404.91	3221.45
405.12	3182.54
405.34	3157.97
405.55	3309.52
405.76	3108.82
405.97	3184.59
406.19	3334.09
406.40	3135.44
406.61	3192.78
406.82	3401.68
407.03	3246.03
407.25	3266.51
407.46	3340.24
407.67	3473.36
407.88	3334.09
408.09	3332.05
408.31	3436.49
408.52	3411.92
408.73	3313.61
408.94	3313.61
409.15	3448.78
409.37	3506.12
409.58	3450.83
409.79	3440.59
410.00	3547.08
410.21	3528.65
410.43	3479.50
410.64	3379.15
410.85	3448.78
411.06	3469.26
411.27	3520.46
411.48	3454.92
411.70	3563.47
411.91	3626.95
412.12	3721.16
412.33	3489.74
412.54	3524.55
412.76	3717.06
412.97	3620.81
413.18	3506.12
413.39	3608.52
413.60	3633.10
413.81	3635.14
414.03	3461.07
414.24	3571.66
414.45	3821.51
414.66	3567.56
414.87	3721.16
415.08	3663.82
415.30	3721.16
415.51	3837.89
415.72	3727.30
415.93	3667.91
416.14	3772.36
416.35	3665.86
416.56	3665.86
416.78	3772.36
416.99	3876.80
417.20	3903.43
417.41	3862.47
417.62	3811.27
417.83	3885.00
418.04	3829.70
418.26	3921.86
418.47	3901.38
418.68	3987.40
418.89	3977.16
419.10	4018.11
419.31	4102.08
419.52	4077.51
419.73	4009.92
419.95	4065.22
420.16	3964.87
420.37	3985.35
420.58	4014.02
420.79	3928.00
421.00	4184.00
421.21	4227.01
421.42	4143.04
421.63	4206.53
421.85	4095.94
422.06	4218.82
422.27	4149.18
422.48	4276.16
422.69	4310.97
422.90	4386.75
423.11	4245.44
423.32	4392.89
423.53	4437.95
423.75	4294.59
423.96	4376.51
424.17	4384.70
424.38	4558.78
424.59	4372.41
424.80	4515.77
425.01	4401.08
425.22	4437.95
425.43	4452.28
425.64	4700.09
425.85	4622.27
426.06	4683.70
426.28	4505.53
426.49	4419.52
426.70	4499.39
426.91	4587.45
427.12	4667.32
427.33	4583.35
427.54	4687.80
427.75	4607.93
427.96	4804.53
428.17	4728.76
428.38	4704.18
428.59	4814.77
428.80	4665.27
429.01	4749.24
429.23	4779.96
429.44	5015.48
429.65	4976.56
429.86	4995.00
430.07	4890.55
430.28	4935.60
430.49	5050.29
430.70	5152.69
430.91	5097.39
431.12	4974.52
431.33	5179.31
431.54	5162.93
431.75	5083.06
431.96	5095.35
432.17	5070.77
432.38	5103.54
432.59	5445.55
432.80	5218.22
433.01	5322.67
433.22	5287.86
433.43	5294.00
433.64	5064.63
433.85	5203.89
434.06	5402.54
434.27	5298.10
434.49	5255.09
434.70	5539.76
434.91	5287.86
435.12	5351.34
435.33	5386.16
435.54	5359.53
435.75	5244.85
435.96	5443.50
436.17	5308.34
436.38	5619.63
436.59	5547.95
436.80	5515.18
437.01	5621.67
437.22	5685.16
437.43	5738.41
437.64	5494.70
437.85	5695.40
438.06	5814.18
438.27	5523.37
438.48	5476.27
438.69	5724.07
438.90	5703.59
439.11	5558.19
439.32	5760.94
439.53	5654.44
439.74	5855.14
439.95	5828.52
440.16	5820.33
440.37	5922.73
440.57	5701.54
440.78	5795.75
440.99	5818.28
441.20	5769.13
441.41	5767.08
441.62	5865.38
441.83	5777.32
442.04	5967.78
442.25	5943.21
442.46	5949.35
442.67	6191.01
442.88	6303.65
443.09	6043.56
443.30	6086.56
443.51	6014.88
443.72	6221.73
443.93	5998.50
444.14	6500.25
444.35	6184.87
444.56	6219.68
444.77	6207.39
444.98	6311.84
445.19	6180.77
445.40	6307.74
445.61	6258.59
445.81	6326.18
446.02	6447.01
446.23	6416.29
446.44	6174.63
446.65	6404.00
446.86	6354.85
447.07	6426.53
447.28	6408.09
447.49	6465.44
447.70	6387.61
447.91	6625.18
448.12	6662.04
448.33	6719.39
448.54	6698.91
448.74	6569.88
448.95	6793.11
449.16	6686.62
449.37	6983.57
449.58	6659.99
449.79	6946.71
450.00	6664.09
450.21	6743.96
450.42	6979.48
450.63	6961.05
450.84	6946.71
451.05	6930.33
451.25	7112.60
451.46	6856.60
451.67	6999.96
451.88	7178.13
452.09	7083.92
452.30	6842.26
452.51	6987.67
452.72	7120.79
452.93	7366.54
453.13	7022.48
453.34	7042.96
453.55	7434.13
453.76	7393.17
453.97	7448.46
454.18	7456.65
454.39	7591.82
454.60	7436.17
454.81	7645.07
455.01	7735.18
455.22	7260.05
455.43	7620.49
455.64	7714.70
455.85	7823.24
456.06	7972.74
456.27	7698.31
456.48	7884.68
456.68	7952.26
456.89	7827.34
457.10	7915.40
457.31	7942.02
457.52	7878.54
457.73	8052.61
457.94	8359.81
458.14	7952.26
458.35	8540.03
458.56	8216.45
458.77	8116.10
458.98	8284.03
459.19	8261.51
459.39	8408.96
459.60	8617.85
459.81	8322.94
460.02	8507.26
460.23	8396.67
460.44	8699.77
460.65	8679.29
460.85	8904.57
461.06	8667.00
461.27	8556.41
461.48	8925.05
461.69	9072.50
461.89	8730.49
462.10	8865.66
462.31	8771.45
462.52	8865.66
462.73	8890.23
462.94	9168.76
463.14	9078.65
463.35	9119.60
463.56	9709.42
463.77	9338.74
463.98	9215.86
464.18	9443.18
464.39	9545.58
464.60	9676.65
464.81	9658.22
465.02	9545.58
465.23	9729.90
465.43	9693.04
465.64	10151.78
465.85	9932.65
466.06	9770.86
466.27	10235.75
466.47	9838.44
466.68	10024.81
466.89	10033.00
467.10	10317.67
467.30	10018.66
467.51	10119.01
467.72	10645.34
467.93	10090.34
468.14	10413.92
468.34	10452.83
468.55	10524.51
468.76	10495.84
468.97	10391.39
469.17	10614.62
469.38	10680.16
469.59	11048.79
469.80	10772.32
470.01	10860.38
470.21	10991.45
470.42	11085.65
470.63	11319.12
470.84	10948.44
471.04	11202.39
471.25	11186.01
471.46	11210.58
471.67	11587.41
471.87	11560.78
472.08	11702.09
472.29	11808.59
472.50	11284.31
472.70	11661.13
472.91	11573.07
473.12	11810.64
473.33	11745.10
473.53	12062.54
473.74	11843.40
473.95	12185.41
474.16	12230.47
474.36	12357.44
474.57	12367.68
474.78	12586.82
474.99	12351.30
475.19	12365.64
475.40	12939.07
475.61	12840.76
475.81	12633.92
476.02	13281.08
476.23	12787.52
476.44	13117.24
476.64	13221.69
476.85	13188.92
477.06	13242.17
477.27	13492.02
477.47	13459.25
477.68	13555.51
477.89	13659.95
478.09	13715.25
478.30	13819.69
478.51	13719.34
478.71	13958.96
478.92	14110.50
479.13	13981.48
479.34	14331.69
479.54	14311.21
479.75	14389.03
479.96	14460.71
480.16	14602.02
480.37	14647.07
480.58	14726.94
480.78	14806.81
480.99	14890.78
481.20	15128.35
481.41	14950.17
481.61	15128.35
481.82	15296.28
482.03	15161.11
482.23	15367.96
482.44	15564.56
482.65	15556.37
482.85	15781.65
483.06	15660.82
483.27	16000.78
483.47	15734.54
483.68	15970.06
483.89	16025.36
484.09	16015.12
484.30	16115.47
484.51	16486.15
484.71	16437.00
484.92	16338.69
485.13	16672.51
485.33	16662.27
485.54	16584.45
485.75	16996.09
485.95	16832.26
486.16	17217.27
486.37	17417.97
486.57	16992.00
486.78	17221.37
486.98	17192.70
487.19	17456.89
487.40	17729.27
487.60	17676.02
487.81	17721.07
488.02	18056.94
488.22	17721.07
488.43	17954.54
488.64	18142.96
488.84	17938.16
489.05	18300.65
489.25	18155.24
489.46	18460.39
489.67	18517.73
489.87	18845.41
490.08	18595.56
490.29	18704.10
490.49	19068.64
490.70	19048.16
490.90	19435.22
491.11	19136.22
491.32	19195.61
491.52	19433.18
491.73	19480.28
491.94	19388.12
492.14	19619.54
492.35	19789.52
492.55	19801.81
492.76	19934.93
492.97	20092.62
493.17	20070.09
493.38	20158.16
493.58	20258.51
493.79	20391.62
494.00	20270.79
494.20	20547.27
494.41	20461.26
494.61	20844.23
494.82	20975.30
495.02	20733.64
495.23	20848.32
495.44	21163.71
495.64	21311.16
495.85	21180.09
496.05	21495.48
496.26	21276.35
496.47	21640.89
496.67	21503.67
496.88	21829.30
497.08	21890.74
497.29	21950.13
497.49	21851.83
497.70	22052.53
497.91	22046.38
498.11	22314.67
498.32	22398.63
498.52	22486.70
498.73	22673.06
498.93	22783.65
499.14	22775.46
499.34	22759.08
499.55	23047.84
499.76	22734.50
499.96	23424.67
500.17	23033.50
500.37	23127.71
500.58	23475.87
500.78	23164.57
500.99	23266.97
501.19	23561.88
501.40	23543.45
501.60	23586.46
501.81	23668.37
502.02	23787.16
502.22	23692.95
502.43	24037.01
502.63	24045.20
502.84	24073.87
503.04	24194.70
503.25	24280.72
503.45	24104.59
503.66	24501.90
503.86	24432.27
504.07	24649.35
504.27	24723.08
504.48	24964.74
504.68	24759.94
504.89	25220.74
505.09	25122.43
505.30	25206.40
505.50	25263.74
505.71	25071.23
505.91	25220.74
506.12	25419.39
506.32	25575.03
506.53	25552.51
506.73	25728.63
506.94	25577.08
507.14	25607.80
507.35	25509.50
507.55	25527.93
507.76	25599.61
507.96	25708.15
508.17	25671.29
508.37	26103.41
508.58	26041.97
508.78	26158.70
508.99	26152.56
509.19	26326.64
509.40	26365.55
509.60	26312.30
509.81	26680.94
510.01	26472.04
510.22	26777.19
510.42	26586.73
510.63	26812.01
510.83	26547.82
511.04	26746.47
511.24	27059.81
511.44	26685.03
511.65	27006.56
511.85	26719.85
512.06	26883.69
512.26	26943.08
512.47	27324.00
512.67	26949.22
512.88	27139.68
513.08	26877.54
513.29	27371.10
513.49	27278.94
513.69	27002.47
513.90	27303.52
514.10	27647.58
514.31	27731.54
514.51	27536.99
514.72	27510.36
514.92	27545.18
515.13	27776.60
515.33	27584.09
515.53	27721.30
515.74	27899.48
515.94	28186.19
516.15	27983.44
516.35	27774.55
516.56	28079.70
516.76	28094.04
516.96	27758.17
517.17	28356.18
517.37	27962.97
517.58	28337.74
517.78	27975.25
517.99	28225.11
518.19	28673.61
518.39	28761.67
518.60	28739.15
518.80	28409.42
519.01	28397.13
519.21	28405.33
519.41	28487.25
519.62	28628.56
519.82	28845.64
520.03	28986.95
520.23	28886.60
520.43	28759.63
520.64	29226.56
520.84	29118.02
521.05	29212.23
521.25	29181.51
521.45	29263.43
521.66	29736.51
521.86	29507.13
522.07	29369.92
522.27	29296.19
522.47	29742.65
522.68	29808.19
522.88	29197.89
523.08	29802.04
523.29	30037.56
523.49	30080.56
523.70	30113.33
523.90	30262.83
524.10	29949.50
524.31	30289.46
524.51	29906.49
524.71	30441.01
524.92	30090.80
525.12	30420.53
525.33	30359.09
525.53	30238.26
525.73	30621.23
525.94	30529.07
526.14	31069.73
526.34	30930.47
526.55	30748.20
526.75	30832.17
526.95	31182.37
527.16	30758.44
527.36	31268.39
527.56	31028.77
527.77	31258.15
527.97	31323.68
528.17	31505.95
528.38	31551.01
528.58	31667.74
528.78	31837.72
528.99	31620.64
529.19	32060.95
529.39	31591.97
529.60	32165.40
529.80	31974.94
530.00	32101.91
530.21	32349.71
530.41	32648.72
530.61	32034.33
530.82	32149.01
531.02	32456.21
531.22	32597.52
531.43	32405.01
531.63	32712.20
531.83	33146.37
532.04	33414.66
532.24	32599.57
532.44	33259.01
532.64	33439.23
532.85	33398.27
533.05	33265.16
533.25	33707.52
533.46	33369.60
533.66	33969.66
533.86	33482.24
534.07	33975.80
534.27	33924.60
534.47	33809.92
534.67	34414.07
534.88	33959.42
535.08	34147.83
535.28	34610.67
535.49	34596.34
535.69	34588.14
535.89	34754.03
536.09	34520.56
536.30	34926.06
536.50	34870.76
536.70	35038.70
536.91	34821.61
537.11	35024.36
537.31	35567.07
537.51	35366.37
537.72	35292.65
537.92	35411.43
538.12	35880.41
538.32	35642.85
538.53	35991.00
538.73	35571.17
538.93	35964.38
539.13	35919.32
539.34	35956.19
539.54	36072.92
539.74	36324.82
539.94	36050.39
540.15	35945.95
540.35	36394.45
540.55	36703.70
540.75	36435.41
540.96	36597.20
541.16	36816.33
541.36	37027.28
541.56	36595.15
541.77	37389.77
541.97	37461.44
542.17	36920.78
542.37	37641.67
542.58	37541.32
542.78	37291.46
542.98	37357.00
543.18	37498.31
543.38	37754.30
543.59	38038.97
543.79	37563.84
543.99	37979.58
544.19	38028.73
544.40	37961.15
544.60	38593.97
544.80	38225.34
545.00	38536.63
545.20	38921.65
545.41	38446.52
545.61	38366.65
545.81	38720.95
546.01	38593.97
546.21	39089.58
546.42	38972.85
546.62	38821.30
546.82	38876.59
547.02	39237.03
547.22	39032.24
547.43	39368.10
547.63	39140.78
547.83	39620.00
548.03	39384.49
548.23	39495.08
548.44	39738.79
548.64	40082.84
548.84	39712.16
549.04	39404.97
549.24	39943.58
549.45	40347.03
549.65	39579.04
549.85	39892.38
550.05	40408.47
550.25	40181.15
550.45	40822.16
550.66	40461.72
550.86	40060.32
551.06	40613.27
551.26	40744.34
551.46	40715.67
551.66	40908.18
551.87	41041.29
552.07	41067.92
552.27	40740.24
552.47	40820.11
552.67	41405.83
552.87	40940.94
553.07	41323.91
553.28	41622.92
553.48	41713.03
553.68	41219.47
553.88	41407.88
554.08	41366.92
554.28	41393.54
554.48	41362.82
554.69	41715.08
554.89	41860.48
555.09	41952.64
555.29	41694.60
555.49	41928.06
555.69	42397.05
555.89	42087.81
556.10	42265.98
556.30	42024.32
556.50	42300.79
556.70	42098.05
556.90	42380.67
557.10	42616.18
557.30	42392.95
557.50	42607.99
557.70	42847.60
557.91	42837.36
558.11	42554.74
558.31	42878.32
558.51	42605.94
558.71	42792.31
558.91	42599.80
559.11	42769.78
559.31	42761.59
559.51	42595.70
559.72	42941.81
559.92	42970.48
560.12	42820.98
560.32	43310.44
560.52	42788.21
560.72	43595.11
560.92	43355.50
561.12	43349.35
561.32	43337.07
561.52	43054.45
561.72	43691.37
561.93	43500.90
562.13	43642.21
562.33	43480.42
562.53	44141.92
562.73	43648.36
562.93	43703.65
563.13	43556.20
563.33	43820.39
563.53	44103.01
563.73	43937.12
563.93	43865.44
564.13	44504.41
564.33	43699.56
564.53	44012.90
564.74	44141.92
564.94	44045.66
565.14	44242.27
565.34	44555.61
565.54	44344.67
565.74	44389.72
565.94	44363.10
566.14	44578.14
566.34	44354.91
566.54	44750.17
566.74	44481.88
566.94	44784.98
567.14	44569.94
567.34	44277.08
567.54	44866.90
567.74	44766.55
567.94	44457.31
568.14	44631.38
568.34	45034.83
568.54	44782.93
568.74	45135.18
568.94	44948.82
569.14	44952.91
569.34	44750.17
569.54	44803.41
569.75	44639.57
569.95	45036.88
570.15	45235.53
570.35	45157.71
570.55	45077.84
570.75	44907.86
570.95	45002.07
571.15	45170.00
571.35	45253.97
571.55	45114.70
571.75	45145.42
571.95	45483.34
572.15	45286.73
572.35	45602.12
572.55	45479.24
572.75	45124.94
572.95	45641.03
573.15	45446.47
573.35	45602.12
573.55	45151.57
573.75	45434.19
573.95	45733.19
574.15	45577.54
574.35	45602.12
574.55	45522.25
574.75	45739.33
574.95	45718.85
575.15	45559.11
575.34	45829.44
575.54	45806.92
575.74	46021.95
575.94	45808.96
576.14	45804.87
576.34	46363.96
576.54	46245.18
576.74	46296.38
576.94	45960.51
577.14	46232.89
577.34	46202.18
577.54	45741.38
577.74	46357.82
577.94	46507.32
578.14	46535.99
578.34	46368.06
578.54	45569.35
578.74	46359.87
578.94	46384.44
579.14	46280.00
579.34	46054.72
579.54	46671.16
579.74	46855.48
579.94	46890.29
580.13	46654.78
580.33	46748.98
580.53	46726.46
580.73	46699.83
580.93	46619.96
581.13	46652.73
581.33	47064.37
581.53	46939.44
581.73	46914.87
581.93	47346.99
582.13	47154.48
582.33	46626.10
582.53	46652.73
582.73	46730.55
582.92	46828.85
583.12	47328.56
583.32	46732.60
583.52	47017.27
583.72	47441.20
583.92	47158.58
584.12	47437.10
584.32	47834.41
584.52	47244.59
584.72	47510.83
584.92	47437.10
585.11	48067.87
585.31	47484.20
585.51	47832.36
585.71	47320.37
585.91	47973.67
586.11	47418.67
586.31	47887.65
586.51	47613.23
586.71	47713.58
586.91	47691.05
587.10	47979.81
587.30	48045.35
587.50	47635.75
587.70	48276.77
587.90	47951.14
588.10	48153.89
588.30	48420.13
588.50	48157.99
