SpectraSuite Data File
++++++++++++++++++++++++++++++++++++
Date: Fri Jun 02 14:47:58 CEST 2017
User: INFO_000
Dark Spectrum Present: No
Reference Spectrum Present: No
Number of Sampled Component Spectra: 1
Spectrometers: USB4H00879
Integration Time (usec): 80000 (USB4H00879)
Spectra Averaged: 1 (USB4H00879)
Boxcar Smoothing: 0 (USB4H00879)
Correct for Electrical Dark: No (USB4H00879)
Strobe/Lamp Enabled: No (USB4H00879)
Correct for Detector Non-linearity: No (USB4H00879)
Correct for Stray Light: No (USB4H00879)
Number of Pixels in Processed Spectrum: 3648
>>>>>Begin Processed Spectral Data<<<<<
345.13	1341.42
345.34	1341.42
345.56	1341.42
345.78	1282.03
345.99	1296.36
346.21	1619.94
346.42	1714.15
346.64	1632.23
346.86	1753.06
347.07	1658.85
347.29	1693.67
347.50	1646.57
347.72	1716.20
347.94	1736.68
348.15	1646.57
348.37	1656.81
348.59	1712.10
348.80	1720.29
349.02	1724.39
349.23	1880.04
349.45	1818.60
349.67	1959.91
349.88	1783.78
350.10	1929.19
350.31	1867.75
350.53	1847.27
350.75	2019.30
350.96	1714.15
351.18	1847.27
351.39	1773.54
351.61	1779.68
351.82	1910.75
352.04	1914.85
352.26	1830.88
352.47	1947.62
352.69	1933.28
352.90	1771.49
353.12	1789.92
353.34	1798.12
353.55	1910.75
353.77	1908.71
353.98	1841.12
354.20	1822.69
354.41	1912.80
354.63	1902.56
354.85	2011.11
355.06	1892.32
355.28	1826.79
355.49	1918.95
355.71	1851.36
355.92	1882.08
356.14	1918.95
356.35	1886.18
356.57	1884.13
356.79	1884.13
357.00	1871.84
357.22	1994.72
357.43	1916.90
357.65	1886.18
357.86	1855.46
358.08	1964.00
358.29	1951.71
358.51	2017.25
358.72	1970.15
358.94	1920.99
359.16	1927.14
359.37	1927.14
359.59	1966.05
359.80	2033.63
360.02	1898.47
360.23	1955.81
360.45	2025.44
360.66	1953.76
360.88	1865.70
361.09	1859.56
361.31	2062.30
361.52	1900.52
361.74	2043.87
361.95	1968.10
362.17	1986.53
362.38	2062.30
362.60	1998.82
362.81	2027.49
363.03	1949.67
363.24	2025.44
363.46	2068.45
363.67	2021.35
363.89	1937.38
364.10	1968.10
364.32	1941.47
364.53	2033.63
364.75	1910.75
364.96	2011.11
365.18	2041.82
365.39	1966.05
365.61	1941.47
365.82	2097.12
366.04	2023.39
366.25	2011.11
366.47	2056.16
366.68	2078.69
366.90	1992.67
367.11	2045.92
367.33	2076.64
367.54	2009.06
367.76	2002.91
367.97	2062.30
368.19	2047.97
368.40	2076.64
368.62	1875.94
368.83	1947.62
369.05	2023.39
369.26	2007.01
369.48	2052.06
369.69	1990.63
369.91	2131.94
370.12	2031.58
370.33	2217.95
370.55	1992.67
370.76	1986.53
370.98	2101.22
371.19	2027.49
371.41	1949.67
371.62	2056.16
371.84	2054.11
372.05	2179.04
372.27	2109.41
372.48	2060.26
372.69	2037.73
372.91	2105.31
373.12	2117.60
373.34	2082.78
373.55	2101.22
373.77	2183.13
373.98	2121.70
374.20	2115.55
374.41	2283.49
374.62	2050.02
374.84	2215.90
375.05	2168.80
375.27	2199.52
375.48	2097.12
375.70	2168.80
375.91	2226.14
376.12	2357.21
376.34	2207.71
376.55	2248.67
376.77	2150.37
376.98	2166.75
377.19	2123.74
377.41	2193.37
377.62	2199.52
377.84	2269.15
378.05	2314.20
378.27	2236.38
378.48	2277.34
378.69	2334.68
378.91	2342.88
379.12	2201.57
379.34	2164.70
379.55	2289.63
379.76	2260.96
379.98	2240.48
380.19	2267.10
380.41	2248.67
380.62	2234.33
380.83	2234.33
381.05	2156.51
381.26	2369.50
381.47	2197.47
381.69	2232.29
381.90	2365.40
382.12	2346.97
382.33	2314.20
382.54	2344.92
382.76	2406.36
382.97	2314.20
383.19	2277.34
383.40	2412.51
383.61	2306.01
383.83	2297.82
384.04	2279.39
384.25	2400.22
384.47	2424.80
384.68	2275.29
384.89	2371.55
385.11	2420.70
385.32	2322.40
385.54	2265.05
385.75	2396.12
385.96	2328.54
386.18	2371.55
386.39	2514.91
386.60	2293.72
386.82	2373.60
387.03	2408.41
387.24	2412.51
387.46	2514.91
387.67	2504.67
387.88	2428.89
388.10	2527.19
388.31	2473.95
388.52	2547.67
388.74	2533.34
388.95	2523.10
389.16	2553.82
389.38	2510.81
389.59	2580.44
389.80	2611.16
390.02	2519.00
390.23	2695.13
390.44	2639.83
390.66	2465.75
390.87	2420.70
391.08	2516.95
391.30	2656.22
391.51	2586.58
391.72	2656.22
391.94	2598.87
392.15	2588.63
392.36	2621.40
392.58	2619.35
392.79	2715.61
393.00	2664.41
393.22	2684.89
393.43	2680.79
393.64	2807.77
393.85	2717.65
394.07	2680.79
394.28	2672.60
394.49	2770.90
394.71	2779.09
394.92	2908.12
395.13	2717.65
395.35	2686.94
395.56	2682.84
395.77	2793.43
395.98	2828.24
396.20	2844.63
396.41	2805.72
396.62	2809.81
396.84	2951.12
397.05	2772.95
397.26	2867.16
397.47	2930.64
397.69	2938.84
397.90	3131.34
398.11	2918.36
398.32	2871.25
398.54	2918.36
398.75	2904.02
398.96	2904.02
399.18	3067.86
399.39	2895.83
399.60	3022.80
399.81	2908.12
400.03	2936.79
400.24	3160.02
400.45	2932.69
400.66	3035.09
400.88	3096.53
401.09	3121.10
401.30	3030.99
401.51	3243.98
401.73	3135.44
401.94	3143.63
402.15	3082.19
402.36	3147.73
402.58	3153.87
402.79	3180.50
403.00	3127.25
403.21	3231.69
403.43	3162.06
403.64	3203.02
403.85	3078.10
404.06	3254.22
404.27	3069.91
404.49	3172.30
404.70	3207.12
404.91	3286.99
405.12	3231.69
405.34	3252.17
405.55	3469.26
405.76	3168.21
405.97	3200.98
406.19	3440.59
406.40	3284.94
406.61	3334.09
406.82	3366.86
407.03	3299.28
407.25	3239.89
407.46	3491.79
407.67	3456.97
407.88	3416.01
408.09	3416.01
408.31	3393.48
408.52	3379.15
408.73	3356.62
408.94	3405.77
409.15	3444.68
409.37	3502.03
409.58	3375.05
409.79	3614.66
410.00	3479.50
410.21	3379.15
410.43	3393.48
410.64	3409.87
410.85	3477.45
411.06	3411.92
411.27	3592.14
411.48	3567.56
411.70	3420.11
411.91	3559.37
412.12	3540.94
412.33	3510.22
412.54	3585.99
412.76	3643.34
412.97	3547.08
413.18	3583.95
413.39	3686.34
413.60	3549.13
413.81	3563.47
414.03	3608.52
414.24	3545.03
414.45	3796.93
414.66	3538.89
414.87	3655.62
415.08	3809.22
415.30	3651.53
415.51	3758.02
415.72	3772.36
415.93	3708.87
416.14	3852.23
416.35	3839.94
416.56	3819.46
416.78	3817.41
416.99	3882.95
417.20	3846.09
417.41	3862.47
417.62	3887.04
417.83	3829.70
418.04	3919.81
418.26	3907.52
418.47	3952.58
418.68	4065.22
418.89	3964.87
419.10	4075.46
419.31	3917.76
419.52	4030.40
419.73	4100.03
419.95	4069.31
420.16	3952.58
420.37	4069.31
420.58	4067.27
420.79	3846.09
421.00	4077.51
421.21	4190.14
421.42	4071.36
421.63	4159.42
421.85	4095.94
422.06	4196.29
422.27	4194.24
422.48	4261.82
422.69	4196.29
422.90	4196.29
423.11	4272.06
423.32	4302.78
423.53	4460.48
423.75	4261.82
423.96	4413.37
424.17	4446.14
424.38	4540.35
424.59	4386.75
424.80	4603.83
425.01	4399.04
425.22	4466.62
425.43	4378.56
425.64	4663.22
425.85	4562.87
426.06	4591.55
426.28	4460.48
426.49	4550.59
426.70	4554.68
426.91	4702.14
427.12	4681.66
427.33	4749.24
427.54	4583.35
427.75	4863.93
427.96	4921.27
428.17	4775.86
428.38	4872.12
428.59	4933.56
428.80	4796.34
429.01	4915.12
429.23	4810.68
429.44	4958.13
429.65	4949.94
429.86	4894.65
430.07	4833.21
430.28	4847.54
430.49	4931.51
430.70	5031.86
430.91	5091.25
431.12	5013.43
431.33	5097.39
431.54	5136.31
431.75	5052.34
431.96	5058.48
432.17	5021.62
432.38	5072.82
432.59	5298.10
432.80	5353.39
433.01	5281.71
433.22	5349.29
433.43	5238.70
433.64	5304.24
433.85	5150.64
434.06	5261.23
434.27	5230.51
434.49	5328.81
434.70	5496.75
434.91	5453.74
435.12	5339.05
435.33	5453.74
435.54	5412.78
435.75	5326.77
435.96	5337.01
436.17	5261.23
436.38	5560.24
436.59	5562.28
436.80	5541.80
437.01	5736.36
437.22	5570.48
437.43	5509.04
437.64	5427.12
437.85	5810.09
438.06	5746.60
438.27	5590.95
438.48	5734.31
438.69	5787.56
438.90	5588.91
439.11	5689.26
439.32	5844.90
439.53	5687.21
439.74	5873.57
439.95	5990.31
440.16	5900.20
440.37	5879.72
440.57	5715.88
440.78	5904.29
440.99	5920.68
441.20	5879.72
441.41	5937.06
441.62	5937.06
441.83	5773.22
442.04	5877.67
442.25	6051.75
442.46	6055.84
442.67	6283.17
442.88	6442.91
443.09	6076.32
443.30	6143.91
443.51	5988.26
443.72	6377.37
443.93	6066.08
444.14	6385.57
444.35	6051.75
444.56	6285.22
444.77	6084.52
444.98	6264.74
445.19	6416.29
445.40	6356.90
445.61	6311.84
445.81	6700.95
446.02	6518.68
446.23	6414.24
446.44	6277.02
446.65	6397.85
446.86	6522.78
447.07	6401.95
447.28	6680.47
447.49	6475.68
447.70	6541.21
447.91	6637.47
448.12	6633.37
448.33	6764.44
448.54	6721.43
448.74	6623.13
448.95	6823.83
449.16	6735.77
449.37	6934.42
449.58	6727.58
449.79	7057.30
450.00	6762.39
450.21	6887.32
450.42	6965.14
450.63	6948.76
450.84	6862.74
451.05	6989.72
451.25	7055.25
451.46	7002.01
451.67	6971.29
451.88	7198.61
452.09	7198.61
452.30	7030.68
452.51	7114.64
452.72	7360.40
452.93	7423.89
453.13	7147.41
453.34	7098.26
453.55	7286.67
453.76	7247.76
453.97	7653.26
454.18	7399.31
454.39	7411.60
454.60	7542.67
454.81	7468.94
455.01	7698.31
455.22	7440.27
455.43	7720.84
455.64	7982.98
455.85	7817.10
456.06	8058.76
456.27	7862.15
456.48	7847.82
456.68	7823.24
456.89	7810.95
457.10	7915.40
457.31	7739.27
457.52	7917.45
457.73	7982.98
457.94	8249.22
458.14	7878.54
458.35	8368.00
458.56	8218.50
458.77	8062.85
458.98	8265.60
459.19	8261.51
459.39	8406.91
459.60	8419.20
459.81	8226.69
460.02	8433.54
460.23	8562.56
460.44	8621.95
460.65	8580.99
460.85	8767.35
461.06	8728.44
461.27	8617.85
461.48	8963.96
461.69	8834.94
461.89	8877.94
462.10	8879.99
462.31	8695.68
462.52	8783.74
462.73	8953.72
462.94	9170.80
463.14	8943.48
463.35	8953.72
463.56	9484.14
463.77	9275.25
463.98	9129.84
464.18	9187.19
464.39	9504.62
464.60	9539.44
464.81	9559.92
465.02	9488.24
465.23	9779.05
465.43	9688.94
465.64	9826.15
465.85	9727.85
466.06	9899.88
466.27	10063.72
466.47	9930.60
466.68	9996.14
466.89	10002.28
467.10	10100.58
467.30	9848.68
467.51	10250.08
467.72	10372.96
467.93	10131.30
468.14	10409.83
468.34	10485.60
468.55	10344.29
468.76	10268.52
468.97	10444.64
469.17	10592.09
469.38	10506.08
469.59	10710.88
469.80	10379.11
470.01	10788.70
470.21	10884.95
470.42	10958.68
470.63	11169.62
470.84	11067.22
471.04	11224.92
471.25	11261.78
471.46	11290.45
471.67	11429.71
471.87	11339.60
472.08	11521.87
472.29	11741.00
472.50	11231.06
472.70	11392.85
472.91	11495.25
473.12	11814.73
473.33	11792.20
473.53	12152.65
473.74	11792.20
473.95	12111.69
474.16	12453.70
474.36	12222.28
474.57	12160.84
474.78	12476.23
474.99	12541.76
475.19	12394.31
475.40	12676.93
475.61	12697.41
475.81	12875.58
476.02	13057.85
476.23	12810.04
476.44	13078.33
476.64	13338.42
476.85	13250.36
477.06	13483.83
477.27	13471.54
477.47	13618.99
477.68	13612.85
477.89	13770.54
478.09	13938.48
478.30	13862.70
478.51	13727.53
478.71	14071.59
478.92	14120.74
479.13	14313.25
479.34	14354.21
479.54	14454.56
479.75	14456.61
479.96	14642.98
480.16	14692.13
480.37	14554.91
480.58	14991.13
480.78	15204.12
480.99	15128.35
481.20	15187.74
481.41	15111.96
481.61	15300.37
481.82	15447.83
482.03	15388.44
482.23	15470.36
482.44	15879.95
482.65	15767.31
482.85	15707.92
483.06	15652.63
483.27	15644.43
483.47	16154.38
483.68	16037.64
483.89	16297.74
484.09	16273.16
484.30	16514.82
484.51	16570.12
484.71	16676.61
484.92	16502.53
485.13	17035.00
485.33	16998.14
485.54	16869.12
485.75	17086.20
485.95	17362.68
486.16	17231.61
486.37	17401.59
486.57	17295.10
486.78	17438.45
486.98	17463.03
487.19	17768.18
487.40	17862.38
487.60	17755.89
487.81	18276.07
488.02	18036.46
488.22	18050.80
488.43	18261.74
488.64	18134.76
488.84	18595.56
489.05	18933.47
489.25	18724.58
489.46	18599.65
489.67	18673.38
489.87	18814.69
490.08	19283.67
490.29	19119.84
490.49	19381.98
490.70	19349.21
490.90	19463.90
491.11	19281.63
491.32	19422.94
491.52	19435.22
491.73	19465.94
491.94	19848.91
492.14	19703.51
492.35	19863.25
492.55	20004.56
492.76	19932.88
492.97	20479.69
493.17	20324.04
493.38	20211.40
493.58	20629.19
493.79	20563.65
494.00	20647.62
494.20	20653.76
494.41	20811.46
494.61	20915.90
494.82	21040.83
495.02	20821.70
495.23	20901.57
495.44	21362.36
495.64	21446.33
495.85	21411.51
496.05	21614.26
496.26	21784.24
496.47	21860.02
496.67	21618.36
496.88	22027.95
497.08	21743.28
497.29	22095.53
497.49	22070.96
497.70	22312.62
497.91	22412.97
498.11	22402.73
498.32	22531.75
498.52	22740.64
498.73	22658.73
498.93	22482.60
499.14	22589.10
499.34	23025.31
499.55	23283.36
499.76	22890.15
499.96	22953.63
500.17	23174.81
500.37	23359.13
500.58	23277.21
500.78	23396.00
500.99	23133.86
501.19	23514.78
501.40	23561.88
501.60	23416.47
501.81	23821.97
502.02	24024.72
502.22	23731.86
502.43	23746.20
502.63	24182.42
502.84	24088.21
503.04	24108.69
503.25	24094.35
503.45	24149.65
503.66	24549.00
503.86	24176.27
504.07	24690.31
504.27	24510.09
504.48	24774.28
504.68	24698.50
504.89	25052.80
505.09	25233.02
505.30	25196.16
505.50	24841.86
505.71	24854.15
505.91	25097.86
506.12	25095.81
506.32	25308.80
506.53	25187.97
506.73	25480.83
506.94	25613.95
507.14	25308.80
507.35	25652.86
507.55	25656.95
507.76	25702.01
507.96	25720.44
508.17	25638.52
508.37	25439.87
508.58	25904.76
508.78	26039.92
508.99	26105.46
509.19	26150.51
509.40	26322.54
509.60	25949.81
509.81	26173.04
510.01	26330.73
510.22	26154.61
510.42	26510.96
510.63	26543.72
510.83	26517.10
511.04	26441.32
511.24	26478.19
511.44	26558.06
511.65	26662.51
511.85	26599.02
512.06	26590.83
512.26	26891.88
512.47	26875.49
512.67	26977.89
512.88	27022.95
513.08	26760.81
513.29	26875.49
513.49	27090.53
513.69	26875.49
513.90	27358.81
514.10	27471.45
514.31	27244.13
514.51	27412.06
514.72	27467.36
514.92	27278.94
515.13	27510.36
515.33	27424.35
515.53	27713.11
515.74	27573.85
515.94	27823.70
516.15	27860.57
516.35	27477.60
516.56	27627.10
516.76	27735.64
516.96	27872.85
517.17	27856.47
517.37	27876.95
517.58	28159.57
517.78	28223.06
517.99	28057.17
518.19	28427.85
518.39	28264.02
518.60	28266.06
518.80	28067.41
519.01	29091.40
519.21	28728.91
519.41	28642.89
519.62	28497.49
519.82	28628.56
520.03	29034.05
520.23	28835.40
520.43	29042.24
520.64	29011.53
520.84	29447.74
521.05	29263.43
521.25	29027.91
521.45	29259.33
521.66	29320.77
521.86	29232.71
522.07	29322.82
522.27	29562.43
522.47	29611.58
522.68	29722.17
522.88	29529.66
523.08	30070.33
523.29	29959.73
523.49	30004.79
523.70	30010.93
523.90	30508.59
524.10	30006.84
524.31	30453.30
524.51	30027.32
524.71	30371.38
524.92	30455.34
525.12	30541.36
525.33	30432.82
525.53	30817.83
525.73	31088.17
525.94	30414.38
526.14	31039.01
526.34	31153.70
526.55	30905.90
526.75	31155.75
526.95	31229.48
527.16	31329.83
527.36	31411.74
527.56	31434.27
527.77	31548.96
527.97	31626.78
528.17	31561.25
528.38	31612.45
528.58	31850.01
528.78	31976.98
528.99	31743.52
529.19	32566.80
529.39	31936.02
529.60	32259.60
529.80	32071.19
530.00	32484.88
530.21	32687.63
530.41	32296.47
530.61	32587.28
530.82	32599.57
531.02	32390.67
531.22	32994.82
531.43	32970.25
531.63	32962.06
531.83	33404.42
532.04	33850.88
532.24	33535.49
532.44	33523.20
532.64	33564.16
532.85	33793.53
533.05	33623.55
533.25	33711.61
533.46	33373.70
533.66	34379.25
533.86	34039.29
534.07	34665.97
534.27	34465.27
534.47	34328.05
534.67	34549.23
534.88	34250.23
535.08	34688.49
535.28	34950.63
535.49	35083.75
535.69	35120.62
535.89	34842.09
536.09	34913.77
536.30	35663.33
536.50	35235.30
536.70	35591.65
536.91	35571.17
537.11	35259.88
537.31	35618.27
537.51	35818.97
537.72	36312.53
537.92	35831.26
538.12	36091.35
538.32	36355.54
538.53	36347.35
538.73	36296.15
538.93	36388.31
539.13	36277.72
539.34	36580.82
539.54	36855.25
539.74	36992.46
539.94	36455.89
540.15	36507.09
540.35	36867.53
540.55	37017.04
540.75	37318.09
540.96	37266.89
541.16	37539.27
541.36	37516.74
541.56	37043.66
541.77	37803.46
541.97	37639.62
542.17	37504.45
542.37	37856.70
542.58	37909.95
542.78	38063.55
542.98	37922.24
543.18	38337.98
543.38	38432.18
543.59	38159.80
543.79	37926.33
543.99	38038.97
544.19	38493.62
544.40	38356.41
544.60	38712.75
544.80	38319.54
545.00	38366.65
545.20	39155.11
545.41	38520.24
545.61	38847.92
545.81	38938.03
546.01	39151.02
546.21	39163.31
546.42	39341.48
546.62	39210.41
546.82	38823.34
547.02	39464.36
547.22	39321.00
547.43	39450.02
547.63	39785.89
547.83	40299.93
548.03	39275.94
548.23	39730.59
548.44	39777.70
548.64	39812.51
548.84	39982.49
549.04	40121.76
549.24	40400.28
549.45	40383.90
549.65	39900.58
549.85	40347.03
550.05	40035.74
550.25	40424.86
550.45	41164.17
550.66	40627.60
550.86	40445.33
551.06	40789.39
551.26	40588.69
551.46	40715.67
551.66	40709.52
551.87	41051.53
552.07	41096.59
552.27	40779.15
552.47	41534.85
552.67	40953.23
552.87	41102.73
553.07	40951.18
553.28	41500.04
553.48	41538.95
553.68	41334.15
553.88	41461.13
554.08	41104.78
554.28	41182.60
554.48	41606.53
554.69	41467.27
554.89	41696.64
555.09	41784.71
555.29	41336.20
555.49	41991.55
555.69	41969.02
555.89	42016.13
556.10	42304.89
556.30	42030.46
556.50	42229.12
556.70	41856.39
556.90	42329.47
557.10	41966.98
557.30	41966.98
557.50	42431.86
557.70	42319.23
557.91	42407.29
558.11	42261.88
558.31	42730.87
558.51	42554.74
558.71	42464.63
558.91	42610.04
559.11	42159.48
559.31	42763.64
559.51	42841.46
559.72	42421.62
559.92	43160.94
560.12	42653.05
560.32	42710.39
560.52	42458.49
560.72	43046.26
560.92	43040.11
561.12	43146.61
561.32	43623.78
561.52	42894.71
561.72	43474.28
561.93	43267.44
562.13	43214.19
562.33	43156.85
562.53	43711.84
562.73	43103.60
562.93	43349.35
563.13	43599.21
563.33	43300.20
563.53	43615.59
563.73	43058.54
563.93	43253.10
564.13	43861.35
564.33	43253.10
564.53	42993.01
564.74	43582.82
564.94	43416.94
565.14	43793.76
565.34	43658.60
565.54	43824.48
565.74	43660.65
565.94	44025.18
566.14	43920.74
566.34	43836.77
566.54	44209.50
566.74	43621.73
566.94	44148.06
567.14	43828.58
567.34	43994.46
567.54	44494.17
567.74	44375.39
567.94	43900.26
568.14	44569.94
568.34	44455.26
568.54	44227.93
568.74	44334.43
568.94	44459.35
569.14	44752.21
569.34	44283.23
569.54	44696.92
569.75	43818.34
569.95	44623.19
570.15	44748.12
570.35	44438.87
570.55	44774.74
570.75	44504.41
570.95	44979.54
571.15	45186.38
571.35	44909.91
571.55	44993.87
571.75	45374.80
571.95	44856.66
572.15	44918.10
572.35	45032.78
572.55	44813.65
572.75	45155.66
572.95	44741.97
573.15	45159.76
573.35	45237.58
573.55	44922.19
573.75	45471.05
573.95	45323.60
574.15	45030.74
574.35	45520.20
574.55	45065.55
574.75	45243.73
574.95	45296.97
575.15	45577.54
575.34	45493.58
575.54	45784.39
575.74	45931.84
575.94	45432.14
576.14	45325.64
576.34	45952.32
576.54	45980.99
576.74	45827.40
576.94	45401.42
577.14	45821.25
577.34	46056.77
577.54	45698.37
577.74	46122.30
577.94	46638.39
578.14	45813.06
578.34	45892.93
578.54	45536.59
578.74	45817.16
578.94	46007.62
579.14	46300.48
579.34	46236.99
579.54	46150.98
579.74	46593.34
579.94	46501.18
580.13	47113.52
580.33	46714.17
580.53	46390.59
580.73	46669.11
580.93	46728.50
581.13	46329.15
581.33	46712.12
581.53	46914.87
581.73	46970.16
581.93	46863.67
582.13	46986.55
582.33	47310.13
582.53	47002.93
582.73	46791.99
582.92	47570.22
583.12	47713.58
583.32	46978.36
583.52	46884.15
583.72	47351.09
583.92	47217.97
584.12	47240.50
584.32	47803.69
584.52	47445.29
584.72	47412.52
584.92	47635.75
585.11	48041.25
585.31	47521.07
585.51	47691.05
585.71	47435.05
585.91	47754.54
586.11	47822.12
586.31	47510.83
586.51	47875.37
586.71	48069.92
586.91	48100.64
587.10	47934.76
587.30	48168.22
587.50	48254.24
587.70	48413.98
587.90	48022.82
588.10	48289.06
588.30	48467.23
588.50	48338.21
