SpectraSuite Data File
++++++++++++++++++++++++++++++++++++
Date: Fri Jun 02 14:47:59 CEST 2017
User: INFO_000
Dark Spectrum Present: No
Reference Spectrum Present: No
Number of Sampled Component Spectra: 1
Spectrometers: USB4H00879
Integration Time (usec): 80000 (USB4H00879)
Spectra Averaged: 1 (USB4H00879)
Boxcar Smoothing: 0 (USB4H00879)
Correct for Electrical Dark: No (USB4H00879)
Strobe/Lamp Enabled: No (USB4H00879)
Correct for Detector Non-linearity: No (USB4H00879)
Correct for Stray Light: No (USB4H00879)
Number of Pixels in Processed Spectrum: 3648
>>>>>Begin Processed Spectral Data<<<<<
345.13	1298.41
345.34	1298.41
345.56	1298.41
345.78	1368.04
345.99	1304.56
346.21	1675.24
346.42	1679.33
346.64	1609.70
346.86	1798.12
347.07	1681.38
347.29	1757.16
347.50	1683.43
347.72	1650.66
347.94	1695.72
348.15	1550.31
348.37	1683.43
348.59	1658.85
348.80	1658.85
349.02	1710.05
349.23	1841.12
349.45	1816.55
349.67	1867.75
349.88	1761.25
350.10	2007.01
350.31	1843.17
350.53	1818.60
350.75	2000.87
350.96	1748.97
351.18	1853.41
351.39	1855.46
351.61	1820.64
351.82	1834.98
352.04	1857.51
352.26	1828.84
352.47	1859.56
352.69	1890.28
352.90	1765.35
353.12	1910.75
353.34	1761.25
353.55	1951.71
353.77	1871.84
353.98	1765.35
354.20	1812.45
354.41	1855.46
354.63	1964.00
354.85	2035.68
355.06	1914.85
355.28	1806.31
355.49	1910.75
355.71	1826.79
355.92	1904.61
356.14	2002.91
356.35	1853.41
356.57	1802.21
356.79	1902.56
357.00	1871.84
357.22	1992.67
357.43	1728.49
357.65	2009.06
357.86	1918.95
358.08	1916.90
358.29	1949.67
358.51	2017.25
358.72	1900.52
358.94	2002.91
359.16	2017.25
359.37	1912.80
359.59	1912.80
359.80	2011.11
360.02	1923.04
360.23	1959.91
360.45	2023.39
360.66	1828.84
360.88	1863.65
361.09	1906.66
361.31	2009.06
361.52	2021.35
361.74	2027.49
361.95	1982.43
362.17	1970.15
362.38	2011.11
362.60	2056.16
362.81	1978.34
363.03	1906.66
363.24	2007.01
363.46	2090.98
363.67	2021.35
363.89	1994.72
364.10	2064.35
364.32	1998.82
364.53	1945.57
364.75	1910.75
364.96	1951.71
365.18	2004.96
365.39	1996.77
365.61	2029.54
365.82	2072.54
366.04	2043.87
366.25	1931.23
366.47	2004.96
366.68	2035.68
366.90	1957.86
367.11	2002.91
367.33	1994.72
367.54	2019.30
367.76	1978.34
367.97	2050.02
368.19	2068.45
368.40	2047.97
368.62	2000.87
368.83	1943.52
369.05	2047.97
369.26	2013.15
369.48	1908.71
369.69	1980.39
369.91	2023.39
370.12	1998.82
370.33	2109.41
370.55	2033.63
370.76	2076.64
370.98	2047.97
371.19	1990.63
371.41	2011.11
371.62	2140.13
371.84	2002.91
372.05	2152.42
372.27	2076.64
372.48	2084.83
372.69	2093.02
372.91	2181.09
373.12	2115.55
373.34	2084.83
373.55	2125.79
373.77	2086.88
373.98	2070.50
374.20	2133.98
374.41	2275.29
374.62	2140.13
374.84	2127.84
375.05	2222.05
375.27	2119.65
375.48	2217.95
375.70	2109.41
375.91	2131.94
376.12	2193.37
376.34	2183.13
376.55	2217.95
376.77	2226.14
376.98	2170.85
377.19	2095.07
377.41	2138.08
377.62	2242.53
377.84	2260.96
378.05	2199.52
378.27	2346.97
378.48	2340.83
378.69	2273.25
378.91	2215.90
379.12	2250.72
379.34	2275.29
379.55	2256.86
379.76	2185.18
379.98	2133.98
380.19	2314.20
380.41	2316.25
380.62	2312.16
380.83	2258.91
381.05	2224.09
381.26	2437.08
381.47	2260.96
381.69	2183.13
381.90	2363.36
382.12	2328.54
382.33	2297.82
382.54	2320.35
382.76	2334.68
382.97	2254.81
383.19	2250.72
383.40	2383.84
383.61	2254.81
383.83	2254.81
384.04	2342.88
384.25	2373.60
384.47	2416.60
384.68	2346.97
384.89	2256.86
385.11	2340.83
385.32	2355.16
385.54	2416.60
385.75	2334.68
385.96	2404.32
386.18	2443.23
386.39	2412.51
386.60	2357.21
386.82	2410.46
387.03	2394.08
387.24	2478.04
387.46	2334.68
387.67	2424.80
387.88	2484.19
388.10	2420.70
388.31	2568.15
388.52	2584.54
388.74	2521.05
388.95	2516.95
389.16	2568.15
389.38	2543.58
389.59	2590.68
389.80	2590.68
390.02	2588.63
390.23	2680.79
390.44	2621.40
390.66	2613.21
390.87	2592.73
391.08	2572.25
391.30	2664.41
391.51	2547.67
391.72	2705.37
391.94	2594.78
392.15	2652.12
392.36	2623.45
392.58	2670.55
392.79	2611.16
393.00	2633.69
393.22	2625.50
393.43	2826.20
393.64	2779.09
393.85	2856.92
394.07	2674.65
394.28	2752.47
394.49	2781.14
394.71	2699.22
394.92	2803.67
395.13	2768.85
395.35	2744.28
395.56	2764.76
395.77	2762.71
395.98	2838.48
396.20	2861.01
396.41	2764.76
396.62	2867.16
396.84	2783.19
397.05	2838.48
397.26	2910.16
397.47	2949.08
397.69	2775.00
397.90	2998.23
398.11	2922.45
398.32	2944.98
398.54	2918.36
398.75	2865.11
398.96	2875.35
399.18	3065.81
399.39	3041.23
399.60	3000.27
399.81	2891.73
400.03	2957.27
400.24	3276.75
400.45	2953.17
400.66	3063.76
400.88	2928.60
401.09	3106.77
401.30	3092.43
401.51	3166.16
401.73	3133.39
401.94	3160.02
402.15	3078.10
402.36	3127.25
402.58	3131.34
402.79	3151.82
403.00	3086.29
403.21	3104.72
403.43	3243.98
403.64	3252.17
403.85	3114.96
404.06	3284.94
404.27	3080.14
404.49	3137.49
404.70	3117.01
404.91	3317.71
405.12	3176.40
405.34	3223.50
405.55	3348.43
405.76	3084.24
405.97	3166.16
406.19	3442.64
406.40	3211.22
406.61	3295.18
406.82	3311.57
407.03	3289.04
407.25	3155.92
407.46	3387.34
407.67	3321.81
407.88	3440.59
408.09	3278.80
408.31	3364.81
408.52	3389.39
408.73	3432.40
408.94	3297.23
409.15	3459.02
409.37	3452.88
409.58	3473.36
409.79	3506.12
410.00	3487.69
410.21	3442.64
410.43	3407.82
410.64	3375.05
410.85	3524.55
411.06	3555.27
411.27	3542.99
411.48	3590.09
411.70	3440.59
411.91	3487.69
412.12	3629.00
412.33	3624.90
412.54	3413.96
412.76	3649.48
412.97	3749.83
413.18	3475.40
413.39	3651.53
413.60	3755.97
413.81	3715.02
414.03	3659.72
414.24	3684.30
414.45	3702.73
414.66	3577.80
414.87	3674.06
415.08	3723.21
415.30	3715.02
415.51	3758.02
415.72	3733.45
415.93	3690.44
416.14	3805.13
416.35	3831.75
416.56	3837.89
416.78	3921.86
416.99	3909.57
417.20	3841.99
417.41	3934.15
417.62	3878.85
417.83	3887.04
418.04	3917.76
418.26	3895.24
418.47	3887.04
418.68	4034.50
418.89	4067.27
419.10	3975.11
419.31	3964.87
419.52	4036.55
419.73	3921.86
419.95	4065.22
420.16	3942.34
420.37	4028.35
420.58	4110.27
420.79	4011.97
421.00	4050.88
421.21	4196.29
421.42	4067.27
421.63	4212.67
421.85	4063.17
422.06	4196.29
422.27	4118.47
422.48	4075.46
422.69	4247.49
422.90	4208.58
423.11	4210.62
423.32	4261.82
423.53	4435.90
423.75	4302.78
423.96	4423.61
424.17	4339.65
424.38	4483.00
424.59	4372.41
424.80	4487.10
425.01	4464.57
425.22	4493.24
425.43	4335.55
425.64	4593.59
425.85	4628.41
426.06	4569.02
426.28	4564.92
426.49	4421.56
426.70	4431.80
426.91	4687.80
427.12	4741.05
427.33	4640.70
427.54	4544.44
427.75	4728.76
427.96	4919.22
428.17	4698.04
428.38	4743.10
428.59	4825.01
428.80	4659.13
429.01	4747.19
429.23	4739.00
429.44	4904.89
429.65	4911.03
429.86	4810.68
430.07	4859.83
430.28	4835.25
430.49	4951.99
430.70	5087.15
430.91	5068.72
431.12	5074.87
431.33	5189.55
431.54	5171.12
431.75	5064.63
431.96	4990.90
432.17	5017.52
432.38	5074.87
432.59	5238.70
432.80	5169.07
433.01	5246.90
433.22	5246.90
433.43	5109.68
433.64	5115.83
433.85	5361.58
434.06	5271.47
434.27	5185.46
434.49	5222.32
434.70	5459.88
434.91	5377.97
435.12	5439.40
435.33	5375.92
435.54	5382.06
435.75	5244.85
435.96	5382.06
436.17	5416.88
436.38	5437.36
436.59	5541.80
436.80	5533.61
437.01	5689.26
437.22	5617.58
437.43	5617.58
437.64	5527.47
437.85	5621.67
438.06	5697.45
438.27	5568.43
438.48	5621.67
438.69	5738.41
438.90	5711.78
439.11	5631.91
439.32	5808.04
439.53	5754.79
439.74	5767.08
439.95	5679.02
440.16	5695.40
440.37	5877.67
440.57	5664.68
440.78	5961.64
440.99	5844.90
441.20	6021.03
441.41	5840.81
441.62	6008.74
441.83	5730.22
442.04	6107.04
442.25	5939.11
442.46	5883.81
442.67	6227.87
442.88	6416.29
443.09	5957.54
443.30	5986.21
443.51	6254.50
443.72	6332.32
443.93	6258.59
444.14	6303.65
444.35	6168.48
444.56	6352.80
444.77	6330.27
444.98	6326.18
445.19	6262.69
445.40	6250.40
445.61	6274.98
445.81	6406.05
446.02	6428.57
446.23	6512.54
446.44	6324.13
446.65	6442.91
446.86	6504.35
447.07	6492.06
447.28	6909.85
447.49	6703.00
447.70	6590.36
447.91	6703.00
448.12	6598.56
448.33	6797.21
448.54	6782.87
448.74	6754.20
448.95	6875.03
449.16	6578.08
449.37	7085.97
449.58	6954.90
449.79	7067.54
450.00	6754.20
450.21	6901.65
450.42	6967.19
450.63	6983.57
450.84	6893.46
451.05	7083.92
451.25	6903.70
451.46	7008.15
451.67	7067.54
451.88	7311.25
452.09	7217.04
452.30	7161.75
452.51	7131.03
452.72	7288.72
452.93	7626.64
453.13	7077.78
453.34	7229.33
453.55	7335.82
453.76	7313.30
453.97	7638.92
454.18	7475.09
454.39	7624.59
454.60	7548.81
454.81	7606.16
455.01	7630.73
455.22	7337.87
455.43	7683.98
455.64	7911.30
455.85	7962.50
456.06	8021.89
456.27	7753.61
456.48	7896.97
456.68	7993.22
456.89	7765.90
457.10	7892.87
457.31	7995.27
457.52	7772.04
457.73	8073.09
457.94	8281.99
458.14	7886.73
458.35	8548.22
458.56	8247.17
458.77	8216.45
458.98	8300.42
459.19	8308.61
459.39	8458.11
459.60	8587.13
459.81	8499.07
460.02	8609.66
460.23	8642.43
460.44	8753.02
460.65	8697.72
460.85	8793.98
461.06	8953.72
461.27	8492.93
461.48	8806.27
461.69	8855.42
461.89	8656.76
462.10	8857.46
462.31	8798.07
462.52	8759.16
462.73	8851.32
462.94	9162.61
463.14	9254.77
463.35	8818.55
463.56	9351.03
463.77	9340.79
463.98	9316.21
464.18	9299.83
464.39	9457.52
464.60	9551.73
464.81	9383.79
465.02	9482.10
465.23	9885.55
465.43	9531.25
465.64	9795.43
465.85	9768.81
466.06	9721.71
466.27	10159.97
466.47	9928.55
466.68	9895.78
466.89	9852.78
467.10	9908.07
467.30	9930.60
467.51	10026.86
467.72	10219.36
467.93	9887.59
468.14	10241.89
468.34	10358.63
468.55	10547.04
468.76	10424.16
468.97	10153.83
469.17	10495.84
469.38	10733.40
469.59	10815.32
469.80	10524.51
470.01	10776.41
470.21	10803.04
470.42	11016.02
470.63	10938.20
470.84	10825.56
471.04	11132.76
471.25	11237.20
471.46	11059.03
471.67	11501.39
471.87	11536.21
472.08	11444.05
472.29	11702.09
472.50	11372.37
472.70	11206.48
472.91	11523.92
473.12	11505.49
473.33	11622.22
473.53	11865.93
473.74	11945.80
473.95	12195.65
474.16	12089.16
474.36	12185.41
474.57	12396.35
474.78	12408.64
474.99	12400.45
475.19	12382.02
475.40	12529.47
475.61	12523.33
475.81	12785.47
476.02	13045.56
476.23	12889.92
476.44	12898.11
476.64	13184.82
476.85	13168.44
477.06	13090.62
477.27	13469.49
477.47	13727.53
477.68	13569.84
477.89	13786.93
478.09	13657.90
478.30	13641.52
478.51	13731.63
478.71	13807.41
478.92	14241.57
479.13	14081.83
479.34	14466.85
479.54	14085.93
479.75	14327.59
479.96	14442.28
480.16	14524.19
480.37	14640.93
480.58	14892.83
480.78	14976.80
480.99	14976.80
481.20	14984.99
481.41	15146.78
481.61	15240.98
481.82	15171.35
482.03	15146.78
482.23	15351.57
482.44	15757.07
482.65	15750.93
482.85	15802.13
483.06	15705.87
483.27	16144.14
483.47	15951.63
483.68	16045.84
483.89	16213.77
484.09	16307.98
484.30	16486.15
484.51	16584.45
484.71	16627.46
484.92	16658.18
485.13	16733.95
485.33	16701.19
485.54	16881.41
485.75	16930.56
485.95	17131.26
486.16	17542.90
486.37	17622.77
486.57	17395.45
486.78	17350.39
486.98	17569.52
487.19	17653.49
487.40	17901.29
487.60	17901.29
487.81	18134.76
488.02	18405.10
488.22	18067.18
488.43	18317.03
488.64	18417.38
488.84	18487.01
489.05	18538.21
489.25	18779.87
489.46	19044.06
489.67	18609.89
489.87	19121.88
490.08	18869.98
490.29	19175.13
490.49	19341.02
490.70	19521.24
490.90	19826.39
491.11	19545.81
491.32	19599.06
491.52	19617.49
491.73	19855.06
491.94	19986.13
492.14	19746.51
492.35	20160.20
492.55	20332.23
492.76	20346.57
492.97	20582.09
493.17	20461.26
493.38	20715.20
493.58	20944.58
493.79	20637.38
494.00	20655.81
494.20	20995.78
494.41	21182.14
494.61	21243.58
494.82	21319.35
495.02	21235.39
495.23	21495.48
495.44	21720.76
495.64	21970.61
495.85	21624.50
496.05	21675.70
496.26	21888.69
496.47	22118.06
496.67	21659.32
496.88	22427.31
497.08	21952.18
497.29	22273.71
497.49	22005.42
497.70	22478.50
497.91	22705.83
498.11	22619.81
498.32	22970.02
498.52	22910.63
498.73	23215.77
498.93	22818.47
499.14	23133.86
499.34	22843.04
499.55	23189.15
499.76	22980.26
499.96	23545.50
500.17	23240.35
500.37	23328.41
500.58	23383.71
500.78	23678.61
500.99	23586.46
501.19	24125.07
501.40	23717.53
501.60	23752.34
501.81	23981.71
502.02	23998.10
502.22	23791.25
502.43	23905.94
502.63	23940.75
502.84	24129.17
503.04	24225.42
503.25	24174.22
503.45	24370.83
503.66	24520.33
503.86	24696.46
504.07	24974.98
504.27	24454.79
504.48	24514.19
504.68	24972.93
504.89	25167.49
505.09	24991.36
505.30	25034.37
505.50	25069.19
505.71	24938.12
505.91	25405.05
506.12	25208.45
506.32	25218.69
506.53	25433.72
506.73	25544.31
506.94	25620.09
507.14	25446.01
507.35	25759.35
507.55	25669.24
507.76	25228.93
507.96	25577.08
508.17	25785.97
508.37	25706.10
508.58	26252.91
508.78	25972.34
508.99	26066.55
509.19	26283.63
509.40	25968.24
509.60	26117.75
509.81	26250.86
510.01	25941.62
510.22	26465.90
510.42	26103.41
510.63	26470.00
510.83	26295.92
511.04	26633.83
511.24	26789.48
511.44	26666.60
511.65	26746.47
511.85	26310.25
512.06	26558.06
512.26	26498.67
512.47	26852.97
512.67	26631.79
512.88	26943.08
513.08	26459.76
513.29	26908.26
513.49	27020.90
513.69	27104.87
513.90	26742.38
514.10	26891.88
514.31	27231.84
514.51	27168.35
514.72	27074.15
514.92	27078.24
515.13	27209.31
515.33	27158.11
515.53	27330.14
515.74	27227.74
515.94	27266.66
516.15	27385.44
516.35	27502.17
516.56	27559.52
516.76	27530.84
516.96	27536.99
517.17	27846.23
517.37	27842.14
517.58	27747.93
517.78	27772.50
517.99	27885.14
518.19	28042.84
518.39	27989.59
518.60	27676.25
518.80	27971.16
519.01	28261.97
519.21	28272.21
519.41	28333.65
519.62	28288.59
519.82	28212.82
520.03	28489.29
520.23	28458.57
520.43	28558.92
520.64	28499.53
520.84	28954.18
521.05	28937.80
521.25	28943.94
521.45	29140.55
521.66	29048.39
521.86	29023.81
522.07	29349.44
522.27	29222.47
522.47	28935.75
522.68	29222.47
522.88	29247.04
523.08	29765.18
523.29	29423.17
523.49	29466.17
523.70	29699.64
523.90	29914.68
524.10	29605.44
524.31	29818.42
524.51	29908.54
524.71	30346.80
524.92	30137.91
525.12	30643.76
525.33	30258.74
525.53	30643.76
525.73	30416.43
525.94	30516.78
526.14	30453.30
526.34	30785.07
526.55	30832.17
526.75	30631.47
526.95	31073.83
527.16	30985.77
527.36	31106.60
527.56	30885.42
527.77	31557.15
527.97	31792.67
528.17	31346.21
528.38	31532.57
528.58	31780.38
528.78	31768.09
528.99	31626.78
529.19	32306.71
529.39	31645.21
529.60	32548.37
529.80	32181.78
530.00	32325.14
530.21	32206.36
530.41	32663.05
530.61	32552.46
530.82	32556.56
531.02	32372.24
531.22	32720.40
531.43	32783.88
531.63	32931.34
531.83	33220.10
532.04	33396.23
532.24	32898.57
532.44	33492.48
532.64	33580.54
532.85	33574.40
533.05	33570.30
533.25	33568.26
533.46	33637.89
533.66	33957.37
533.86	33738.24
534.07	34285.04
534.27	34409.97
534.47	34309.62
534.67	34463.22
534.88	34207.22
535.08	34661.87
535.28	35108.33
535.49	34702.83
535.69	34725.36
535.89	35149.29
536.09	35489.25
536.30	35163.62
536.50	35229.16
536.70	35679.71
536.91	35501.54
537.11	35300.84
537.31	36130.26
537.51	35857.88
537.72	36259.29
537.92	36279.77
538.12	36589.01
538.32	36072.92
538.53	36564.43
538.73	36060.63
538.93	36447.70
539.13	36523.47
539.34	36910.54
539.54	36660.69
539.74	36996.56
539.94	37172.68
540.15	37123.53
540.35	37461.44
540.55	37203.40
540.75	37436.87
540.96	37518.79
541.16	37705.15
541.36	37844.41
541.56	37688.77
541.77	38024.64
541.97	37975.48
542.17	38096.31
542.37	38057.40
542.58	38378.93
542.78	38348.21
542.98	38135.23
543.18	38514.10
543.38	38671.79
543.59	38747.57
543.79	38575.54
543.99	38694.32
544.19	38763.95
544.40	38972.85
544.60	39148.97
544.80	39032.24
545.00	39024.04
545.20	39460.26
545.41	39239.08
545.61	39542.18
545.81	39521.70
546.01	39667.11
546.21	39740.83
546.42	39357.86
546.62	39722.40
546.82	40031.65
547.02	39810.46
547.22	39896.48
547.43	39861.66
547.63	39744.93
547.83	40387.99
548.03	39884.19
548.23	40373.66
548.44	40179.10
548.64	40277.40
548.84	40506.77
549.04	40678.80
549.24	40740.24
549.45	41137.55
549.65	40824.21
549.85	40619.41
550.05	40695.19
550.25	40910.22
550.45	41123.21
550.66	41362.82
550.86	40897.94
551.06	41178.51
551.26	41088.40
551.46	41244.04
551.66	41272.71
551.87	41260.43
552.07	41805.19
552.27	41403.78
552.47	41450.89
552.67	41860.48
552.87	41637.25
553.07	41940.35
553.28	42003.84
553.48	41883.01
553.68	41686.40
553.88	42149.24
554.08	42526.07
554.28	41751.94
554.48	42005.89
554.69	42014.08
554.89	42429.82
555.09	41952.64
555.29	42122.62
555.49	42268.03
555.69	42542.45
555.89	42556.79
556.10	42485.11
556.30	42458.49
556.50	42401.14
556.70	42227.07
556.90	42573.17
557.10	42554.74
557.30	42501.50
557.50	42933.62
557.70	42556.79
557.91	42980.72
558.11	42548.60
558.31	43023.73
558.51	42569.08
558.71	42829.17
558.91	42775.92
559.11	42984.82
559.31	42792.31
559.51	42626.42
559.72	43124.08
559.92	42980.72
560.12	42712.44
560.32	43193.71
560.52	42906.99
560.72	43498.86
560.92	43384.17
561.12	43371.88
561.32	43814.24
561.52	43443.56
561.72	43402.60
561.93	42913.14
562.13	43134.32
562.33	42857.84
562.53	43443.56
562.73	43386.22
562.93	43492.71
563.13	43703.65
563.33	43269.48
563.53	43439.47
563.73	43703.65
563.93	43527.53
564.13	43765.09
564.33	43609.45
564.53	43767.14
564.74	44150.11
564.94	43677.03
565.14	43605.35
565.34	43171.18
565.54	43595.11
565.74	43599.21
565.94	44113.25
566.14	43859.30
566.34	43363.69
566.54	44242.27
566.74	44004.70
566.94	44283.23
567.14	44184.93
567.34	43900.26
567.54	44316.00
567.74	44162.40
567.94	43578.73
568.14	44127.58
568.34	43992.42
568.54	44076.38
568.74	44563.80
568.94	43955.55
569.14	44723.54
569.34	44375.39
569.54	43973.98
569.75	43933.03
569.95	44561.75
570.15	44416.35
570.35	44387.67
570.55	44139.87
570.75	44526.94
570.95	44301.66
571.15	44647.77
571.35	44674.39
571.55	44508.50
571.75	44303.71
571.95	44836.18
572.15	44561.75
572.35	44678.49
572.55	44604.76
572.75	44795.22
572.95	44293.47
573.15	44969.30
573.35	44600.66
573.55	44709.21
573.75	44309.85
573.95	44750.17
574.15	45073.74
574.35	45301.07
574.55	45012.31
574.75	45155.66
574.95	44748.12
575.15	44801.36
575.34	45022.54
575.54	44811.60
575.74	45393.23
575.94	45278.54
576.14	45290.83
576.34	45700.42
576.54	45407.56
576.74	45352.27
576.94	45518.15
577.14	45423.95
577.34	45624.65
577.54	45651.27
577.74	45583.69
577.94	45425.99
578.14	45634.89
578.34	45458.76
578.54	45188.43
578.74	45782.34
578.94	45589.83
579.14	45681.99
579.34	45677.90
579.54	45833.54
579.74	46394.68
579.94	45884.74
580.13	46101.82
580.33	45643.08
580.53	45843.78
580.73	46249.28
580.93	46163.26
581.13	46501.18
581.33	46357.82
581.53	46314.81
581.73	46366.01
581.93	46746.93
582.13	46585.15
582.33	46589.24
582.53	46572.86
582.73	46216.51
582.92	46368.06
583.12	46896.44
583.32	46454.08
583.52	46456.12
583.72	46824.76
583.92	46601.53
584.12	46875.96
584.32	47344.94
584.52	47168.82
584.72	47299.89
584.92	46744.89
585.11	47287.60
585.31	47455.53
585.51	47746.34
585.71	47205.68
585.91	47727.91
586.11	47095.09
586.31	47482.16
586.51	47238.45
586.71	47381.80
586.91	47891.75
587.10	47668.52
587.30	47844.65
587.50	47840.55
587.70	47346.99
587.90	48157.99
588.10	47785.25
588.30	47875.37
588.50	48200.99
