SpectraSuite Data File
++++++++++++++++++++++++++++++++++++
Date: Fri Jun 02 14:47:56 CEST 2017
User: INFO_000
Dark Spectrum Present: No
Reference Spectrum Present: No
Number of Sampled Component Spectra: 1
Spectrometers: USB4H00879
Integration Time (usec): 80000 (USB4H00879)
Spectra Averaged: 1 (USB4H00879)
Boxcar Smoothing: 0 (USB4H00879)
Correct for Electrical Dark: No (USB4H00879)
Strobe/Lamp Enabled: No (USB4H00879)
Correct for Detector Non-linearity: No (USB4H00879)
Correct for Stray Light: No (USB4H00879)
Number of Pixels in Processed Spectrum: 3648
>>>>>Begin Processed Spectral Data<<<<<
345.13	1273.84
345.34	1273.84
345.56	1273.84
345.78	1290.22
345.99	1286.12
346.21	1665.00
346.42	1730.53
346.64	1609.70
346.86	1847.27
347.07	1617.90
347.29	1710.05
347.50	1634.28
347.72	1673.19
347.94	1748.97
348.15	1568.74
348.37	1634.28
348.59	1742.82
348.80	1621.99
349.02	1763.30
349.23	1826.79
349.45	1837.03
349.67	1933.28
349.88	1867.75
350.10	1986.53
350.31	1847.27
350.53	1732.58
350.75	1988.58
350.96	1763.30
351.18	1880.04
351.39	1787.88
351.61	1720.29
351.82	1923.04
352.04	1888.23
352.26	1853.41
352.47	1894.37
352.69	1918.95
352.90	1732.58
353.12	1859.56
353.34	1841.12
353.55	1951.71
353.77	1845.22
353.98	1767.40
354.20	1765.35
354.41	1914.85
354.63	1927.14
354.85	2002.91
355.06	1880.04
355.28	1777.64
355.49	1886.18
355.71	1884.13
355.92	1818.60
356.14	1914.85
356.35	1873.89
356.57	1892.32
356.79	1822.69
357.00	1912.80
357.22	1980.39
357.43	1920.99
357.65	1966.05
357.86	1945.57
358.08	1902.56
358.29	1994.72
358.51	1992.67
358.72	1927.14
358.94	1916.90
359.16	1906.66
359.37	1937.38
359.59	1976.29
359.80	2009.06
360.02	1953.76
360.23	1894.37
360.45	1918.95
360.66	1951.71
360.88	1865.70
361.09	1937.38
361.31	2070.50
361.52	2066.40
361.74	2050.02
361.95	2058.21
362.17	2017.25
362.38	2115.55
362.60	2023.39
362.81	1935.33
363.03	2017.25
363.24	1988.58
363.46	2033.63
363.67	1988.58
363.89	2025.44
364.10	1968.10
364.32	1966.05
364.53	2045.92
364.75	1900.52
364.96	2021.35
365.18	2054.11
365.39	2009.06
365.61	1912.80
365.82	2142.18
366.04	1918.95
366.25	1951.71
366.47	2037.73
366.68	2058.21
366.90	1982.43
367.11	2029.54
367.33	2068.45
367.54	2074.59
367.76	2000.87
367.97	2127.84
368.19	2052.06
368.40	2099.17
368.62	1972.19
368.83	1929.19
369.05	2000.87
369.26	2066.40
369.48	2029.54
369.69	2023.39
369.91	1994.72
370.12	1970.15
370.33	2086.88
370.55	1941.47
370.76	2043.87
370.98	2097.12
371.19	2043.87
371.41	2080.74
371.62	2045.92
371.84	2062.30
372.05	2156.51
372.27	2084.83
372.48	2158.56
372.69	2082.78
372.91	2146.27
373.12	2119.65
373.34	2056.16
373.55	2148.32
373.77	2166.75
373.98	2109.41
374.20	2207.71
374.41	2265.05
374.62	2131.94
374.84	2207.71
375.05	2162.66
375.27	2164.70
375.48	2191.33
375.70	2213.85
375.91	2213.85
376.12	2308.06
376.34	2166.75
376.55	2166.75
376.77	2217.95
376.98	2131.94
377.19	2226.14
377.41	2197.47
377.62	2164.70
377.84	2203.61
378.05	2285.53
378.27	2144.22
378.48	2355.16
378.69	2369.50
378.91	2336.73
379.12	2254.81
379.34	2215.90
379.55	2320.35
379.76	2199.52
379.98	2168.80
380.19	2220.00
380.41	2267.10
380.62	2361.31
380.83	2334.68
381.05	2152.42
381.26	2375.64
381.47	2220.00
381.69	2287.58
381.90	2432.99
382.12	2205.66
382.33	2316.25
382.54	2289.63
382.76	2306.01
382.97	2336.73
383.19	2314.20
383.40	2375.64
383.61	2322.40
383.83	2330.59
384.04	2338.78
384.25	2303.96
384.47	2371.55
384.68	2346.97
384.89	2295.77
385.11	2330.59
385.32	2293.72
385.54	2334.68
385.75	2377.69
385.96	2365.40
386.18	2359.26
386.39	2447.32
386.60	2293.72
386.82	2416.60
387.03	2484.19
387.24	2498.52
387.46	2463.71
387.67	2394.08
387.88	2533.34
388.10	2475.99
388.31	2494.43
388.52	2596.82
388.74	2504.67
388.95	2428.89
389.16	2529.24
389.38	2500.57
389.59	2553.82
389.80	2535.39
390.02	2459.61
390.23	2576.34
390.44	2533.34
390.66	2523.10
390.87	2566.10
391.08	2566.10
391.30	2650.07
391.51	2594.78
391.72	2643.93
391.94	2574.30
392.15	2588.63
392.36	2609.11
392.58	2535.39
392.79	2660.31
393.00	2664.41
393.22	2701.27
393.43	2625.50
393.64	2748.37
393.85	2668.50
394.07	2621.40
394.28	2717.65
394.49	2820.05
394.71	2707.41
394.92	2820.05
395.13	2666.46
395.35	2697.17
395.56	2699.22
395.77	2707.41
395.98	2809.81
396.20	2764.76
396.41	2861.01
396.62	2875.35
396.84	2805.72
397.05	2863.06
397.26	2826.20
397.47	2887.64
397.69	2752.47
397.90	2969.55
398.11	2875.35
398.32	2899.92
398.54	2852.82
398.75	2975.70
398.96	2891.73
399.18	3051.47
399.39	2951.12
399.60	3094.48
399.81	2932.69
400.03	3049.43
400.24	3239.89
400.45	2928.60
400.66	3078.10
400.88	3063.76
401.09	3239.89
401.30	3043.28
401.51	3155.92
401.73	3119.06
401.94	3114.96
402.15	3043.28
402.36	3100.62
402.58	3157.97
402.79	3004.37
403.00	3180.50
403.21	3248.08
403.43	3262.41
403.64	3196.88
403.85	3047.38
404.06	3264.46
404.27	3078.10
404.49	3213.26
404.70	3186.64
404.91	3291.09
405.12	3231.69
405.34	3309.52
405.55	3434.44
405.76	3196.88
405.97	3358.67
406.19	3450.83
406.40	3131.34
406.61	3397.58
406.82	3393.48
407.03	3317.71
407.25	3334.09
407.46	3442.64
407.67	3340.24
407.88	3530.70
408.09	3317.71
408.31	3227.60
408.52	3440.59
408.73	3215.31
408.94	3444.68
409.15	3336.14
409.37	3420.11
409.58	3557.32
409.79	3438.54
410.00	3526.60
410.21	3420.11
410.43	3352.52
410.64	3440.59
410.85	3493.83
411.06	3592.14
411.27	3536.84
411.48	3567.56
411.70	3456.97
411.91	3702.73
412.12	3612.62
412.33	3657.67
412.54	3633.10
412.76	3715.02
412.97	3629.00
413.18	3502.03
413.39	3739.59
413.60	3733.45
413.81	3780.55
414.03	3641.29
414.24	3542.99
414.45	3788.74
414.66	3565.51
414.87	3717.06
415.08	3647.43
415.30	3672.01
415.51	3688.39
415.72	3729.35
415.93	3747.78
416.14	3782.60
416.35	3766.21
416.56	3788.74
416.78	3878.85
416.99	3852.23
417.20	3788.74
417.41	3823.56
417.62	3788.74
417.83	3819.46
418.04	3844.04
418.26	3860.42
418.47	3768.26
418.68	3921.86
418.89	3891.14
419.10	4044.74
419.31	3928.00
419.52	4104.13
419.73	3946.44
419.95	4122.56
420.16	3954.63
420.37	4091.84
420.58	4032.45
420.79	3911.62
421.00	4014.02
421.21	4069.31
421.42	3917.76
421.63	4214.72
421.85	4116.42
422.06	4194.24
422.27	4116.42
422.48	4288.45
422.69	4167.62
422.90	4347.84
423.11	4200.38
423.32	4216.77
423.53	4300.73
423.75	4317.12
423.96	4409.28
424.17	4403.13
424.38	4493.24
424.59	4370.37
424.80	4433.85
425.01	4474.81
425.22	4296.64
425.43	4294.59
425.64	4603.83
425.85	4579.26
426.06	4583.35
426.28	4700.09
426.49	4419.52
426.70	4437.95
426.91	4411.32
427.12	4745.14
427.33	4542.39
427.54	4628.41
427.75	4685.75
427.96	4730.81
428.17	4777.91
428.38	4747.19
428.59	4890.55
428.80	4759.48
429.01	4640.70
429.23	4808.63
429.44	5009.33
429.65	4947.89
429.86	4906.93
430.07	4790.20
430.28	4886.45
430.49	4935.60
430.70	5046.20
430.91	5099.44
431.12	5074.87
431.33	5132.21
431.54	5091.25
431.75	5015.48
431.96	4982.71
432.17	5175.22
432.38	5132.21
432.59	5316.53
432.80	5377.97
433.01	5371.82
433.22	5359.53
433.43	5248.94
433.64	5345.20
433.85	5310.38
434.06	5451.69
434.27	5312.43
434.49	5443.50
434.70	5515.18
434.91	5478.32
435.12	5437.36
435.33	5482.41
435.54	5414.83
435.75	5314.48
435.96	5535.66
436.17	5367.73
436.38	5527.47
436.59	5603.24
436.80	5607.34
437.01	5902.25
437.22	5801.90
437.43	5672.87
437.64	5541.80
437.85	5683.11
438.06	5881.77
438.27	5590.95
438.48	5705.64
438.69	5869.48
438.90	5683.11
439.11	5836.71
439.32	5910.44
439.53	5973.92
439.74	6068.13
439.95	5881.77
440.16	5871.53
440.37	5935.01
440.57	5810.09
440.78	5965.73
440.99	5887.91
441.20	5924.77
441.41	5867.43
441.62	6082.47
441.83	5842.85
442.04	6121.38
442.25	6070.18
442.46	5939.11
442.67	6156.19
442.88	6498.20
443.09	6033.32
443.30	6080.42
443.51	6150.05
443.72	6414.24
443.93	6084.52
444.14	6426.53
444.35	6049.70
444.56	6363.04
444.77	6240.16
444.98	6356.90
445.19	6619.04
445.40	6412.19
445.61	6358.94
445.81	6418.33
446.02	6475.68
446.23	6334.37
446.44	6299.55
446.65	6508.44
446.86	6487.96
447.07	6487.96
447.28	6858.65
447.49	6643.61
447.70	6475.68
447.91	6674.33
448.12	6625.18
448.33	6703.00
448.54	6713.24
448.74	6565.79
448.95	6670.23
449.16	6590.36
449.37	6938.52
449.58	6739.87
449.79	6846.36
450.00	6659.99
450.21	6784.92
450.42	7141.27
450.63	6918.04
450.84	6893.46
451.05	6743.96
451.25	6868.89
451.46	6809.50
451.67	7102.36
451.88	7229.33
452.09	7225.23
452.30	7153.55
452.51	6852.50
452.72	7120.79
452.93	7352.21
453.13	7002.01
453.34	7143.32
453.55	7202.71
453.76	7251.86
453.97	7419.79
454.18	7235.47
454.39	7487.37
454.60	7270.29
454.81	7387.02
455.01	7528.33
455.22	7313.30
455.43	7557.00
455.64	7708.55
455.85	7776.14
456.06	7774.09
456.27	7618.44
456.48	7606.16
456.68	7722.89
456.89	7688.07
457.10	8062.85
457.31	7905.16
457.52	7982.98
457.73	7876.49
457.94	8169.35
458.14	7921.54
458.35	8406.91
458.56	7950.21
458.77	8120.20
458.98	8085.38
459.19	8214.40
459.39	8243.07
459.60	8423.30
459.81	8294.27
460.02	8525.69
460.23	8392.58
460.44	8562.56
460.65	8578.94
460.85	8529.79
461.06	8830.84
461.27	8474.49
461.48	8898.42
461.69	8906.62
461.89	8580.99
462.10	8867.70
462.31	8701.82
462.52	8785.79
462.73	8904.57
462.94	9146.23
463.14	9023.35
463.35	8935.29
463.56	9455.47
463.77	9326.45
463.98	9189.24
464.18	9168.76
464.39	9451.38
464.60	9400.18
464.81	9533.29
465.02	9422.70
465.23	9688.94
465.43	9631.60
465.64	9989.99
465.85	9621.36
466.06	9686.89
466.27	9963.37
466.47	9967.46
466.68	10024.81
466.89	9942.89
467.10	10209.12
467.30	9949.03
467.51	10207.08
467.72	10569.57
467.93	10219.36
468.14	10381.15
468.34	10366.82
468.55	10411.87
468.76	10596.19
468.97	10344.29
469.17	10800.99
469.38	10907.48
469.59	10921.82
469.80	10784.60
470.01	10995.54
470.21	11040.60
470.42	11304.79
470.63	11224.92
470.84	10897.24
471.04	11247.44
471.25	11378.51
471.46	11349.84
471.67	11841.36
471.87	11505.49
472.08	11474.77
472.29	11794.25
472.50	11493.20
472.70	11749.20
472.91	11810.64
473.12	12035.91
473.33	11984.71
473.53	12238.66
473.74	12109.64
473.95	12398.40
474.16	12449.60
474.36	12511.04
474.57	12599.10
474.78	12777.28
474.99	12478.27
475.19	12629.82
475.40	12951.35
475.61	12996.41
475.81	13115.19
476.02	13049.66
476.23	12980.03
476.44	13291.32
476.64	13649.71
476.85	13565.74
477.06	13408.05
477.27	13913.90
477.47	13971.24
477.68	13705.01
477.89	14188.33
478.09	14040.87
478.30	14141.22
478.51	14004.01
478.71	14171.94
478.92	14343.97
479.13	14524.19
479.34	14618.40
479.54	14624.54
479.75	14624.54
479.96	14708.51
480.16	14763.81
480.37	15275.80
480.58	14855.97
480.78	15275.80
480.99	15214.36
481.20	15441.68
481.41	15435.54
481.61	15529.75
481.82	15515.41
482.03	15439.64
482.23	15576.85
482.44	15718.16
482.65	15941.39
482.85	16033.55
483.06	15949.58
483.27	16068.36
483.47	16006.92
483.68	16332.55
483.89	16572.16
484.09	16277.26
484.30	16320.26
484.51	16600.83
484.71	16684.80
484.92	16492.29
485.13	16918.27
485.33	16697.09
485.54	16934.65
485.75	17090.30
485.95	17221.37
486.16	17669.87
486.37	17614.58
486.57	17352.44
486.78	17487.61
486.98	17407.73
487.19	17743.60
487.40	17970.93
487.60	17749.75
487.81	18046.70
488.02	17721.07
488.22	17927.92
488.43	18196.20
488.64	18149.10
488.84	18243.31
489.05	18556.64
489.25	18460.39
489.46	18761.44
489.67	18558.69
489.87	18536.17
490.08	18831.07
490.29	18763.49
490.49	18999.01
490.70	19146.46
490.90	19021.53
491.11	19064.54
491.32	19433.18
491.52	19197.66
491.73	19607.25
491.94	19658.45
492.14	19443.42
492.35	19893.97
492.55	19906.26
492.76	19807.95
492.97	19986.13
493.17	19982.03
493.38	20201.16
493.58	20229.84
493.79	20643.52
494.00	20246.22
494.20	20582.09
494.41	20346.57
494.61	20682.44
494.82	20608.71
495.02	20739.78
495.23	21014.21
495.44	20762.31
495.64	20784.83
495.85	21157.57
496.05	21292.73
496.26	21077.69
496.47	21427.90
496.67	21317.31
496.88	21683.89
497.08	21237.44
497.29	21606.07
497.49	21612.21
497.70	21634.74
497.91	21907.12
498.11	21882.55
498.32	21892.79
498.52	22251.18
498.73	22570.66
498.93	22478.50
499.14	22343.34
499.34	22345.39
499.55	22754.98
499.76	22802.08
499.96	22779.56
500.17	22693.54
500.37	22867.62
500.58	22804.13
500.78	22947.49
500.99	23074.46
501.19	23221.92
501.40	23312.03
501.60	23080.61
501.81	23150.24
502.02	23209.63
502.22	23355.04
502.43	23488.15
502.63	24008.34
502.84	23830.16
503.04	23639.70
503.25	23803.54
503.45	23807.64
503.66	24331.92
503.86	24114.83
504.07	24204.94
504.27	24297.10
504.48	24254.09
504.68	24401.55
504.89	24530.57
505.09	24444.56
505.30	24526.47
505.50	24915.59
505.71	24692.36
505.91	25081.47
506.12	25159.30
506.32	24856.20
506.53	24940.16
506.73	25237.12
506.94	25048.71
507.14	25347.71
507.35	25296.51
507.55	25288.32
507.76	25534.07
507.96	25134.72
508.17	25521.79
508.37	25802.36
508.58	25523.83
508.78	25847.41
508.99	26076.79
509.19	25919.09
509.40	25980.53
509.60	26074.74
509.81	26013.30
510.01	26103.41
510.22	25874.04
510.42	26230.38
510.63	26343.02
510.83	26478.19
511.04	26465.90
511.24	26574.44
511.44	26689.13
511.65	26482.28
511.85	26582.63
512.06	26513.00
512.26	26930.79
512.47	26859.11
512.67	27268.70
512.88	26979.94
513.08	26846.82
513.29	27264.61
513.49	27414.11
513.69	27326.05
513.90	27434.59
514.10	27639.39
514.31	27801.18
514.51	27493.98
514.72	27821.66
514.92	27555.42
515.13	27641.43
515.33	27852.38
515.53	27596.38
515.74	28005.97
515.94	27891.29
516.15	28161.62
516.35	28065.36
516.56	28472.91
516.76	27858.52
516.96	28178.00
517.17	28538.44
517.37	28421.71
517.58	28393.04
517.78	28575.31
517.99	28565.07
518.19	28659.27
518.39	28659.27
518.60	29113.92
518.80	28827.21
519.01	28941.89
519.21	28915.27
519.41	29025.86
519.62	29087.30
519.82	29161.03
520.03	29619.77
520.23	29648.44
520.43	29337.15
520.64	29656.64
520.84	29269.57
521.05	29498.94
521.25	29832.76
521.45	29892.15
521.66	29978.17
521.86	29851.19
522.07	30037.56
522.27	29941.30
522.47	30062.13
522.68	30590.51
522.88	30086.71
523.08	30574.13
523.29	30430.77
523.49	30516.78
523.70	30584.37
523.90	30840.36
524.10	30963.24
524.31	30697.00
524.51	30459.44
524.71	31165.99
524.92	30549.55
525.12	30946.86
525.33	31157.80
525.53	31067.69
525.73	31303.20
525.94	31383.07
526.14	31434.27
526.34	31745.56
526.55	31651.36
526.75	31897.11
526.95	32081.43
527.16	31626.78
527.36	31680.03
527.56	31800.86
527.77	32257.56
527.97	32355.86
528.17	32118.29
528.38	32101.91
528.58	32200.21
528.78	32425.49
528.99	32626.19
529.19	32747.02
529.39	32370.19
529.60	32781.84
529.80	32691.73
530.00	32513.55
530.21	33011.21
530.41	33123.85
530.61	33064.46
530.82	33068.55
531.02	33033.74
531.22	33158.66
531.43	33256.96
531.63	33484.29
531.83	33549.82
532.04	33787.39
532.24	33191.43
532.44	33873.40
532.64	34033.14
532.85	33910.27
533.05	34244.09
533.25	33969.66
533.46	34160.12
533.66	34489.84
533.86	34287.09
534.07	34409.97
534.27	34338.29
534.47	34602.48
534.67	34584.05
534.88	34471.41
535.08	34377.20
535.28	34821.61
535.49	35218.92
535.69	34874.86
535.89	34940.39
536.09	35345.89
536.30	35294.69
536.50	35104.23
536.70	35415.52
536.91	35331.56
537.11	35341.80
537.31	35401.19
537.51	35661.28
537.72	35925.47
537.92	35853.79
538.12	36009.43
538.32	35866.08
538.53	36195.80
538.73	36193.75
538.93	36292.05
539.13	36328.92
539.34	36113.88
539.54	35978.72
539.74	36537.81
539.94	36601.30
540.15	36271.57
540.35	36687.31
540.55	36754.90
540.75	36695.50
540.96	36963.79
541.16	36822.48
541.36	36621.78
541.56	36795.85
541.77	37172.68
541.97	37402.05
542.17	37492.16
542.37	37359.05
542.58	37232.07
542.78	37275.08
542.98	37236.17
543.18	37457.35
543.38	38450.61
543.59	37922.24
543.79	37471.68
543.99	37543.36
544.19	37694.91
544.40	37643.71
544.60	38204.86
544.80	38069.69
545.00	37936.57
545.20	38303.16
545.41	38186.43
545.61	38030.78
545.81	38413.75
546.01	38593.97
546.21	38239.67
546.42	38137.27
546.62	38571.44
546.82	38450.61
547.02	38450.61
547.22	38602.16
547.43	38852.02
547.63	38743.47
547.83	38837.68
548.03	38892.97
548.23	38964.65
548.44	38786.48
548.64	39314.86
548.84	39470.50
549.04	39226.79
549.24	39460.26
549.45	39933.34
549.65	39341.48
549.85	39079.34
550.05	39681.44
550.25	39378.34
550.45	40000.93
550.66	39339.43
550.86	40203.67
551.06	40240.54
551.26	40236.44
551.46	39921.05
551.66	39976.35
551.87	40183.19
552.07	40062.36
552.27	40502.68
552.47	40691.09
552.67	40381.85
552.87	40291.74
553.07	40500.63
553.28	40338.84
553.48	40977.81
553.68	40541.59
553.88	41049.49
554.08	40768.91
554.28	41223.56
554.48	40830.35
554.69	40670.61
554.89	40676.76
555.09	41018.77
555.29	40742.29
555.49	41411.98
555.69	41180.56
555.89	41409.93
556.10	41420.17
556.30	41278.86
556.50	41629.06
556.70	41405.83
556.90	41715.08
557.10	41409.93
557.30	41657.73
557.50	41835.91
557.70	41784.71
557.91	42292.60
558.11	41969.02
558.31	42227.07
558.51	41821.57
558.71	41919.87
558.91	42175.87
559.11	42009.98
559.31	42030.46
559.51	41981.31
559.72	42091.90
559.92	42689.91
560.12	42235.26
560.32	42390.91
560.52	42403.19
560.72	42802.55
560.92	42694.00
561.12	42194.30
561.32	42999.15
561.52	42585.46
561.72	43044.21
561.93	42892.66
562.13	43242.86
562.33	42669.43
562.53	43089.26
562.73	42771.83
562.93	43425.13
563.13	43384.17
563.33	43189.61
563.53	43654.50
563.73	43459.94
563.93	43687.27
564.13	43875.68
564.33	43466.09
564.53	43756.90
564.74	43429.23
564.94	43648.36
565.14	44242.27
565.34	43535.72
565.54	43822.44
565.74	44051.81
565.94	44316.00
566.14	44031.33
566.34	44164.45
566.54	44340.57
566.74	44064.10
566.94	44117.34
567.14	44565.85
567.34	44344.67
567.54	44365.15
567.74	44232.03
567.94	44404.06
568.14	44801.36
568.34	44852.56
568.54	44555.61
568.74	45221.20
568.94	44717.40
569.14	44860.76
569.34	45118.80
569.54	44715.35
569.75	44598.62
569.95	44877.14
570.15	45741.38
570.35	44959.06
570.55	45501.77
570.75	45135.18
570.95	45401.42
571.15	45450.57
571.35	45475.15
571.55	45581.64
571.75	45464.91
571.95	45878.60
572.15	45389.13
572.35	45583.69
572.55	45647.18
572.75	45843.78
572.95	45868.36
573.15	46001.47
573.35	45768.01
573.55	45970.75
573.75	45479.24
573.95	45958.47
574.15	46032.19
574.35	46140.74
574.55	46298.43
574.75	45866.31
574.95	46628.15
575.15	46306.62
575.34	46431.55
575.54	45993.28
575.74	46353.72
575.94	46630.20
576.14	46251.33
576.34	46976.31
576.54	46759.22
576.74	46884.15
576.94	46994.74
577.14	46904.63
577.34	46918.96
577.54	46617.91
577.74	47359.28
577.94	46849.33
578.14	47297.84
578.34	47553.83
578.54	46480.70
578.74	46992.69
578.94	47424.81
579.14	47260.97
579.34	47316.27
579.54	47330.61
579.74	47983.91
579.94	47402.28
580.13	47459.63
580.33	47553.83
580.53	47416.62
580.73	47717.67
580.93	47803.69
581.13	48162.08
581.33	48020.77
581.53	47869.22
581.73	47652.14
581.93	48303.39
582.13	47936.80
582.33	48309.53
582.53	47662.38
582.73	47951.14
582.92	48098.59
583.12	48141.60
583.32	47879.46
583.52	47863.08
583.72	48543.00
583.92	48223.52
584.12	48456.99
584.32	48852.25
584.52	48358.69
584.72	48518.43
584.92	48700.70
585.11	48983.32
585.31	48815.38
585.51	48559.39
585.71	48557.34
585.91	49388.81
586.11	48686.36
586.31	48747.80
586.51	48540.96
586.71	49003.80
586.91	49288.46
587.10	49181.97
587.30	49282.32
587.50	49300.75
587.70	49196.31
587.90	49360.14
588.10	49452.30
588.30	49331.47
588.50	49575.18
