SpectraSuite Data File
++++++++++++++++++++++++++++++++++++
Date: Fri Jun 02 14:48:00 CEST 2017
User: INFO_000
Dark Spectrum Present: No
Reference Spectrum Present: No
Number of Sampled Component Spectra: 1
Spectrometers: USB4H00879
Integration Time (usec): 80000 (USB4H00879)
Spectra Averaged: 1 (USB4H00879)
Boxcar Smoothing: 0 (USB4H00879)
Correct for Electrical Dark: No (USB4H00879)
Strobe/Lamp Enabled: No (USB4H00879)
Correct for Detector Non-linearity: No (USB4H00879)
Correct for Stray Light: No (USB4H00879)
Number of Pixels in Processed Spectrum: 3648
>>>>>Begin Processed Spectral Data<<<<<
345.13	1290.22
345.34	1290.22
345.56	1290.22
345.78	1277.93
345.99	1275.88
346.21	1669.09
346.42	1644.52
346.64	1619.94
346.86	1787.88
347.07	1658.85
347.29	1675.24
347.50	1576.94
347.72	1609.70
347.94	1705.96
348.15	1654.76
348.37	1667.05
348.59	1691.62
348.80	1675.24
349.02	1785.83
349.23	1859.56
349.45	1753.06
349.67	1912.80
349.88	1826.79
350.10	1929.19
350.31	1820.64
350.53	1853.41
350.75	1951.71
350.96	1826.79
351.18	1853.41
351.39	1871.84
351.61	1716.20
351.82	1898.47
352.04	1904.61
352.26	1822.69
352.47	1906.66
352.69	1898.47
352.90	1789.92
353.12	1777.64
353.34	1785.83
353.55	2017.25
353.77	1941.47
353.98	1798.12
354.20	1892.32
354.41	1853.41
354.63	1902.56
354.85	1990.63
355.06	1871.84
355.28	1724.39
355.49	1923.04
355.71	1851.36
355.92	1853.41
356.14	1998.82
356.35	1918.95
356.57	1796.07
356.79	1906.66
357.00	1841.12
357.22	1976.29
357.43	1888.23
357.65	1988.58
357.86	1908.71
358.08	1834.98
358.29	1974.24
358.51	1955.81
358.72	1998.82
358.94	1976.29
359.16	1943.52
359.37	1886.18
359.59	2033.63
359.80	2037.73
360.02	1918.95
360.23	1980.39
360.45	1904.61
360.66	1910.75
360.88	1902.56
361.09	1929.19
361.31	1974.24
361.52	1949.67
361.74	2029.54
361.95	2109.41
362.17	1920.99
362.38	2076.64
362.60	2082.78
362.81	1914.85
363.03	1964.00
363.24	2039.78
363.46	1982.43
363.67	2017.25
363.89	2011.11
364.10	1986.53
364.32	2021.35
364.53	2023.39
364.75	1964.00
364.96	2113.50
365.18	2041.82
365.39	2027.49
365.61	1925.09
365.82	2066.40
366.04	2060.26
366.25	2039.78
366.47	1957.86
366.68	2027.49
366.90	1945.57
367.11	2062.30
367.33	2090.98
367.54	2004.96
367.76	2050.02
367.97	2035.68
368.19	1994.72
368.40	2072.54
368.62	2000.87
368.83	2031.58
369.05	2009.06
369.26	1953.76
369.48	2002.91
369.69	2025.44
369.91	2142.18
370.12	2066.40
370.33	2090.98
370.55	1994.72
370.76	2068.45
370.98	2080.74
371.19	2056.16
371.41	2060.26
371.62	1972.19
371.84	2043.87
372.05	2142.18
372.27	2125.79
372.48	2105.31
372.69	2076.64
372.91	2160.61
373.12	2123.74
373.34	2023.39
373.55	2152.42
373.77	2183.13
373.98	2103.26
374.20	2172.89
374.41	2263.01
374.62	2156.51
374.84	2099.17
375.05	2123.74
375.27	2090.98
375.48	2136.03
375.70	2230.24
375.91	2281.44
376.12	2322.40
376.34	2131.94
376.55	2213.85
376.77	2256.86
376.98	2109.41
377.19	2117.60
377.41	2205.66
377.62	2195.42
377.84	2174.94
378.05	2334.68
378.27	2150.37
378.48	2367.45
378.69	2379.74
378.91	2297.82
379.12	2207.71
379.34	2246.62
379.55	2363.36
379.76	2336.73
379.98	2240.48
380.19	2236.38
380.41	2273.25
380.62	2369.50
380.83	2220.00
381.05	2250.72
381.26	2381.79
381.47	2205.66
381.69	2254.81
381.90	2445.27
382.12	2349.02
382.33	2293.72
382.54	2316.25
382.76	2281.44
382.97	2285.53
383.19	2361.31
383.40	2420.70
383.61	2312.16
383.83	2285.53
384.04	2392.03
384.25	2344.92
384.47	2449.37
384.68	2338.78
384.89	2394.08
385.11	2334.68
385.32	2344.92
385.54	2310.11
385.75	2322.40
385.96	2418.65
386.18	2418.65
386.39	2389.98
386.60	2322.40
386.82	2398.17
387.03	2422.75
387.24	2502.62
387.46	2519.00
387.67	2461.66
387.88	2629.59
388.10	2525.15
388.31	2512.86
388.52	2574.30
388.74	2535.39
388.95	2496.47
389.16	2545.63
389.38	2537.43
389.59	2639.83
389.80	2639.83
390.02	2584.54
390.23	2650.07
390.44	2607.06
390.66	2623.45
390.87	2412.51
391.08	2641.88
391.30	2701.27
391.51	2693.08
391.72	2727.89
391.94	2625.50
392.15	2631.64
392.36	2639.83
392.58	2535.39
392.79	2725.85
393.00	2697.17
393.22	2721.75
393.43	2697.17
393.64	2717.65
393.85	2850.77
394.07	2643.93
394.28	2715.61
394.49	2820.05
394.71	2748.37
394.92	2908.12
395.13	2799.57
395.35	2742.23
395.56	2686.94
395.77	2770.90
395.98	2885.59
396.20	2842.58
396.41	2869.20
396.62	2967.51
396.84	2883.54
397.05	2867.16
397.26	2904.02
397.47	2951.12
397.69	2887.64
397.90	2990.03
398.11	2883.54
398.32	2983.89
398.54	2918.36
398.75	2897.88
398.96	2887.64
399.18	3143.63
399.39	2994.13
399.60	3102.67
399.81	2930.64
400.03	3043.28
400.24	3270.61
400.45	3102.67
400.66	3035.09
400.88	3098.58
401.09	3248.08
401.30	3106.77
401.51	3182.54
401.73	3117.01
401.94	3065.81
402.15	3192.78
402.36	3211.22
402.58	3125.20
402.79	3153.87
403.00	3180.50
403.21	3215.31
403.43	3252.17
403.64	3129.30
403.85	3133.39
404.06	3256.27
404.27	3198.93
404.49	3223.50
404.70	3205.07
404.91	3368.91
405.12	3313.61
405.34	3354.57
405.55	3420.11
405.76	3166.16
405.97	3327.95
406.19	3358.67
406.40	3229.65
406.61	3368.91
406.82	3448.78
407.03	3354.57
407.25	3332.05
407.46	3379.15
407.67	3452.88
407.88	3442.64
408.09	3346.38
408.31	3272.65
408.52	3399.63
408.73	3461.07
408.94	3381.20
409.15	3438.54
409.37	3516.36
409.58	3594.19
409.79	3526.60
410.00	3559.37
410.21	3444.68
410.43	3549.13
410.64	3418.06
410.85	3514.31
411.06	3530.70
411.27	3549.13
411.48	3686.34
411.70	3651.53
411.91	3559.37
412.12	3790.79
412.33	3688.39
412.54	3565.51
412.76	3725.26
412.97	3770.31
413.18	3477.45
413.39	3698.63
413.60	3850.18
413.81	3780.55
414.03	3583.95
414.24	3629.00
414.45	3829.70
414.66	3629.00
414.87	3733.45
415.08	3794.89
415.30	3825.61
415.51	3917.76
415.72	3780.55
415.93	3706.82
416.14	3882.95
416.35	3915.72
416.56	3905.48
416.78	3876.80
416.99	3905.48
417.20	3887.04
417.41	3905.48
417.62	3981.25
417.83	3977.16
418.04	4022.21
418.26	4052.93
418.47	3983.30
418.68	3985.35
418.89	4040.64
419.10	4134.85
419.31	4147.14
419.52	4140.99
419.73	3948.48
419.95	4026.31
420.16	3993.54
420.37	4014.02
420.58	4147.14
420.79	4061.12
421.00	4280.25
421.21	4300.73
421.42	4083.65
421.63	4128.70
421.85	4353.98
422.06	4167.62
422.27	4304.83
422.48	4124.61
422.69	4255.68
422.90	4308.93
423.11	4425.66
423.32	4327.36
423.53	4532.15
423.75	4368.32
423.96	4708.28
424.17	4464.57
424.38	4564.92
424.59	4548.54
424.80	4607.93
425.01	4519.87
425.22	4427.71
425.43	4421.56
425.64	4769.72
425.85	4804.53
426.06	4716.47
426.28	4532.15
426.49	4618.17
426.70	4609.98
426.91	4669.37
427.12	4743.10
427.33	4646.84
427.54	4673.46
427.75	4745.14
427.96	4882.36
428.17	4788.15
428.38	4874.17
428.59	5027.76
428.80	4829.11
429.01	5054.39
429.23	4882.36
429.44	5083.06
429.65	5038.00
429.86	5029.81
430.07	5011.38
430.28	5101.49
430.49	5072.82
430.70	5207.98
430.91	5234.61
431.12	5130.16
431.33	5320.62
431.54	5334.96
431.75	5285.81
431.96	5226.42
432.17	5197.74
432.38	5269.42
432.59	5404.59
432.80	5382.06
433.01	5363.63
433.22	5504.94
433.43	5377.97
433.64	5445.55
433.85	5275.57
434.06	5533.61
434.27	5470.12
434.49	5660.59
434.70	5636.01
434.91	5550.00
435.12	5527.47
435.33	5582.76
435.54	5713.83
435.75	5400.49
435.96	5539.76
436.17	5590.95
436.38	5711.78
436.59	5679.02
436.80	5656.49
437.01	5836.71
437.22	5902.25
437.43	5834.66
437.64	5506.99
437.85	5775.27
438.06	6012.84
438.27	5824.42
438.48	5896.10
438.69	5963.68
438.90	5978.02
439.11	5818.28
439.32	6031.27
439.53	6025.12
439.74	5978.02
439.95	5990.31
440.16	5996.45
440.37	6037.41
440.57	5943.21
440.78	6137.76
440.99	6109.09
441.20	6180.77
441.41	6119.33
441.62	6148.00
441.83	6125.47
442.04	6252.45
442.25	6035.36
442.46	6317.98
442.67	6244.26
442.88	6680.47
443.09	6188.96
443.30	6223.78
443.51	6150.05
443.72	6657.95
443.93	6305.70
444.14	6584.22
444.35	6145.95
444.56	6498.20
444.77	6547.36
444.98	6412.19
445.19	6520.73
445.40	6580.12
445.61	6619.04
445.81	6688.67
446.02	6717.34
446.23	6709.15
446.44	6463.39
446.65	6541.21
446.86	6676.38
447.07	6735.77
447.28	6918.04
447.49	6860.70
447.70	6799.26
447.91	6942.61
448.12	6817.69
448.33	6846.36
448.54	6952.85
448.74	6772.63
448.95	6973.33
449.16	6866.84
449.37	7118.74
449.58	7024.53
449.79	7233.43
450.00	7006.10
450.21	7251.86
450.42	7294.86
450.63	7337.87
450.84	7014.29
451.05	7155.60
451.25	7174.03
451.46	7075.73
451.67	7514.00
451.88	7280.53
452.09	7266.19
452.30	7374.74
452.51	7309.20
452.72	7673.74
452.93	7597.96
453.13	7356.30
453.34	7468.94
453.55	7503.76
453.76	7407.50
453.97	7878.54
454.18	7628.68
454.39	7696.27
454.60	7737.23
454.81	7856.01
455.01	8023.94
455.22	7491.47
455.43	7808.90
455.64	8007.56
455.85	8056.71
456.06	8273.79
456.27	8071.04
456.48	7851.91
456.68	8050.57
456.89	8005.51
457.10	8146.82
457.31	8056.71
457.52	8134.53
457.73	8224.64
457.94	8478.59
458.14	8228.74
458.35	8570.75
458.56	8468.35
458.77	8417.15
458.98	8607.61
459.19	8597.37
459.39	8771.45
459.60	8734.59
459.81	8542.08
460.02	8781.69
460.23	8687.48
460.44	8875.90
460.65	8994.68
460.85	8898.42
461.06	8966.01
461.27	8888.18
461.48	9174.90
461.69	9351.03
461.89	8900.47
462.10	9074.55
462.31	8951.67
462.52	9033.59
462.73	9228.15
462.94	9414.51
463.14	9342.83
463.35	9351.03
463.56	9676.65
463.77	9734.00
463.98	9324.40
464.18	9631.60
464.39	9713.52
464.60	9906.02
464.81	9797.48
465.02	9742.19
465.23	9936.74
465.43	9920.36
465.64	10030.95
465.85	10033.00
466.06	10022.76
466.27	10260.32
466.47	10207.08
466.68	10356.58
466.89	10375.01
467.10	10456.93
467.30	10321.76
467.51	10348.39
467.72	10671.97
467.93	10465.12
468.14	10448.74
468.34	10911.58
468.55	10686.30
468.76	10989.40
468.97	10692.44
469.17	11089.75
469.38	11183.96
469.59	11290.45
469.80	11087.70
470.01	11110.23
470.21	11429.71
470.42	11405.14
470.63	11562.83
470.84	11460.43
471.04	11573.07
471.25	11609.93
471.46	11439.95
471.67	11906.89
471.87	11687.76
472.08	12031.82
472.29	12037.96
472.50	11779.92
472.70	12035.91
472.91	12033.86
473.12	12005.19
473.33	12212.04
473.53	12480.32
473.74	12425.03
473.95	12476.23
474.16	12783.42
474.36	12601.15
474.57	13045.56
474.78	13049.66
474.99	12857.15
475.19	12894.01
475.40	13336.37
475.61	13270.84
475.81	13461.30
476.02	13819.69
476.23	13330.23
476.44	13670.19
476.64	13918.00
476.85	14063.40
477.06	13745.97
477.27	14473.00
477.47	14155.56
477.68	14196.52
477.89	14192.42
478.09	14227.24
478.30	14493.47
478.51	14546.72
478.71	14518.05
478.92	14612.26
479.13	14860.06
479.34	14993.18
479.54	14946.08
479.75	15097.63
479.96	15050.52
480.16	15089.43
480.37	15210.26
480.58	15224.60
480.78	15603.47
480.99	15707.92
481.20	15720.21
481.41	15838.99
481.61	15826.70
481.82	16299.78
482.03	15752.98
482.23	15871.76
482.44	16152.33
482.65	16348.93
482.85	16647.94
483.06	16543.49
483.27	16699.14
483.47	16764.67
483.68	16729.86
483.89	16951.04
484.09	17024.76
484.30	17170.17
484.51	17153.79
484.71	17307.38
484.92	17186.55
485.13	17719.03
485.33	17301.24
485.54	17757.94
485.75	17731.31
485.95	18042.60
486.16	17907.44
486.37	18163.43
486.57	17889.01
486.78	18276.07
486.98	18317.03
487.19	18351.85
487.40	18413.29
487.60	18220.78
487.81	18738.91
488.02	18648.80
488.22	18806.50
488.43	18632.42
488.64	19287.77
488.84	19316.44
489.05	19453.66
489.25	19089.12
489.46	19529.43
489.67	19609.30
489.87	19740.37
490.08	19859.15
490.29	19519.19
490.49	20025.04
490.70	19988.18
490.90	19891.92
491.11	20336.33
491.32	20371.15
491.52	20299.47
491.73	20262.60
491.94	20577.99
492.14	20692.68
492.35	20444.87
492.55	21008.06
492.76	20786.88
492.97	20909.76
493.17	21278.40
493.38	21284.54
493.58	21530.30
493.79	21528.25
494.00	21083.84
494.20	21366.46
494.41	21696.18
494.61	21599.93
494.82	21726.90
495.02	21438.14
495.23	22017.71
495.44	22087.34
495.64	22103.73
495.85	22068.91
496.05	22390.44
496.26	22011.57
496.47	22597.29
496.67	22587.05
496.88	22707.88
497.08	22187.69
497.29	22746.79
497.49	22818.47
497.70	22800.04
497.91	23084.70
498.11	23090.85
498.32	23013.02
498.52	23219.87
498.73	23721.62
498.93	23291.55
499.14	23574.17
499.34	23449.24
499.55	23918.23
499.76	23670.42
499.96	23781.01
500.17	23744.15
500.37	23967.38
500.58	24102.54
500.78	24071.82
500.99	23856.79
501.19	24434.32
501.40	24559.24
501.60	24297.10
501.81	24555.15
502.02	24774.28
502.22	24479.37
502.43	24577.67
502.63	24915.59
502.84	24944.26
503.04	24716.93
503.25	24852.10
503.45	24923.78
503.66	25077.38
503.86	25169.54
504.07	25534.07
504.27	25327.23
504.48	25675.38
504.68	25546.36
504.89	25917.04
505.09	25882.23
505.30	25718.39
505.50	25542.27
505.71	26039.92
505.91	25833.08
506.12	26330.73
506.32	25919.09
506.53	26080.88
506.73	26275.44
506.94	26252.91
507.14	26474.09
507.35	26408.56
507.55	26242.67
507.76	26474.09
507.96	26355.31
508.17	26613.35
508.37	26459.76
508.58	26601.07
508.78	26674.79
508.99	27092.58
509.19	27012.71
509.40	26842.73
509.60	27143.78
509.81	27223.65
510.01	27115.11
510.22	27149.92
510.42	26932.84
510.63	27235.94
510.83	27487.84
511.04	27037.28
511.24	27254.37
511.44	27237.98
511.65	27399.77
511.85	27915.86
512.06	27549.28
512.26	27659.87
512.47	27698.78
512.67	27780.70
512.88	28165.71
513.08	27545.18
513.29	27993.68
513.49	28020.31
513.69	27698.78
513.90	28061.27
514.10	28061.27
514.31	28165.71
514.51	28407.37
514.72	28278.35
514.92	28321.36
515.13	28399.18
515.33	28565.07
515.53	28288.59
515.74	28618.32
515.94	28618.32
516.15	29007.43
516.35	28706.38
516.56	29161.03
516.76	28792.39
516.96	28673.61
517.17	29107.78
517.37	29089.35
517.58	29144.64
517.78	29101.64
517.99	29283.91
518.19	29206.08
518.39	29570.62
518.60	29521.47
518.80	29500.99
519.01	30131.76
519.21	29826.62
519.41	29738.55
519.62	29605.44
519.82	29580.86
520.03	30148.15
520.23	30174.77
520.43	29726.27
520.64	30422.58
520.84	30422.58
521.05	30088.76
521.25	30291.51
521.45	30549.55
521.66	30578.22
521.86	30578.22
522.07	30729.77
522.27	30514.73
522.47	30604.84
522.68	31018.53
522.88	30975.53
523.08	30770.73
523.29	31206.95
523.49	31108.65
523.70	31170.08
523.90	31542.81
524.10	31368.74
524.31	31862.30
524.51	31448.61
524.71	32073.24
524.92	31847.96
525.12	31999.51
525.33	31823.39
525.53	32163.35
525.73	32380.43
525.94	32292.37
526.14	32097.81
526.34	32120.34
526.55	32310.80
526.75	32595.47
526.95	32437.78
527.16	32364.05
527.36	32882.19
527.56	32935.43
527.77	33330.69
527.97	33187.33
528.17	32712.20
528.38	33529.34
528.58	33392.13
528.78	33517.06
528.99	33404.42
529.19	33535.49
529.39	33373.70
529.60	33965.56
529.80	33398.27
530.00	33879.55
530.21	33973.75
530.41	34199.03
530.61	34070.01
530.82	34141.69
531.02	34596.34
531.22	34330.10
531.43	34131.45
531.63	34520.56
531.83	34788.85
532.04	34661.87
532.24	34506.23
532.44	35276.26
532.64	35042.79
532.85	35382.76
533.05	35196.39
533.25	35268.07
533.46	35393.00
533.66	35622.37
533.86	35186.15
534.07	35821.02
534.27	35698.14
534.47	36185.56
534.67	36206.04
534.88	36226.52
535.08	36238.81
535.28	36191.70
535.49	36484.56
535.69	36687.31
535.89	36210.14
536.09	36490.71
536.30	36818.38
536.50	36793.81
536.70	36847.05
536.91	36898.25
537.11	37459.40
537.31	37252.55
537.51	37203.40
537.72	37488.07
537.92	37649.86
538.12	38014.40
538.32	37713.34
538.53	37969.34
538.73	37586.37
538.93	37733.82
539.13	37733.82
539.34	37991.87
539.54	37946.81
539.74	38206.90
539.94	37946.81
540.15	38270.39
540.35	38573.49
540.55	38604.21
540.75	38546.87
540.96	38892.97
541.16	38927.79
541.36	38698.42
541.56	38890.93
541.77	39306.66
541.97	39349.67
542.17	39128.49
542.37	39343.53
542.58	39124.40
542.78	39316.90
542.98	39218.60
543.18	39400.87
543.38	39843.23
543.59	39620.00
543.79	39792.03
543.99	39476.65
544.19	39587.24
544.40	39820.70
544.60	40009.12
544.80	40179.10
545.00	39867.81
545.20	40594.84
545.41	40279.45
545.61	40263.07
545.81	40621.46
546.01	40400.28
546.21	40719.76
546.42	40623.51
546.62	41016.72
546.82	40662.42
547.02	40744.34
547.22	41041.29
547.43	40871.31
547.63	41069.97
547.83	40942.99
548.03	41033.10
548.23	40938.90
548.44	40979.85
548.64	41311.63
548.84	41465.22
549.04	41614.72
549.24	41700.74
549.45	41571.72
549.65	41444.74
549.85	41553.29
550.05	41481.61
550.25	41645.44
550.45	41936.26
550.66	42026.37
550.86	41817.47
551.06	42313.08
551.26	42438.01
551.46	42308.99
551.66	42175.87
551.87	42063.23
552.07	42333.56
552.27	42745.20
552.47	42777.97
552.67	42454.39
552.87	42149.24
553.07	42691.96
553.28	42532.22
553.48	42550.65
553.68	42743.16
553.88	42694.00
554.08	42993.01
554.28	42835.31
554.48	42519.93
554.69	42818.93
554.89	42986.86
555.09	43560.30
555.29	42863.99
555.49	42956.14
555.69	42976.62
555.89	43046.26
556.10	43122.03
556.30	43253.10
556.50	43513.19
556.70	43287.92
556.90	43285.87
557.10	43775.33
557.30	42872.18
557.50	43847.01
557.70	43674.98
557.91	43554.15
558.11	43750.76
558.31	43697.51
558.51	44000.61
558.71	43580.78
558.91	43982.18
559.11	43717.99
559.31	43865.44
559.51	43894.11
559.72	44119.39
559.92	44383.58
560.12	44162.40
560.32	44619.10
560.52	43922.79
560.72	44092.77
560.92	44541.27
561.12	44096.86
561.32	44363.10
561.52	44047.71
561.72	44969.30
561.93	44393.82
562.13	44633.43
562.33	44336.48
562.53	45106.51
562.73	44569.94
562.93	44889.43
563.13	45020.50
563.33	44709.21
563.53	44961.11
563.73	44590.42
563.93	44918.10
564.13	45106.51
564.33	45274.45
564.53	45284.68
564.74	45059.41
564.94	44940.63
565.14	45174.09
565.34	44805.46
565.54	44963.15
565.74	45083.98
565.94	45243.73
566.14	45530.44
566.34	45124.94
566.54	45530.44
566.74	45102.42
566.94	45589.83
567.14	45702.47
567.34	45503.82
567.54	45456.71
567.74	45380.94
567.94	45417.80
568.14	45720.90
568.34	45774.15
568.54	45835.59
568.74	45937.99
568.94	45575.50
569.14	46236.99
569.34	46241.09
569.54	45925.70
569.75	45978.95
569.95	45612.36
570.15	46155.07
570.35	46419.26
570.55	45768.01
570.75	46120.26
570.95	45788.49
571.15	46376.25
571.35	46398.78
571.55	46538.04
571.75	46128.45
571.95	46429.50
572.15	46470.46
572.35	46781.75
572.55	46384.44
572.75	46353.72
572.95	46488.89
573.15	46716.22
573.35	46828.85
573.55	46527.80
573.75	46859.57
573.95	47162.67
574.15	46847.29
574.35	47441.20
574.55	46751.03
574.75	46900.53
574.95	46923.06
575.15	46708.02
575.34	47144.24
575.54	47492.40
575.74	47234.35
575.94	47523.11
576.14	47412.52
576.34	47750.44
576.54	47529.26
576.74	47430.96
576.94	47639.85
577.14	47854.89
577.34	47963.43
577.54	47529.26
577.74	48002.34
577.94	47975.72
578.14	48143.65
578.34	48442.65
578.54	47783.21
578.74	47744.30
578.94	48192.80
579.14	47828.26
579.34	48063.78
579.54	48442.65
579.74	48651.55
579.94	48643.35
580.13	48586.01
580.33	48332.06
580.53	48403.74
580.73	48799.00
580.93	48534.81
581.13	48852.25
581.33	49110.29
581.53	48672.03
581.73	48553.24
581.93	48600.35
582.13	48737.56
582.33	49063.19
582.53	49095.95
582.73	49169.68
582.92	49329.42
583.12	49284.37
583.32	49296.66
583.52	49300.75
583.72	49595.66
583.92	49380.62
584.12	49372.43
584.32	50001.16
584.52	49431.82
584.72	50093.32
584.92	50095.36
585.11	50285.82
585.31	49878.28
585.51	49513.74
585.71	50283.78
585.91	50511.10
586.11	50052.36
586.31	49741.06
586.51	49904.90
586.71	50279.68
586.91	50443.52
587.10	50550.01
587.30	50304.26
587.50	50631.93
587.70	50384.13
587.90	50441.47
588.10	50539.77
588.30	50222.34
588.50	50513.15
