SpectraSuite Data File
++++++++++++++++++++++++++++++++++++
Date: Fri Jun 02 14:48:00 CEST 2017
User: INFO_000
Dark Spectrum Present: No
Reference Spectrum Present: No
Number of Sampled Component Spectra: 1
Spectrometers: USB4H00879
Integration Time (usec): 80000 (USB4H00879)
Spectra Averaged: 1 (USB4H00879)
Boxcar Smoothing: 0 (USB4H00879)
Correct for Electrical Dark: No (USB4H00879)
Strobe/Lamp Enabled: No (USB4H00879)
Correct for Detector Non-linearity: No (USB4H00879)
Correct for Stray Light: No (USB4H00879)
Number of Pixels in Processed Spectrum: 3648
>>>>>Begin Processed Spectral Data<<<<<
345.13	1329.13
345.34	1329.13
345.56	1329.13
345.78	1355.76
345.99	1302.51
346.21	1728.49
346.42	1759.21
346.64	1705.96
346.86	1781.73
347.07	1636.33
347.29	1728.49
347.50	1634.28
347.72	1646.57
347.94	1777.64
348.15	1540.07
348.37	1626.09
348.59	1767.40
348.80	1705.96
349.02	1865.70
349.23	1941.47
349.45	1849.32
349.67	1877.99
349.88	1798.12
350.10	1976.29
350.31	1847.27
350.53	1837.03
350.75	1976.29
350.96	1834.98
351.18	1847.27
351.39	1865.70
351.61	1847.27
351.82	1847.27
352.04	1882.08
352.26	1845.22
352.47	1939.43
352.69	1900.52
352.90	1753.06
353.12	1808.36
353.34	1861.60
353.55	1951.71
353.77	1902.56
353.98	1834.98
354.20	1843.17
354.41	1968.10
354.63	1863.65
354.85	2088.93
355.06	1906.66
355.28	1812.45
355.49	1916.90
355.71	1894.37
355.92	1820.64
356.14	2015.20
356.35	1884.13
356.57	1888.23
356.79	1880.04
357.00	1832.93
357.22	1953.76
357.43	1888.23
357.65	1929.19
357.86	1918.95
358.08	1920.99
358.29	1892.32
358.51	1984.48
358.72	2002.91
358.94	1908.71
359.16	1910.75
359.37	1945.57
359.59	1941.47
359.80	2023.39
360.02	1976.29
360.23	1939.43
360.45	1925.09
360.66	1869.80
360.88	1888.23
361.09	1953.76
361.31	1972.19
361.52	1929.19
361.74	1994.72
361.95	2076.64
362.17	1945.57
362.38	2029.54
362.60	2009.06
362.81	1986.53
363.03	1939.43
363.24	1957.86
363.46	1964.00
363.67	2011.11
363.89	2027.49
364.10	2033.63
364.32	2011.11
364.53	2066.40
364.75	1951.71
364.96	1968.10
365.18	2045.92
365.39	2052.06
365.61	1945.57
365.82	2107.36
366.04	2029.54
366.25	1947.62
366.47	2115.55
366.68	1972.19
366.90	1955.81
367.11	1982.43
367.33	2117.60
367.54	2084.83
367.76	2025.44
367.97	2095.07
368.19	2017.25
368.40	2070.50
368.62	2002.91
368.83	1974.24
369.05	2060.26
369.26	2070.50
369.48	2025.44
369.69	2011.11
369.91	2088.93
370.12	2007.01
370.33	2183.13
370.55	1984.48
370.76	2019.30
370.98	2144.22
371.19	2090.98
371.41	2021.35
371.62	2043.87
371.84	2088.93
372.05	2148.32
372.27	1996.77
372.48	2176.99
372.69	2129.89
372.91	2140.13
373.12	2164.70
373.34	2131.94
373.55	2193.37
373.77	2211.81
373.98	2117.60
374.20	2174.94
374.41	2263.01
374.62	2093.02
374.84	2166.75
375.05	2287.58
375.27	2195.42
375.48	2187.23
375.70	2156.51
375.91	2129.89
376.12	2338.78
376.34	2088.93
376.55	2281.44
376.77	2334.68
376.98	2150.37
377.19	2119.65
377.41	2174.94
377.62	2203.61
377.84	2297.82
378.05	2369.50
378.27	2181.09
378.48	2289.63
378.69	2338.78
378.91	2301.92
379.12	2301.92
379.34	2281.44
379.55	2232.29
379.76	2246.62
379.98	2170.85
380.19	2291.68
380.41	2256.86
380.62	2308.06
380.83	2355.16
381.05	2224.09
381.26	2365.40
381.47	2248.67
381.69	2301.92
381.90	2416.60
382.12	2365.40
382.33	2209.76
382.54	2328.54
382.76	2332.64
382.97	2443.23
383.19	2289.63
383.40	2334.68
383.61	2260.96
383.83	2281.44
384.04	2394.08
384.25	2359.26
384.47	2355.16
384.68	2383.84
384.89	2400.22
385.11	2394.08
385.32	2287.58
385.54	2334.68
385.75	2355.16
385.96	2447.32
386.18	2486.23
386.39	2422.75
386.60	2277.34
386.82	2529.24
387.03	2439.13
387.24	2439.13
387.46	2529.24
387.67	2396.12
387.88	2519.00
388.10	2402.27
388.31	2469.85
388.52	2439.13
388.74	2510.81
388.95	2527.19
389.16	2484.19
389.38	2492.38
389.59	2631.64
389.80	2629.59
390.02	2594.78
390.23	2594.78
390.44	2584.54
390.66	2498.52
390.87	2480.09
391.08	2664.41
391.30	2754.52
391.51	2619.35
391.72	2727.89
391.94	2707.41
392.15	2621.40
392.36	2592.73
392.58	2662.36
392.79	2701.27
393.00	2715.61
393.22	2711.51
393.43	2731.99
393.64	2877.40
393.85	2738.13
394.07	2693.08
394.28	2750.42
394.49	2760.66
394.71	2770.90
394.92	2863.06
395.13	2705.37
395.35	2754.52
395.56	2775.00
395.77	2822.10
395.98	2877.40
396.20	2889.68
396.41	2805.72
396.62	2879.44
396.84	2811.86
397.05	2856.92
397.26	2912.21
397.47	2938.84
397.69	2899.92
397.90	2998.23
398.11	2926.55
398.32	2897.88
398.54	2879.44
398.75	2922.45
398.96	2940.88
399.18	3176.40
399.39	3076.05
399.60	3080.14
399.81	2867.16
400.03	3004.37
400.24	3235.79
400.45	2904.02
400.66	3170.26
400.88	2981.84
401.09	3143.63
401.30	3135.44
401.51	3225.55
401.73	3143.63
401.94	3170.26
402.15	3151.82
402.36	3198.93
402.58	3205.07
402.79	3274.70
403.00	3239.89
403.21	3145.68
403.43	3207.12
403.64	3207.12
403.85	3129.30
404.06	3327.95
404.27	3162.06
404.49	3223.50
404.70	3174.35
404.91	3377.10
405.12	3264.46
405.34	3375.05
405.55	3338.19
405.76	3260.37
405.97	3182.54
406.19	3420.11
406.40	3350.48
406.61	3325.90
406.82	3450.83
407.03	3366.86
407.25	3305.42
407.46	3411.92
407.67	3477.45
407.88	3510.22
408.09	3325.90
408.31	3379.15
408.52	3456.97
408.73	3461.07
408.94	3489.74
409.15	3555.27
409.37	3510.22
409.58	3588.04
409.79	3502.03
410.00	3581.90
410.21	3473.36
410.43	3514.31
410.64	3545.03
410.85	3518.41
411.06	3624.90
411.27	3661.77
411.48	3692.49
411.70	3569.61
411.91	3612.62
412.12	3653.58
412.33	3655.62
412.54	3663.82
412.76	3770.31
412.97	3719.11
413.18	3696.58
413.39	3606.47
413.60	3751.88
413.81	3770.31
414.03	3629.00
414.24	3721.16
414.45	3878.85
414.66	3645.38
414.87	3946.44
415.08	3760.07
415.30	3796.93
415.51	3805.13
415.72	3758.02
415.93	3813.32
416.14	3848.13
416.35	3805.13
416.56	3948.48
416.78	3796.93
416.99	3835.85
417.20	3928.00
417.41	3862.47
417.62	3966.92
417.83	3923.91
418.04	3887.04
418.26	3903.43
418.47	4016.07
418.68	4073.41
418.89	3944.39
419.10	4165.57
419.31	4059.07
419.52	4177.86
419.73	4018.11
419.95	4216.77
420.16	4052.93
420.37	4003.78
420.58	4104.13
420.79	4069.31
421.00	4087.75
421.21	4198.34
421.42	4069.31
421.63	4339.65
421.85	4249.54
422.06	4300.73
422.27	4214.72
422.48	4204.48
422.69	4257.73
422.90	4261.82
423.11	4331.45
423.32	4341.69
423.53	4573.11
423.75	4274.11
423.96	4564.92
424.17	4376.51
424.38	4644.79
424.59	4317.12
424.80	4716.47
425.01	4431.80
425.22	4546.49
425.43	4499.39
425.64	4657.08
425.85	4634.55
426.06	4804.53
426.28	4718.52
426.49	4673.46
426.70	4562.87
426.91	4679.61
427.12	4868.02
427.33	4902.84
427.54	4655.03
427.75	4847.54
427.96	4898.74
428.17	4833.21
428.38	4880.31
428.59	4919.22
428.80	4984.76
429.01	4951.99
429.23	4839.35
429.44	5271.47
429.65	5093.30
429.86	5111.73
430.07	4960.18
430.28	4951.99
430.49	5109.68
430.70	5175.22
430.91	5207.98
431.12	5150.64
431.33	5169.07
431.54	5343.15
431.75	5234.61
431.96	5228.46
432.17	5152.69
432.38	5300.14
432.59	5437.36
432.80	5420.97
433.01	5390.25
433.22	5394.35
433.43	5590.95
433.64	5476.27
433.85	5382.06
434.06	5500.84
434.27	5334.96
434.49	5574.57
434.70	5611.43
434.91	5554.09
435.12	5574.57
435.33	5531.56
435.54	5550.00
435.75	5418.93
435.96	5527.47
436.17	5603.24
436.38	5543.85
436.59	5754.79
436.80	5771.18
437.01	5855.14
437.22	5924.77
437.43	5746.60
437.64	5650.35
437.85	5973.92
438.06	5812.14
438.27	5724.07
438.48	5668.78
438.69	5906.34
438.90	5973.92
439.11	5744.55
439.32	6086.56
439.53	6021.03
439.74	6000.55
439.95	5955.49
440.16	6057.89
440.37	6072.23
440.57	5951.40
440.78	6166.43
440.99	6240.16
441.20	6127.52
441.41	6066.08
441.62	6180.77
441.83	6066.08
442.04	6229.92
442.25	6098.85
442.46	6246.30
442.67	6260.64
442.88	6479.77
443.09	6137.76
443.30	6264.74
443.51	6289.31
443.72	6625.18
443.93	6430.62
444.14	6664.09
444.35	6469.53
444.56	6471.58
444.77	6471.58
444.98	6508.44
445.19	6705.05
445.40	6528.92
445.61	6465.44
445.81	6698.91
446.02	6619.04
446.23	6705.05
446.44	6444.96
446.65	6582.17
446.86	6635.42
447.07	6954.90
447.28	7018.39
447.49	7069.59
447.70	6684.57
447.91	6829.98
448.12	6928.28
448.33	6907.80
448.54	6799.26
448.74	6815.64
448.95	7024.53
449.16	6852.50
449.37	7163.79
449.58	6817.69
449.79	7206.80
450.00	7038.87
450.21	7237.52
450.42	7298.96
450.63	7235.47
450.84	7120.79
451.05	7331.73
451.25	7178.13
451.46	7204.75
451.67	7268.24
451.88	7425.93
452.09	7354.26
452.30	7374.74
452.51	7245.71
452.72	7530.38
452.93	7673.74
453.13	7362.45
453.34	7489.42
453.55	7546.76
453.76	7409.55
453.97	7925.64
454.18	7808.90
454.39	7718.79
454.60	7581.58
454.81	7712.65
455.01	7905.16
455.22	7497.61
455.43	7858.06
455.64	7845.77
455.85	8097.67
456.06	8116.10
456.27	8046.47
456.48	7974.79
456.68	8032.13
456.89	8032.13
457.10	8345.47
457.31	8079.24
457.52	8284.03
457.73	8343.42
457.94	8443.78
458.14	8204.16
458.35	8621.95
458.56	8494.97
458.77	8312.71
458.98	8396.67
459.19	8537.98
459.39	8578.94
459.60	8699.77
459.81	8609.66
460.02	8824.70
460.23	8605.56
460.44	9002.87
460.65	8943.48
460.85	8951.67
461.06	8955.77
461.27	8744.83
461.48	9144.18
461.69	9217.91
461.89	8773.50
462.10	9146.23
462.31	9080.69
462.52	9062.26
462.73	9228.15
462.94	9277.30
463.14	9400.18
463.35	9230.20
463.56	9783.15
463.77	9500.53
463.98	9434.99
464.18	9543.53
464.39	9858.92
464.60	9971.56
464.81	9936.74
465.02	9770.86
465.23	9813.87
465.43	9762.67
465.64	10174.31
465.85	10170.21
466.06	10026.86
466.27	10379.11
466.47	10346.34
466.68	10248.04
466.89	10452.83
467.10	10321.76
467.30	10151.78
467.51	10235.75
467.72	10628.96
467.93	10372.96
468.14	10489.70
468.34	10841.95
468.55	10694.49
468.76	10952.54
468.97	10829.66
469.17	11038.55
469.38	11179.86
469.59	11296.60
469.80	10950.49
470.01	11159.38
470.21	11050.84
470.42	11298.64
470.63	11437.91
470.84	11351.89
471.04	11700.05
471.25	11784.01
471.46	11642.70
471.67	12005.19
471.87	11831.12
472.08	11784.01
472.29	12275.52
472.50	11743.05
472.70	11884.36
472.91	11851.60
473.12	12169.03
473.33	12410.69
473.53	12775.23
473.74	12314.44
473.95	12435.27
474.16	12699.45
474.36	12742.46
474.57	12787.52
474.78	12988.22
474.99	12918.59
475.19	12941.11
475.40	13227.83
475.61	13481.78
475.81	13377.33
476.02	13387.57
476.23	13440.82
476.44	13446.96
476.64	13580.08
476.85	13946.67
477.06	13748.01
477.27	14186.28
477.47	14100.26
477.68	14190.38
477.89	14384.93
478.09	14389.03
478.30	14493.47
478.51	14442.28
478.71	14602.02
478.92	14604.07
479.13	14804.77
479.34	15048.47
479.54	14984.99
479.75	15122.20
479.96	14919.45
480.16	15382.29
480.37	15218.46
480.58	15699.73
480.78	15660.82
480.99	15589.14
481.20	15861.52
481.41	15847.18
481.61	15941.39
481.82	16049.93
482.03	16006.92
482.23	16150.28
482.44	16383.75
482.65	16467.72
482.85	16477.96
483.06	16594.69
483.27	16529.16
483.47	16774.91
483.68	16615.17
483.89	16770.82
484.09	16955.13
484.30	17450.74
484.51	17391.35
484.71	17340.15
484.92	17442.55
485.13	17587.96
485.33	17544.95
485.54	17590.00
485.75	17872.62
485.95	17764.08
486.16	17972.97
486.37	18218.73
486.57	18157.29
486.78	18128.62
486.98	18284.26
487.19	18738.91
487.40	18730.72
487.60	18480.87
487.81	18953.95
488.02	18540.26
488.22	18812.64
488.43	19074.78
488.64	19019.49
488.84	19263.19
489.05	19357.40
489.25	19390.17
489.46	19564.25
489.67	19404.50
489.87	19678.93
490.08	19906.26
490.29	19599.06
490.49	20227.79
490.70	20201.16
490.90	20168.40
491.11	20174.54
491.32	20414.15
491.52	20299.47
491.73	20481.74
491.94	20473.54
492.14	20436.68
492.35	20862.66
492.55	20897.47
492.76	21130.94
492.97	21270.20
493.17	21132.99
493.38	21184.19
493.58	21442.23
493.79	21221.05
494.00	21282.49
494.20	21558.97
494.41	21958.32
494.61	21673.65
494.82	21991.09
495.02	21765.81
495.23	21991.09
495.44	22138.54
495.64	22220.46
495.85	22318.76
496.05	22445.74
496.26	22167.21
496.47	22515.37
496.67	22128.30
496.88	22890.15
497.08	22308.52
497.29	22724.26
497.49	22773.41
497.70	23137.95
497.91	23137.95
498.11	23273.12
498.32	23234.21
498.52	23156.38
498.73	23420.57
498.93	23297.69
499.14	23633.56
499.34	23570.07
499.55	24110.74
499.76	23729.81
499.96	23795.35
500.17	23977.62
500.37	24008.34
500.58	24016.53
500.78	24379.02
500.99	24141.46
501.19	24473.23
501.40	24389.26
501.60	24077.97
501.81	24444.56
502.02	24653.45
502.22	24327.82
502.43	24641.16
502.63	24819.33
502.84	24862.34
503.04	24942.21
503.25	25001.60
503.45	24997.51
503.66	25087.62
503.86	24878.72
504.07	25644.66
504.27	25210.50
504.48	25833.08
504.68	25171.58
504.89	25790.07
505.09	25710.20
505.30	25720.44
505.50	25749.11
505.71	25990.77
505.91	25888.37
506.12	25783.93
506.32	25931.38
506.53	26474.09
506.73	26414.70
506.94	26328.69
507.14	26158.70
507.35	26652.27
507.55	26369.65
507.76	26642.03
507.96	26250.86
508.17	26369.65
508.37	26388.08
508.58	26586.73
508.78	26777.19
508.99	27364.96
509.19	27012.71
509.40	26875.49
509.60	27108.96
509.81	27227.74
510.01	26934.88
510.22	26953.32
510.42	27352.67
510.63	27227.74
510.83	27491.93
511.04	27442.78
511.24	27528.80
511.44	27307.62
511.65	27532.89
511.85	27453.02
512.06	27686.49
512.26	27833.94
512.47	27858.52
512.67	27938.39
512.88	27846.23
513.08	27543.13
513.29	28233.30
513.49	28091.99
513.69	28061.27
513.90	28118.61
514.10	28458.57
514.31	28063.32
514.51	28384.85
514.72	28434.00
514.92	28159.57
515.13	28513.87
515.33	28589.64
515.53	28540.49
515.74	28608.08
515.94	28581.45
516.15	28683.85
516.35	28655.18
516.56	29046.34
516.76	29079.11
516.96	28849.74
517.17	29040.20
517.37	29392.45
517.58	29181.51
517.78	29249.09
517.99	29154.88
518.19	29296.19
518.39	29679.16
518.60	29705.79
518.80	29193.79
519.01	29611.58
519.21	29756.99
519.41	29931.06
519.62	29779.51
519.82	30043.70
520.03	29959.73
520.23	30000.69
520.43	30166.58
520.64	29969.97
520.84	30445.10
521.05	30436.91
521.25	30414.38
521.45	30539.31
521.66	30400.05
521.86	30557.74
522.07	30828.07
522.27	31051.30
522.47	31116.84
522.68	30996.01
522.88	30774.83
523.08	31194.66
523.29	31211.04
523.49	31260.20
523.70	31284.77
523.90	31424.03
524.10	31241.76
524.31	31688.22
524.51	31378.98
524.71	31825.43
524.92	31411.74
525.12	32056.85
525.33	31952.41
525.53	31929.88
525.73	32157.21
525.94	32290.32
526.14	32392.72
526.34	32153.11
526.55	32435.73
526.75	32157.21
526.95	32697.87
527.16	32689.68
527.36	32712.20
527.56	32671.25
527.77	33082.89
527.97	33170.95
528.17	32988.68
528.38	33211.91
528.58	33357.32
528.78	33478.15
528.99	33474.05
529.19	33652.22
529.39	33299.97
529.60	33662.46
529.80	33752.57
530.00	33226.24
530.21	34020.86
530.41	34221.56
530.61	34006.52
530.82	34407.92
531.02	34289.14
531.22	34409.97
531.43	34270.71
531.63	34565.62
531.83	34637.30
532.04	35292.65
532.24	34749.93
532.44	35061.22
532.64	35425.76
532.85	35220.97
533.05	35671.52
533.25	35700.19
533.46	35186.15
533.66	35550.69
533.86	35317.22
534.07	35677.66
534.27	35456.48
534.47	36072.92
534.67	36419.03
534.88	35945.95
535.08	35849.69
535.28	36679.12
535.49	36378.07
535.69	36728.27
535.89	36742.61
536.09	36918.73
536.30	36857.29
536.50	37131.72
536.70	36855.25
536.91	37043.66
537.11	36865.49
537.31	37289.42
537.51	37244.36
537.72	37645.76
537.92	37545.41
538.12	37975.48
538.32	37508.55
538.53	37952.96
538.73	37526.98
538.93	37770.69
539.13	37862.85
539.34	38147.51
539.54	37852.61
539.74	38215.10
539.94	38129.08
540.15	38362.55
540.35	38284.73
540.55	38405.56
540.75	38550.96
540.96	38663.60
541.16	38782.38
541.36	38555.06
541.56	38890.93
541.77	38940.08
541.97	39114.16
542.17	39333.29
542.37	39357.86
542.58	39298.47
542.78	39126.44
542.98	39601.57
543.18	39742.88
543.38	40029.60
543.59	40037.79
543.79	39736.74
543.99	39617.96
544.19	40179.10
544.40	39732.64
544.60	40144.28
544.80	40080.80
545.00	39904.67
545.20	40650.13
545.41	40379.80
545.61	39722.40
545.81	40408.47
546.01	40734.10
546.21	40095.13
546.42	40717.71
546.62	40899.98
546.82	40695.19
547.02	40840.59
547.22	40844.69
547.43	40555.93
547.63	40949.14
547.83	41129.36
548.03	40760.72
548.23	41278.86
548.44	41123.21
548.64	41010.57
548.84	41227.66
549.04	41545.09
549.24	41751.94
549.45	41823.62
549.65	41465.22
549.85	41219.47
550.05	41940.35
550.25	41631.11
550.45	42155.39
550.66	42061.18
550.86	41868.67
551.06	42294.65
551.26	42300.79
551.46	42182.01
551.66	41966.98
551.87	42153.34
552.07	42495.35
552.27	42446.20
552.47	42603.89
552.67	42579.32
552.87	42497.40
553.07	42753.40
553.28	42597.75
553.48	42700.15
553.68	42534.26
553.88	42866.03
554.08	42771.83
554.28	42530.17
554.48	42777.97
554.69	43089.26
554.89	42945.90
555.09	42974.58
555.29	43105.65
555.49	43308.40
555.69	43060.59
555.89	43044.21
556.10	43019.63
556.30	42997.10
556.50	43308.40
556.70	43005.30
556.90	43492.71
557.10	43357.55
557.30	43605.35
557.50	43412.84
557.70	43918.69
557.91	43525.48
558.11	43631.97
558.31	44055.90
558.51	43289.96
558.71	43668.84
558.91	44416.35
559.11	43922.79
559.31	44195.17
559.51	43527.53
559.72	44485.98
559.92	44125.53
560.12	43812.20
560.32	44035.42
560.52	44008.80
560.72	44100.96
560.92	44442.97
561.12	44176.73
561.32	44707.16
561.52	44045.66
561.72	44469.59
561.93	44229.98
562.13	44768.60
562.33	44430.68
562.53	44873.04
562.73	44903.76
562.93	44672.34
563.13	44502.36
563.33	44586.33
563.53	44895.57
563.73	44596.57
563.93	44709.21
564.13	45210.96
564.33	45004.11
564.53	45217.10
564.74	44676.44
564.94	44817.75
565.14	45380.94
565.34	45137.23
565.54	44883.28
565.74	45200.72
565.94	45636.94
566.14	45176.14
566.34	45235.53
566.54	45530.44
566.74	45026.64
566.94	45725.00
567.14	45890.88
567.34	45022.54
567.54	45618.50
567.74	45475.15
567.94	45358.41
568.14	45704.52
568.34	45960.51
568.54	45909.32
568.74	45749.57
568.94	45518.15
569.14	46003.52
569.34	46044.48
569.54	45677.90
569.75	45604.17
569.95	45915.46
570.15	46282.05
570.35	46103.87
570.55	46273.85
570.75	45931.84
570.95	46454.08
571.15	46519.61
571.35	46492.99
571.55	46726.46
571.75	46462.27
571.95	46462.27
572.15	46488.89
572.35	46441.79
572.55	46863.67
572.75	46497.08
572.95	46470.46
573.15	46849.33
573.35	47072.56
573.55	46239.04
573.75	46687.54
573.95	46976.31
574.15	46441.79
574.35	47103.28
574.55	46998.83
574.75	46865.72
574.95	47183.15
575.15	47129.90
575.34	46921.01
575.54	47363.37
575.74	47375.66
575.94	47766.82
576.14	47011.12
576.34	47693.10
576.54	47525.16
576.74	47703.34
576.94	47719.72
577.14	47664.42
577.34	48018.72
577.54	47836.45
577.74	47768.87
577.94	47883.56
578.14	47736.10
578.34	48039.20
578.54	47398.19
578.74	47686.95
578.94	48057.63
579.14	47906.08
579.34	48379.17
579.54	48178.46
579.74	48260.38
579.94	48518.43
580.13	48448.80
580.33	48473.37
580.53	48495.90
580.73	48921.88
580.93	48643.35
581.13	48483.61
581.33	48846.10
581.53	49120.53
581.73	48618.78
581.93	49374.48
582.13	49470.73
582.33	49218.83
582.53	49098.00
582.73	49351.95
582.92	49134.87
583.12	49526.03
583.32	49673.48
583.52	49100.05
583.72	49601.80
583.92	49603.85
584.12	49409.29
584.32	50054.40
584.52	49646.86
584.72	49347.86
584.92	49624.33
585.11	50001.16
585.31	49814.79
585.51	50152.71
585.71	49943.81
585.91	50228.48
586.11	49802.50
586.31	49990.92
586.51	50072.84
586.71	50267.39
586.91	50781.43
587.10	50158.85
587.30	50445.57
587.50	50251.01
587.70	50552.06
587.90	50238.72
588.10	50742.52
588.30	50617.60
588.50	50859.26
