SpectraSuite Data File
++++++++++++++++++++++++++++++++++++
Date: Fri Jun 02 14:47:53 CEST 2017
User: INFO_000
Dark Spectrum Present: No
Reference Spectrum Present: No
Number of Sampled Component Spectra: 1
Spectrometers: USB4H00879
Integration Time (usec): 80000 (USB4H00879)
Spectra Averaged: 1 (USB4H00879)
Boxcar Smoothing: 0 (USB4H00879)
Correct for Electrical Dark: No (USB4H00879)
Strobe/Lamp Enabled: No (USB4H00879)
Correct for Detector Non-linearity: No (USB4H00879)
Correct for Stray Light: No (USB4H00879)
Number of Pixels in Processed Spectrum: 3648
>>>>>Begin Processed Spectral Data<<<<<
345.13	1243.12
345.34	1243.12
345.56	1243.12
345.78	1241.07
345.99	1239.02
346.21	1648.61
346.42	1691.62
346.64	1583.08
346.86	1775.59
347.07	1710.05
347.29	1771.49
347.50	1626.09
347.72	1626.09
347.94	1695.72
348.15	1560.55
348.37	1613.80
348.59	1697.77
348.80	1675.24
349.02	1591.27
349.23	1744.87
349.45	1683.43
349.67	1763.30
349.88	1718.25
350.10	1865.70
350.31	1746.92
350.53	1761.25
350.75	1847.27
350.96	1697.77
351.18	1830.88
351.39	1728.49
351.61	1628.14
351.82	1769.44
352.04	1822.69
352.26	1708.01
352.47	1806.31
352.69	1738.73
352.90	1658.85
353.12	1667.05
353.34	1796.07
353.55	1773.54
353.77	1751.01
353.98	1748.97
354.20	1681.38
354.41	1720.29
354.63	1857.51
354.85	1855.46
355.06	1759.21
355.28	1611.75
355.49	1726.44
355.71	1800.16
355.92	1748.97
356.14	1869.80
356.35	1710.05
356.57	1675.24
356.79	1863.65
357.00	1761.25
357.22	1896.42
357.43	1703.91
357.65	1794.02
357.86	1708.01
358.08	1732.58
358.29	1791.97
358.51	1810.40
358.72	1798.12
358.94	1769.44
359.16	1685.48
359.37	1761.25
359.59	1824.74
359.80	1832.93
360.02	1736.68
360.23	1859.56
360.45	1923.04
360.66	1806.31
360.88	1626.09
361.09	1710.05
361.31	1781.73
361.52	1753.06
361.74	1871.84
361.95	1851.36
362.17	1738.73
362.38	1847.27
362.60	1880.04
362.81	1775.59
363.03	1738.73
363.24	1777.64
363.46	1826.79
363.67	1830.88
363.89	1757.16
364.10	1802.21
364.32	1740.77
364.53	1769.44
364.75	1710.05
364.96	1873.89
365.18	1906.66
365.39	1820.64
365.61	1730.53
365.82	1894.37
366.04	1800.16
366.25	1693.67
366.47	1853.41
366.68	1777.64
366.90	1796.07
367.11	1806.31
367.33	1847.27
367.54	1888.23
367.76	1734.63
367.97	1964.00
368.19	1771.49
368.40	1839.08
368.62	1818.60
368.83	1742.82
369.05	1810.40
369.26	1775.59
369.48	1802.21
369.69	1753.06
369.91	1843.17
370.12	1812.45
370.33	1957.86
370.55	1777.64
370.76	1759.21
370.98	1916.90
371.19	1804.26
371.41	1806.31
371.62	1859.56
371.84	1732.58
372.05	1961.95
372.27	1771.49
372.48	1863.65
372.69	1810.40
372.91	1945.57
373.12	1855.46
373.34	1736.68
373.55	1845.22
373.77	1826.79
373.98	1828.84
374.20	2029.54
374.41	2011.11
374.62	1863.65
374.84	1900.52
375.05	1880.04
375.27	1920.99
375.48	1845.22
375.70	1904.61
375.91	1863.65
376.12	2072.54
376.34	1888.23
376.55	1781.73
376.77	1941.47
376.98	1777.64
377.19	1808.36
377.41	1814.50
377.62	2004.96
377.84	2029.54
378.05	2105.31
378.27	1968.10
378.48	1976.29
378.69	2035.68
378.91	2021.35
379.12	1957.86
379.34	1964.00
379.55	1978.34
379.76	1970.15
379.98	1882.08
380.19	1990.63
380.41	2082.78
380.62	1976.29
380.83	1902.56
381.05	1945.57
381.26	2119.65
381.47	1916.90
381.69	1994.72
381.90	2152.42
382.12	1943.52
382.33	1925.09
382.54	2009.06
382.76	1964.00
382.97	2080.74
383.19	1880.04
383.40	2152.42
383.61	2002.91
383.83	2017.25
384.04	2086.88
384.25	2002.91
384.47	2129.89
384.68	1923.04
384.89	1943.52
385.11	2125.79
385.32	1996.77
385.54	2103.26
385.75	2068.45
385.96	2152.42
386.18	2074.59
386.39	2060.26
386.60	2097.12
386.82	2117.60
387.03	2099.17
387.24	2191.33
387.46	2101.22
387.67	2172.89
387.88	2303.96
388.10	2099.17
388.31	2185.18
388.52	2314.20
388.74	2228.19
388.95	2248.67
389.16	2131.94
389.38	2152.42
389.59	2170.85
389.80	2297.82
390.02	2263.01
390.23	2400.22
390.44	2164.70
390.66	2203.61
390.87	2115.55
391.08	2361.31
391.30	2443.23
391.51	2428.89
391.72	2439.13
391.94	2418.65
392.15	2379.74
392.36	2310.11
392.58	2375.64
392.79	2461.66
393.00	2469.85
393.22	2400.22
393.43	2557.91
393.64	2514.91
393.85	2478.04
394.07	2394.08
394.28	2490.33
394.49	2467.80
394.71	2559.96
394.92	2658.26
395.13	2387.93
395.35	2404.32
395.56	2349.02
395.77	2559.96
395.98	2566.10
396.20	2600.92
396.41	2619.35
396.62	2785.24
396.84	2566.10
397.05	2461.66
397.26	2598.87
397.47	2770.90
397.69	2592.73
397.90	2719.70
398.11	2789.33
398.32	2729.94
398.54	2656.22
398.75	2674.65
398.96	2861.01
399.18	2793.43
399.39	2815.96
399.60	2899.92
399.81	2709.46
400.03	2824.15
400.24	3123.15
400.45	2850.77
400.66	2879.44
400.88	2775.00
401.09	2975.70
401.30	2799.57
401.51	2912.21
401.73	2889.68
401.94	2971.60
402.15	2963.41
402.36	2979.79
402.58	2985.94
402.79	3030.99
403.00	3104.72
403.21	2994.13
403.43	3108.82
403.64	3219.41
403.85	3016.66
404.06	3209.17
404.27	2959.31
404.49	3190.74
404.70	3006.42
404.91	3223.50
405.12	3180.50
405.34	3135.44
405.55	3203.02
405.76	2998.23
405.97	3205.07
406.19	3336.14
406.40	3049.43
406.61	3266.51
406.82	3174.35
407.03	3217.36
407.25	3194.83
407.46	3393.48
407.67	3342.28
407.88	3375.05
408.09	3303.37
408.31	3317.71
408.52	3393.48
408.73	3325.90
408.94	3227.60
409.15	3276.75
409.37	3379.15
409.58	3391.44
409.79	3485.64
410.00	3440.59
410.21	3323.85
410.43	3360.72
410.64	3235.79
410.85	3373.00
411.06	3389.39
411.27	3387.34
411.48	3508.17
411.70	3485.64
411.91	3436.49
412.12	3547.08
412.33	3571.66
412.54	3481.55
412.76	3674.06
412.97	3598.28
413.18	3446.73
413.39	3538.89
413.60	3641.29
413.81	3624.90
414.03	3635.14
414.24	3518.41
414.45	3815.37
414.66	3491.79
414.87	3643.34
415.08	3600.33
415.30	3710.92
415.51	3592.14
415.72	3655.62
415.93	3629.00
416.14	3571.66
416.35	3753.93
416.56	3844.04
416.78	3784.65
416.99	3755.97
417.20	3903.43
417.41	3897.28
417.62	3841.99
417.83	3860.42
418.04	3708.87
418.26	3925.96
418.47	3809.22
418.68	3997.64
418.89	3905.48
419.10	4014.02
419.31	3919.81
419.52	4036.55
419.73	3917.76
419.95	4067.27
420.16	3928.00
420.37	3989.44
420.58	3987.40
420.79	3827.65
421.00	4024.26
421.21	4116.42
421.42	3973.06
421.63	4087.75
421.85	4026.31
422.06	4259.78
422.27	4222.91
422.48	4179.90
422.69	4034.50
422.90	4245.44
423.11	4302.78
423.32	4300.73
423.53	4442.04
423.75	4149.18
423.96	4433.85
424.17	4288.45
424.38	4394.94
424.59	4358.08
424.80	4515.77
425.01	4399.04
425.22	4396.99
425.43	4308.93
425.64	4624.31
425.85	4562.87
426.06	4538.30
426.28	4573.11
426.49	4458.43
426.70	4483.00
426.91	4468.67
427.12	4636.60
427.33	4644.79
427.54	4624.31
427.75	4816.82
427.96	4845.49
428.17	4691.90
428.38	4812.73
428.59	4827.06
428.80	4720.57
429.01	4732.86
429.23	4665.27
429.44	4919.22
429.65	5001.14
429.86	4911.03
430.07	4806.58
430.28	4845.49
430.49	4921.27
430.70	5085.11
430.91	5050.29
431.12	4990.90
431.33	5130.16
431.54	4968.37
431.75	5154.74
431.96	5142.45
432.17	5136.31
432.38	5001.14
432.59	5386.16
432.80	5214.13
433.01	5353.39
433.22	5261.23
433.43	5207.98
433.64	5236.66
433.85	5181.36
434.06	5365.68
434.27	5214.13
434.49	5308.34
434.70	5470.12
434.91	5390.25
435.12	5472.17
435.33	5394.35
435.54	5455.79
435.75	5330.86
435.96	5410.73
436.17	5275.57
436.38	5435.31
436.59	5519.28
436.80	5648.30
437.01	5717.93
437.22	5722.02
437.43	5578.67
437.64	5418.93
437.85	5736.36
438.06	5654.44
438.27	5582.76
438.48	5683.11
438.69	5851.05
438.90	5646.25
439.11	5773.22
439.32	5849.00
439.53	5715.88
439.74	5892.01
439.95	5783.46
440.16	5894.05
440.37	5828.52
440.57	5773.22
440.78	6018.98
440.99	6000.55
441.20	5988.26
441.41	5853.09
441.62	5959.59
441.83	5945.25
442.04	6064.04
442.25	6080.42
442.46	5941.16
442.67	6195.11
442.88	6399.90
443.09	6141.86
443.30	6129.57
443.51	6201.25
443.72	6426.53
443.93	6021.03
444.14	6442.91
444.35	6121.38
444.56	6283.17
444.77	6348.70
444.98	6240.16
445.19	6477.73
445.40	6350.75
445.61	6287.26
445.81	6453.15
446.02	6524.83
446.23	6463.39
446.44	6221.73
446.65	6461.34
446.86	6406.05
447.07	6705.05
447.28	6629.27
447.49	6762.39
447.70	6440.86
447.91	6508.44
448.12	6541.21
448.33	6881.18
448.54	6610.84
448.74	6678.43
448.95	6598.56
449.16	6647.71
449.37	6950.81
449.58	6705.05
449.79	6987.67
450.00	6680.47
450.21	6817.69
450.42	7085.97
450.63	6905.75
450.84	6944.66
451.05	7077.78
451.25	7042.96
451.46	6891.41
451.67	7141.27
451.88	7221.14
452.09	7018.39
452.30	7040.92
452.51	7079.83
452.72	7266.19
452.93	7417.74
453.13	7126.93
453.34	7120.79
453.55	7339.92
453.76	7178.13
453.97	7514.00
454.18	7395.22
454.39	7589.77
454.60	7507.85
454.81	7415.69
455.01	7636.88
455.22	7432.08
455.43	7610.25
455.64	7706.51
455.85	7542.67
456.06	7884.68
456.27	7679.88
456.48	7819.14
456.68	7794.57
456.89	7804.81
457.10	7858.06
457.31	7913.35
457.52	7987.08
457.73	8097.67
457.94	8234.88
458.14	7911.30
458.35	8355.71
458.56	8286.08
458.77	8140.68
458.98	8177.54
459.19	8152.96
459.39	8298.37
459.60	8277.89
459.81	8288.13
460.02	8437.63
460.23	8566.65
460.44	8632.19
460.65	8662.91
460.85	8564.61
461.06	8671.10
461.27	8437.63
461.48	8859.51
461.69	8853.37
461.89	8636.28
462.10	8943.48
462.31	8640.38
462.52	8863.61
462.73	9002.87
462.94	9099.13
463.14	8947.58
463.35	9013.11
463.56	9617.26
463.77	9293.68
463.98	9150.32
464.18	9230.20
464.39	9506.67
464.60	9355.12
464.81	9570.16
465.02	9467.76
465.23	9738.09
465.43	9568.11
465.64	9979.75
465.85	9672.56
466.06	9574.25
466.27	9838.44
466.47	9951.08
466.68	9936.74
466.89	9924.46
467.10	10151.78
467.30	9908.07
467.51	10102.63
467.72	10317.67
467.93	10061.67
468.14	10088.29
468.34	10401.63
468.55	10366.82
468.76	10456.93
468.97	10325.86
469.17	10686.30
469.38	10733.40
469.59	10786.65
469.80	10757.98
470.01	10637.15
470.21	10710.88
470.42	11044.70
470.63	10932.06
470.84	10833.75
471.04	11202.39
471.25	11106.13
471.46	11304.79
471.67	11628.37
471.87	11319.12
472.08	11507.54
472.29	11591.50
472.50	11339.60
472.70	11528.02
472.91	11581.26
473.12	11794.25
473.33	11861.84
473.53	11992.90
473.74	11714.38
473.95	12189.51
474.16	12222.28
474.36	12179.27
474.57	12451.65
474.78	12332.87
474.99	12486.47
475.19	12472.13
475.40	12748.61
475.61	12879.68
475.81	13086.52
476.02	12924.73
476.23	12826.43
476.44	13113.14
476.64	13387.57
476.85	13317.94
477.06	13496.11
477.27	13578.03
477.47	13715.25
477.68	13625.14
477.89	13700.91
478.09	13918.00
478.30	13991.72
478.51	13883.18
478.71	14126.89
478.92	14333.73
479.13	14149.42
479.34	14616.35
479.54	14602.02
479.75	14475.04
479.96	14819.10
480.16	14720.80
480.37	14495.52
480.58	14980.89
480.78	15054.62
480.99	14868.25
481.20	15281.94
481.41	15220.50
481.61	15306.52
481.82	15662.86
482.03	15296.28
482.23	15601.43
482.44	15626.00
482.65	15847.18
482.85	16158.47
483.06	15777.55
483.27	15925.00
483.47	16070.41
483.68	16207.62
483.89	16252.68
484.09	16129.80
484.30	16355.08
484.51	16715.52
484.71	16846.59
484.92	16504.58
485.13	16944.89
485.33	16971.52
485.54	16785.15
485.75	17018.62
485.95	17346.30
486.16	17194.75
486.37	17602.29
486.57	17573.62
486.78	17565.43
486.98	17667.83
487.19	17663.73
487.40	17970.93
487.60	17942.25
487.81	18200.30
488.02	17864.43
488.22	18042.60
488.43	18343.66
488.64	18202.35
488.84	18448.10
489.05	18652.90
489.25	18618.08
489.46	18628.32
489.67	18751.20
489.87	18806.50
490.08	18939.62
490.29	18976.48
490.49	19281.63
490.70	19457.75
490.90	19248.86
491.11	19234.52
491.32	19523.29
491.52	19654.36
491.73	19666.64
491.94	19678.93
492.14	19570.39
492.35	20076.24
492.55	20106.96
492.76	20106.96
492.97	20166.35
493.17	20135.63
493.38	20399.82
493.58	20614.85
493.79	20780.74
494.00	21012.16
494.20	20801.22
494.41	21028.54
494.61	20821.70
494.82	21014.21
495.02	21010.11
495.23	21116.61
495.44	20987.58
495.64	21255.87
495.85	21540.54
496.05	21583.54
496.26	21509.82
496.47	21696.18
496.67	21696.18
496.88	22001.33
497.08	21597.88
497.29	21855.92
497.49	21661.37
497.70	22081.20
497.91	22286.00
498.11	21993.14
498.32	22361.77
498.52	22519.46
498.73	22599.34
498.93	22589.10
499.14	22703.78
499.34	22417.07
499.55	22957.73
499.76	22707.88
499.96	22892.19
500.17	22986.40
500.37	23068.32
500.58	22914.72
500.78	22910.63
500.99	23027.36
501.19	23422.62
501.40	23527.06
501.60	23398.04
501.81	23418.52
502.02	23740.05
502.22	23322.27
502.43	23721.62
502.63	23809.68
502.84	23836.31
503.04	23781.01
503.25	24024.72
503.45	24168.08
503.66	23936.66
503.86	24120.98
504.07	24510.09
504.27	24174.22
504.48	24589.96
504.68	24671.88
504.89	24704.65
505.09	24553.10
505.30	24596.10
505.50	24704.65
505.71	24698.50
505.91	25073.28
506.12	24948.36
506.32	24823.43
506.53	24985.22
506.73	25368.19
506.94	25206.40
507.14	25370.24
507.35	25339.52
507.55	25230.98
507.76	25310.85
507.96	25198.21
508.17	25378.43
508.37	25443.96
508.58	25620.09
508.78	25667.19
508.99	25831.03
509.19	25986.68
509.40	25896.56
509.60	25886.32
509.81	26142.32
510.01	25912.95
510.22	26093.17
510.42	26144.37
510.63	26029.68
510.83	26472.04
511.04	26078.83
511.24	26326.64
511.44	26244.72
511.65	26332.78
511.85	26631.79
512.06	27174.50
512.26	26703.46
512.47	27027.04
512.67	26594.92
512.88	26875.49
513.08	26881.64
513.29	26914.41
513.49	26949.22
513.69	26840.68
513.90	26842.73
514.10	27274.85
514.31	27108.96
514.51	27475.55
514.72	27166.31
514.92	26979.94
515.13	27321.95
515.33	27618.91
515.53	27258.46
515.74	27690.59
515.94	27706.97
516.15	27930.20
516.35	27594.33
516.56	27817.56
516.76	27727.45
516.96	27879.00
517.17	28026.45
517.37	28108.37
517.58	27913.81
517.78	28167.76
517.99	28141.14
518.19	28423.76
518.39	28446.29
518.60	28579.40
518.80	28388.94
519.01	28218.96
519.21	28431.95
519.41	28530.25
519.62	28554.83
519.82	28728.91
520.03	28909.13
520.23	28763.72
520.43	28714.57
520.64	29128.26
520.84	29288.00
521.05	29046.34
521.25	29392.45
521.45	29210.18
521.66	29208.13
521.86	29249.09
522.07	29038.15
522.27	29529.66
522.47	29777.47
522.68	29775.42
522.88	29695.55
523.08	30086.71
523.29	29810.23
523.49	29976.12
523.70	30135.86
523.90	30199.35
524.10	30033.46
524.31	30281.27
524.51	30037.56
524.71	30823.98
524.92	30320.18
525.12	30856.75
525.33	30807.59
525.53	30903.85
525.73	30789.16
525.94	31022.63
526.14	30750.25
526.34	30981.67
526.55	31272.48
526.75	31141.41
526.95	31557.15
527.16	31311.39
527.36	31311.39
527.56	31815.19
527.77	31944.22
527.97	31675.93
528.17	31809.05
528.38	32257.56
528.58	31794.71
528.78	32214.55
528.99	31671.84
529.19	32366.10
529.39	31872.54
529.60	32593.42
529.80	32392.72
530.00	31956.50
530.21	32593.42
530.41	32929.29
530.61	32982.54
530.82	32939.53
531.02	32644.62
531.22	33013.26
531.43	33302.02
531.63	33228.29
531.83	33439.23
532.04	33766.91
532.24	33510.91
532.44	33615.36
532.64	33633.79
532.85	33682.94
533.05	33971.71
533.25	34037.24
533.46	33940.99
533.66	34416.11
533.86	34434.55
534.07	34457.07
534.27	34223.61
534.47	34616.82
534.67	34768.37
534.88	34471.41
535.08	34524.66
535.28	34813.42
535.49	34938.35
535.69	35456.48
535.89	35093.99
536.09	34979.31
536.30	35456.48
536.50	35538.40
536.70	35759.58
536.91	35440.10
537.11	35761.63
537.31	35753.44
537.51	35474.91
537.72	36013.53
537.92	36234.71
538.12	36527.57
538.32	36382.16
538.53	36365.78
538.73	36201.94
538.93	36185.56
539.13	36203.99
539.34	36548.05
539.54	36447.70
539.74	36879.82
539.94	36550.10
540.15	36599.25
540.35	37221.83
540.55	36908.49
540.75	36994.51
540.96	37359.05
541.16	37498.31
541.36	37383.62
541.56	37250.50
541.77	37606.85
541.97	37612.99
542.17	37729.73
542.37	37633.47
542.58	37559.75
542.78	38067.64
542.98	37799.36
543.18	38331.83
543.38	38172.09
543.59	38215.10
543.79	38100.41
543.99	38256.06
544.19	38327.74
544.40	38249.91
544.60	38868.40
544.80	38665.65
545.00	38413.75
545.20	38985.13
545.41	38720.95
545.61	38725.04
545.81	38827.44
546.01	39069.10
546.21	38874.54
546.42	38882.73
546.62	39384.49
546.82	38868.40
547.02	39232.94
547.22	39462.31
547.43	39177.64
547.63	39392.68
547.83	39716.26
548.03	39460.26
548.23	39617.96
548.44	39927.20
548.64	39669.15
548.84	39904.67
549.04	40041.88
549.24	40064.41
549.45	40324.50
549.65	40148.38
549.85	39923.10
550.05	40258.97
550.25	40254.87
550.45	40416.66
550.66	40211.87
550.86	40232.35
551.06	40390.04
551.26	40809.87
551.46	40306.07
551.66	41100.68
551.87	40508.82
552.07	40711.57
552.27	40725.91
552.47	40859.02
552.67	41182.60
552.87	41082.25
553.07	40797.59
553.28	41043.34
553.48	41340.30
553.68	40727.95
553.88	41158.03
554.08	41563.53
554.28	41020.81
554.48	41176.46
554.69	41061.77
554.89	41776.51
555.09	41387.40
555.29	41203.08
555.49	41588.10
555.69	41868.67
555.89	41401.74
556.10	41500.04
556.30	41409.93
556.50	41702.79
556.70	41338.25
556.90	41731.46
557.10	42098.05
557.30	41854.34
557.50	42067.33
557.70	42018.17
557.91	42194.30
558.11	41819.52
558.31	42087.81
558.51	42091.90
558.71	42268.03
558.91	42382.71
559.11	42067.33
559.31	42007.94
559.51	42179.96
559.72	42610.04
559.92	42530.17
560.12	42069.37
560.32	42524.02
560.52	42739.06
560.72	42702.20
560.92	42726.77
561.12	42714.48
561.32	43072.88
561.52	42376.57
561.72	42644.85
561.93	42661.24
562.13	42870.13
562.33	42636.66
562.53	43079.02
562.73	42790.26
562.93	43072.88
563.13	42573.17
563.33	42829.17
563.53	43445.61
563.73	43103.60
563.93	43169.13
564.13	43279.72
564.33	43033.97
564.53	43459.94
564.74	43380.07
564.94	43421.03
565.14	43392.36
565.34	42976.62
565.54	43664.74
565.74	43498.86
565.94	43838.82
566.14	43208.04
566.34	43552.10
566.54	43654.50
566.74	43576.68
566.94	43791.72
567.14	43425.13
567.34	43595.11
567.54	44117.34
567.74	43556.20
567.94	43865.44
568.14	44008.80
568.34	44039.52
568.54	43963.75
568.74	44137.82
568.94	43820.39
569.14	44141.92
569.34	44258.65
569.54	44191.07
569.75	43949.41
569.95	44166.49
570.15	44889.43
570.35	44342.62
570.55	44406.11
570.75	44189.02
570.95	44488.03
571.15	44406.11
571.35	44641.62
571.55	45356.36
571.75	44832.08
571.95	44643.67
572.15	44541.27
572.35	44256.60
572.55	44469.59
572.75	44985.68
572.95	44746.07
573.15	44649.81
573.35	44944.72
573.55	44739.93
573.75	44889.43
573.95	45176.14
574.15	45049.17
574.35	45339.98
574.55	45253.97
574.75	45204.81
574.95	45567.30
575.15	45223.25
575.34	44938.58
575.54	45309.26
575.74	45704.52
575.94	45442.38
576.14	45425.99
576.34	46093.63
576.54	45962.56
576.74	45671.75
576.94	45454.67
577.14	45987.14
577.34	46247.23
577.54	45825.35
577.74	46304.57
577.94	46484.79
578.14	46300.48
578.34	46382.40
578.54	45851.97
578.74	46064.96
578.94	46701.88
579.14	46648.63
579.34	46177.60
579.54	46535.99
579.74	46619.96
579.94	46613.82
580.13	47140.14
580.33	46593.34
580.53	46480.70
580.73	46871.86
580.93	47109.43
581.13	46585.15
581.33	47134.00
581.53	47121.71
581.73	47177.01
581.93	47113.52
582.13	47465.77
582.33	47359.28
582.53	47301.93
582.73	47013.17
582.92	47267.12
583.12	47521.07
583.32	47406.38
583.52	47215.92
583.72	47543.59
583.92	47232.30
584.12	47674.66
584.32	48065.83
584.52	47342.89
584.72	47967.52
584.92	47791.40
585.11	48373.02
585.31	48203.04
585.51	47887.65
585.71	48082.21
585.91	48452.89
586.11	48477.47
586.31	48039.20
586.51	48133.41
586.71	48272.67
586.91	48903.45
587.10	48477.47
587.30	49034.52
587.50	48678.17
587.70	48676.12
587.90	48878.87
588.10	48557.34
588.30	48317.73
588.50	48657.69
