SpectraSuite Data File
++++++++++++++++++++++++++++++++++++
Date: Fri Jun 02 14:47:55 CEST 2017
User: INFO_000
Dark Spectrum Present: No
Reference Spectrum Present: No
Number of Sampled Component Spectra: 1
Spectrometers: USB4H00879
Integration Time (usec): 80000 (USB4H00879)
Spectra Averaged: 1 (USB4H00879)
Boxcar Smoothing: 0 (USB4H00879)
Correct for Electrical Dark: No (USB4H00879)
Strobe/Lamp Enabled: No (USB4H00879)
Correct for Detector Non-linearity: No (USB4H00879)
Correct for Stray Light: No (USB4H00879)
Number of Pixels in Processed Spectrum: 3648
>>>>>Begin Processed Spectral Data<<<<<
345.13	1290.22
345.34	1290.22
345.56	1290.22
345.78	1263.60
345.99	1277.93
346.21	1640.42
346.42	1701.86
346.64	1581.03
346.86	1767.40
347.07	1574.89
347.29	1732.58
347.50	1564.65
347.72	1613.80
347.94	1746.92
348.15	1497.07
348.37	1585.13
348.59	1687.53
348.80	1695.72
349.02	1863.65
349.23	1884.13
349.45	1744.87
349.67	1847.27
349.88	1888.23
350.10	1978.34
350.31	1877.99
350.53	1837.03
350.75	1959.91
350.96	1808.36
351.18	1873.89
351.39	1867.75
351.61	1695.72
351.82	1875.94
352.04	1925.09
352.26	1857.51
352.47	1894.37
352.69	1908.71
352.90	1779.68
353.12	1806.31
353.34	1898.47
353.55	1925.09
353.77	1880.04
353.98	1810.40
354.20	1875.94
354.41	1925.09
354.63	1976.29
354.85	1978.34
355.06	1902.56
355.28	1830.88
355.49	1941.47
355.71	1865.70
355.92	1832.93
356.14	1841.12
356.35	1880.04
356.57	1869.80
356.79	1978.34
357.00	1935.33
357.22	1902.56
357.43	1902.56
357.65	1912.80
357.86	1880.04
358.08	1894.37
358.29	1937.38
358.51	2023.39
358.72	2039.78
358.94	1886.18
359.16	1951.71
359.37	1875.94
359.59	2007.01
359.80	1953.76
360.02	1929.19
360.23	1998.82
360.45	1957.86
360.66	1933.28
360.88	1886.18
361.09	1918.95
361.31	1970.15
361.52	1951.71
361.74	2019.30
361.95	2103.26
362.17	1982.43
362.38	2080.74
362.60	2097.12
362.81	1984.48
363.03	1951.71
363.24	2009.06
363.46	2056.16
363.67	2045.92
363.89	2011.11
364.10	1923.04
364.32	1966.05
364.53	1978.34
364.75	1869.80
364.96	2054.11
365.18	2101.22
365.39	2082.78
365.61	1951.71
365.82	2142.18
366.04	2007.01
366.25	1984.48
366.47	2080.74
366.68	2045.92
366.90	1914.85
367.11	2035.68
367.33	2060.26
367.54	2076.64
367.76	1998.82
367.97	2123.74
368.19	2082.78
368.40	2023.39
368.62	1933.28
368.83	2002.91
369.05	2015.20
369.26	1982.43
369.48	1994.72
369.69	1875.94
369.91	2039.78
370.12	2033.63
370.33	2131.94
370.55	1943.52
370.76	1957.86
370.98	2070.50
371.19	2002.91
371.41	1923.04
371.62	2070.50
371.84	1998.82
372.05	2232.29
372.27	1980.39
372.48	2072.54
372.69	2136.03
372.91	2197.47
373.12	2117.60
373.34	2172.89
373.55	2080.74
373.77	2238.43
373.98	2060.26
374.20	2146.27
374.41	2195.42
374.62	2117.60
374.84	2158.56
375.05	2150.37
375.27	2119.65
375.48	2205.66
375.70	2121.70
375.91	2222.05
376.12	2256.86
376.34	2076.64
376.55	2127.84
376.77	2185.18
376.98	2111.46
377.19	2166.75
377.41	2105.31
377.62	2209.76
377.84	2291.68
378.05	2334.68
378.27	2193.37
378.48	2240.48
378.69	2330.59
378.91	2322.40
379.12	2199.52
379.34	2279.39
379.55	2248.67
379.76	2252.77
379.98	2172.89
380.19	2271.20
380.41	2244.57
380.62	2344.92
380.83	2244.57
381.05	2273.25
381.26	2496.47
381.47	2285.53
381.69	2248.67
381.90	2377.69
382.12	2355.16
382.33	2398.17
382.54	2351.07
382.76	2404.32
382.97	2250.72
383.19	2228.19
383.40	2383.84
383.61	2275.29
383.83	2236.38
384.04	2322.40
384.25	2441.18
384.47	2416.60
384.68	2342.88
384.89	2303.96
385.11	2283.49
385.32	2330.59
385.54	2426.84
385.75	2265.05
385.96	2336.73
386.18	2369.50
386.39	2377.69
386.60	2338.78
386.82	2461.66
387.03	2467.80
387.24	2592.73
387.46	2467.80
387.67	2486.23
387.88	2508.76
388.10	2490.33
388.31	2549.72
388.52	2539.48
388.74	2494.43
388.95	2533.34
389.16	2422.75
389.38	2428.89
389.59	2600.92
389.80	2680.79
390.02	2457.56
390.23	2734.04
390.44	2588.63
390.66	2588.63
390.87	2494.43
391.08	2637.78
391.30	2645.98
391.51	2693.08
391.72	2607.06
391.94	2643.93
392.15	2478.04
392.36	2609.11
392.58	2547.67
392.79	2590.68
393.00	2727.89
393.22	2658.26
393.43	2795.48
393.64	2822.10
393.85	2738.13
394.07	2621.40
394.28	2736.09
394.49	2754.52
394.71	2746.33
394.92	2836.44
395.13	2600.92
395.35	2656.22
395.56	2752.47
395.77	2818.00
395.98	2848.72
396.20	2858.96
396.41	2793.43
396.62	2818.00
396.84	2752.47
397.05	2791.38
397.26	2889.68
397.47	2967.51
397.69	2822.10
397.90	3039.19
398.11	2867.16
398.32	2754.52
398.54	2873.30
398.75	2838.48
398.96	2914.26
399.18	3055.57
399.39	2965.46
399.60	3012.56
399.81	2928.60
400.03	2918.36
400.24	3301.33
400.45	2953.17
400.66	2981.84
400.88	2908.12
401.09	3194.83
401.30	3037.14
401.51	3157.97
401.73	3041.23
401.94	3114.96
402.15	3004.37
402.36	3135.44
402.58	3196.88
402.79	3096.53
403.00	3055.57
403.21	3139.54
403.43	3100.62
403.64	3243.98
403.85	3084.24
404.06	3205.07
404.27	3139.54
404.49	3198.93
404.70	3127.25
404.91	3268.56
405.12	3262.41
405.34	3157.97
405.55	3438.54
405.76	3207.12
405.97	3248.08
406.19	3272.65
406.40	3330.00
406.61	3215.31
406.82	3352.52
407.03	3379.15
407.25	3207.12
407.46	3344.33
407.67	3467.21
407.88	3407.82
408.09	3311.57
408.31	3426.25
408.52	3385.29
408.73	3387.34
408.94	3350.48
409.15	3413.96
409.37	3411.92
409.58	3530.70
409.79	3508.17
410.00	3567.56
410.21	3446.73
410.43	3512.27
410.64	3471.31
410.85	3520.46
411.06	3571.66
411.27	3588.04
411.48	3684.30
411.70	3657.67
411.91	3600.33
412.12	3588.04
412.33	3629.00
412.54	3598.28
412.76	3796.93
412.97	3715.02
413.18	3598.28
413.39	3551.18
413.60	3725.26
413.81	3739.59
414.03	3620.81
414.24	3733.45
414.45	3839.94
414.66	3622.86
414.87	3706.82
415.08	3684.30
415.30	3641.29
415.51	3833.80
415.72	3819.46
415.93	3776.45
416.14	3753.93
416.35	3811.27
416.56	3895.24
416.78	3864.52
416.99	3846.09
417.20	3885.00
417.41	3876.80
417.62	3837.89
417.83	3874.76
418.04	3823.56
418.26	4005.83
418.47	3858.37
418.68	3991.49
418.89	4061.12
419.10	4079.55
419.31	3983.30
419.52	3968.96
419.73	3948.48
419.95	4081.60
420.16	4050.88
420.37	3981.25
420.58	4065.22
420.79	3858.37
421.00	3985.35
421.21	4046.79
421.42	4075.46
421.63	4165.57
421.85	4100.03
422.06	4173.76
422.27	4202.43
422.48	4097.99
422.69	4222.91
422.90	4249.54
423.11	4276.16
423.32	4288.45
423.53	4304.83
423.75	4321.21
423.96	4409.28
424.17	4497.34
424.38	4265.92
424.59	4366.27
424.80	4569.02
425.01	4265.92
425.22	4374.46
425.43	4351.93
425.64	4620.22
425.85	4636.60
426.06	4550.59
426.28	4444.09
426.49	4472.76
426.70	4417.47
426.91	4489.15
427.12	4499.39
427.33	4566.97
427.54	4597.69
427.75	4681.66
427.96	4736.95
428.17	4605.88
428.38	4702.14
428.59	4767.67
428.80	4814.77
429.01	4757.43
429.23	4808.63
429.44	4954.04
429.65	4990.90
429.86	4839.35
430.07	4775.86
430.28	4755.38
430.49	4855.73
430.70	4978.61
430.91	5091.25
431.12	4878.26
431.33	5099.44
431.54	5023.67
431.75	5124.02
431.96	5103.54
432.17	4972.47
432.38	5072.82
432.59	5304.24
432.80	5105.59
433.01	5279.66
433.22	5242.80
433.43	5183.41
433.64	5203.89
433.85	5169.07
434.06	5394.35
434.27	5214.13
434.49	5408.69
434.70	5425.07
434.91	5472.17
435.12	5519.28
435.33	5427.12
435.54	5461.93
435.75	5195.70
435.96	5361.58
436.17	5294.00
436.38	5435.31
436.59	5541.80
436.80	5443.50
437.01	5670.83
437.22	5595.05
437.43	5613.48
437.64	5345.20
437.85	5705.64
438.06	5896.10
438.27	5662.63
438.48	5767.08
438.69	5935.01
438.90	5869.48
439.11	5787.56
439.32	5754.79
439.53	5722.02
439.74	5844.90
439.95	6049.70
440.16	5822.38
440.37	5887.91
440.57	5795.75
440.78	6047.65
440.99	6064.04
441.20	5937.06
441.41	5912.49
441.62	6104.99
441.83	5812.14
442.04	6195.11
442.25	5873.57
442.46	6100.90
442.67	6217.63
442.88	6623.13
443.09	6051.75
443.30	6025.12
443.51	6246.30
443.72	6399.90
443.93	6236.06
444.14	6461.34
444.35	6119.33
444.56	6481.82
444.77	6379.42
444.98	6313.89
445.19	6475.68
445.40	6451.10
445.61	6461.34
445.81	6408.09
446.02	6629.27
446.23	6401.95
446.44	6539.16
446.65	6619.04
446.86	6432.67
447.07	6664.09
447.28	6803.35
447.49	6770.58
447.70	6576.03
447.91	6893.46
448.12	6707.10
448.33	6868.89
448.54	6915.99
448.74	6653.85
448.95	6815.64
449.16	6631.32
449.37	7067.54
449.58	6965.14
449.79	6821.78
450.00	6748.06
450.21	6860.70
450.42	6991.77
450.63	7149.46
450.84	7012.24
451.05	6961.05
451.25	7040.92
451.46	6723.48
451.67	7131.03
451.88	7137.17
452.09	7239.57
452.30	6911.89
452.51	7059.35
452.72	7325.58
452.93	7610.25
453.13	7128.98
453.34	7126.93
453.55	7311.25
453.76	7235.47
453.97	7645.07
454.18	7407.50
454.39	7534.48
454.60	7516.05
454.81	7364.50
455.01	7585.68
455.22	7272.34
455.43	7612.30
455.64	7851.91
455.85	7794.57
456.06	7798.66
456.27	7602.06
456.48	7653.26
456.68	7774.09
456.89	7620.49
457.10	7733.13
457.31	7894.92
457.52	7776.14
457.73	7997.32
457.94	8093.57
458.14	7843.72
458.35	8341.38
458.56	8095.62
458.77	7868.30
458.98	8208.26
459.19	8109.96
459.39	8204.16
459.60	8439.68
459.81	8163.20
460.02	8386.43
460.23	8419.20
460.44	8558.46
460.65	8499.07
460.85	8568.70
461.06	8562.56
461.27	8517.50
461.48	8687.48
461.69	8875.90
461.89	8562.56
462.10	8771.45
462.31	8644.48
462.52	8642.43
462.73	8767.35
462.94	8931.19
463.14	8871.80
463.35	8865.66
463.56	9285.49
463.77	9246.58
463.98	9082.74
464.18	9047.93
464.39	9189.24
464.60	9557.87
464.81	9334.64
465.02	9138.04
465.23	9385.84
465.43	9383.79
465.64	9811.82
465.85	9416.56
466.06	9559.92
466.27	9903.98
466.47	9770.86
466.68	9656.17
466.89	9858.92
467.10	10024.81
467.30	9707.37
467.51	10006.38
467.72	10233.70
467.93	9930.60
468.14	10180.45
468.34	10313.57
468.55	10182.50
468.76	10278.76
468.97	10227.56
469.17	10461.02
469.38	10575.71
469.59	10846.04
469.80	10471.26
470.01	10667.87
470.21	10725.21
470.42	11118.42
470.63	11059.03
470.84	10714.97
471.04	11188.05
471.25	11061.08
471.46	11028.31
471.67	11290.45
471.87	11349.84
472.08	11603.79
472.29	11601.74
472.50	11693.90
472.70	11409.23
472.91	11693.90
473.12	11835.21
473.33	11962.19
473.53	12091.21
473.74	11886.41
473.95	11872.07
474.16	12212.04
474.36	12128.07
474.57	12486.47
474.78	12586.82
474.99	12435.27
475.19	12468.03
475.40	12910.40
475.61	12889.92
475.81	12971.83
476.02	13178.68
476.23	13047.61
476.44	13221.69
476.64	13475.63
476.85	13598.51
477.06	13483.83
477.27	13584.18
477.47	13883.18
477.68	13895.47
477.89	13831.98
478.09	13979.43
478.30	14030.63
478.51	14108.46
478.71	14397.22
478.92	14497.57
479.13	14393.12
479.34	14677.79
479.54	14688.03
479.75	14550.82
479.96	14810.91
480.16	14903.07
480.37	15161.11
480.58	15071.00
480.78	15509.27
480.99	15585.04
481.20	15578.90
481.41	15501.08
481.61	15662.86
481.82	15855.37
482.03	15662.86
482.23	15888.14
482.44	16164.62
482.65	16271.11
482.85	16215.82
483.06	16299.78
483.27	16187.14
483.47	16320.26
483.68	16600.83
483.89	16770.82
484.09	16604.93
484.30	16803.58
484.51	16920.32
484.71	17108.73
484.92	17159.93
485.13	17200.89
485.33	17211.13
485.54	17233.66
485.75	17583.86
485.95	17798.90
486.16	17547.00
486.37	17800.94
486.57	17671.92
486.78	17895.15
486.98	17964.78
487.19	18214.63
487.40	18472.68
487.60	18228.97
487.81	18697.95
488.02	18095.85
488.22	18335.46
488.43	18556.64
488.64	18740.96
488.84	18740.96
489.05	18882.27
489.25	18736.87
489.46	18988.77
489.67	18949.85
489.87	19281.63
490.08	19244.76
490.29	19365.59
490.49	19703.51
490.70	19732.18
490.90	19642.07
491.11	19396.31
491.32	19744.47
491.52	19705.56
491.73	19936.98
491.94	19750.61
492.14	19875.54
492.35	20037.33
492.55	20180.68
492.76	20397.77
492.97	20459.21
493.17	20500.17
493.38	20551.37
493.58	20534.98
493.79	20379.34
494.00	20436.68
494.20	21040.83
494.41	20784.83
494.61	20844.23
494.82	20793.03
495.02	21126.85
495.23	21243.58
495.44	21372.60
495.64	21313.21
495.85	21321.40
496.05	21591.73
496.26	21458.62
496.47	21593.78
496.67	21628.60
496.88	21931.70
497.08	21851.83
497.29	21921.46
497.49	21958.32
497.70	21872.31
497.91	22103.73
498.11	21997.23
498.32	22111.92
498.52	22550.18
498.73	22509.22
498.93	22318.76
499.14	22763.17
499.34	22386.35
499.55	22480.55
499.76	22767.27
499.96	22621.86
500.17	22636.20
500.37	22748.84
500.58	22802.08
500.78	22988.45
500.99	22765.22
501.19	23053.98
501.40	23324.32
501.60	23264.92
501.81	23211.68
502.02	23115.42
502.22	23156.38
502.43	23320.22
502.63	23746.20
502.84	23752.34
503.04	23772.82
503.25	23602.84
503.45	23563.93
503.66	23719.57
503.86	24000.15
504.07	23793.30
504.27	23815.83
504.48	24141.46
504.68	23795.35
504.89	24424.08
505.09	24282.77
505.30	24133.26
505.50	24288.91
505.71	24497.80
505.91	24555.15
506.12	24352.40
506.32	24260.24
506.53	24637.06
506.73	24559.24
506.94	24639.11
507.14	24860.29
507.35	24753.80
507.55	24776.33
507.76	25108.10
507.96	24833.67
508.17	24944.26
508.37	24843.91
508.58	25374.33
508.78	25290.37
508.99	25425.53
509.19	25429.63
509.40	25595.51
509.60	25462.40
509.81	25378.43
510.01	25392.76
510.22	25661.05
510.42	25867.89
510.63	25900.66
510.83	25919.09
511.04	25714.30
511.24	25847.41
511.44	25902.71
511.65	25884.28
511.85	25998.96
512.06	26390.13
512.26	26482.28
512.47	26470.00
512.67	26179.18
512.88	26332.78
513.08	26224.24
513.29	26519.15
513.49	26525.29
513.69	26607.21
513.90	27145.83
514.10	26912.36
514.31	26848.87
514.51	26961.51
514.72	27074.15
514.92	27014.76
515.13	27254.37
515.33	27393.63
515.53	27213.41
515.74	27487.84
515.94	27584.09
516.15	27547.23
516.35	27192.93
516.56	27872.85
516.76	27584.09
516.96	27784.79
517.17	27926.10
517.37	27903.57
517.58	27827.80
517.78	28079.70
517.99	27946.58
518.19	28407.37
518.39	28661.32
518.60	28603.98
518.80	28329.55
519.01	28859.98
519.21	28511.82
519.41	28921.41
519.62	28382.80
519.82	28989.00
520.03	29079.11
520.23	28810.82
520.43	28958.28
520.64	29046.34
520.84	29294.14
521.05	29451.84
521.25	29689.40
521.45	29699.64
521.66	29515.33
521.86	29568.57
522.07	29599.29
522.27	30021.17
522.47	29937.21
522.68	30285.36
522.88	30191.16
523.08	30303.79
523.29	30531.12
523.49	30391.86
523.70	30680.62
523.90	30823.98
524.10	30615.08
524.31	30817.83
524.51	30864.94
524.71	31372.83
524.92	31147.56
525.12	31381.03
525.33	31307.30
525.53	31372.83
525.73	31508.00
525.94	31532.57
526.14	31153.70
526.34	31890.97
526.55	31497.76
526.75	31819.29
526.95	32122.39
527.16	31856.15
527.36	32056.85
527.56	32470.54
527.77	32112.15
527.97	32421.39
528.17	32355.86
528.38	32773.64
528.58	32599.57
528.78	32849.42
528.99	32583.18
529.19	32925.19
529.39	32884.23
529.60	33154.57
529.80	33402.37
530.00	33318.40
530.21	33351.17
530.41	33719.81
530.61	33732.09
530.82	33748.48
531.02	33515.01
531.22	33838.59
531.43	34012.66
531.63	33994.23
531.83	34643.44
532.04	34493.94
532.24	34041.34
532.44	34586.10
532.64	34432.50
532.85	34985.45
533.05	34993.64
533.25	34442.74
533.46	34788.85
533.66	34960.87
533.86	34862.57
534.07	35093.99
534.27	35038.70
534.47	35220.97
534.67	35581.41
534.88	35427.81
535.08	35157.48
535.28	35468.77
535.49	35735.01
535.69	36193.75
535.89	36079.07
536.09	35843.55
536.30	36484.56
536.50	36503.00
536.70	36466.13
536.91	36392.40
537.11	36238.81
537.31	36681.17
537.51	36273.62
537.72	37023.18
537.92	37123.53
538.12	37090.76
538.32	36703.70
538.53	37115.34
538.73	37174.73
538.93	36939.21
539.13	37268.94
539.34	37164.49
539.54	37250.50
539.74	37397.96
539.94	37133.77
540.15	36959.69
540.35	37488.07
540.55	37369.29
540.75	37443.01
540.96	37701.06
541.16	37594.56
541.36	37537.22
541.56	37733.82
541.77	37983.68
541.97	37903.81
542.17	38206.90
542.37	38272.44
542.58	37971.39
542.78	38034.88
542.98	37909.95
543.18	37864.89
543.38	38550.96
543.59	38288.82
543.79	38024.64
543.99	38069.69
544.19	38561.20
544.40	38467.00
544.60	38421.94
544.80	38292.92
545.00	38374.84
545.20	38747.57
545.41	38651.31
545.61	38647.22
545.81	38622.64
546.01	38790.58
546.21	38686.13
546.42	38485.43
546.62	39028.14
546.82	38524.34
547.02	38913.45
547.22	39079.34
547.43	39089.58
547.63	39325.10
547.83	39251.37
548.03	39171.50
548.23	38991.28
548.44	39425.45
548.64	38983.09
548.84	39740.83
549.04	39407.01
549.24	39663.01
549.45	39495.08
549.65	39468.45
549.85	39394.73
550.05	39490.98
550.25	39294.38
550.45	40031.65
550.66	39914.91
550.86	39503.27
551.06	39720.35
551.26	39740.83
551.46	39652.77
551.66	39935.39
551.87	40193.43
552.07	40365.46
552.27	40017.31
552.47	40005.02
552.67	40404.38
552.87	40129.95
553.07	40404.38
553.28	40279.45
553.48	40506.77
553.68	39941.53
553.88	40773.01
554.08	40498.58
554.28	40375.70
554.48	40232.35
554.69	40132.00
554.89	40646.04
555.09	40424.86
555.29	40662.42
555.49	40750.48
555.69	40684.95
555.89	40584.60
556.10	40830.35
556.30	40750.48
556.50	40865.17
556.70	40484.25
556.90	40799.63
557.10	41100.68
557.30	40646.04
557.50	41155.98
557.70	41018.77
557.91	41207.18
558.11	41213.32
558.31	41389.45
558.51	40754.58
558.71	41411.98
558.91	41627.01
559.11	41366.92
559.31	41188.75
559.51	41129.36
559.72	41553.29
559.92	41667.97
560.12	41094.54
560.32	41686.40
560.52	41831.81
560.72	41641.35
560.92	41809.28
561.12	41686.40
561.32	42220.92
561.52	41768.32
561.72	42067.33
561.93	41692.55
562.13	41696.64
562.33	41641.35
562.53	42569.08
562.73	42327.42
562.93	42204.54
563.13	42345.85
563.33	41979.26
563.53	42769.78
563.73	41860.48
563.93	42216.83
564.13	42620.28
564.33	42597.75
564.53	42562.93
564.74	42974.58
564.94	42673.52
565.14	42550.65
565.34	42661.24
565.54	42837.36
565.74	42573.17
565.94	43285.87
566.14	43103.60
566.34	42956.14
566.54	43609.45
566.74	43406.70
566.94	43165.04
567.14	43554.15
567.34	43144.56
567.54	43484.52
567.74	43580.78
567.94	43431.27
568.14	43707.75
568.34	43355.50
568.54	43656.55
568.74	43603.30
568.94	43775.33
569.14	43953.51
569.34	43963.75
569.54	44012.90
569.75	43926.88
569.95	44350.81
570.15	44500.31
570.35	44254.56
570.55	44160.35
570.75	44074.34
570.95	44758.36
571.15	44369.24
571.35	44780.88
571.55	44625.24
571.75	44578.14
571.95	44979.54
572.15	44387.67
572.35	45030.74
572.55	44893.52
572.75	44885.33
572.95	44897.62
573.15	45260.11
573.35	45004.11
573.55	45006.16
573.75	45133.14
573.95	45436.23
574.15	45419.85
574.35	45716.81
574.55	45493.58
574.75	45557.06
574.95	45512.01
575.15	45469.00
575.34	45604.17
575.54	45755.72
575.74	46083.39
575.94	45978.95
576.14	45913.41
576.34	46415.16
576.54	46409.02
576.74	46300.48
576.94	46509.37
577.14	46540.09
577.34	46935.35
577.54	46171.46
577.74	47084.85
577.94	46658.87
578.14	46810.42
578.34	46937.40
578.54	46253.37
578.74	47191.34
578.94	47650.09
579.14	46677.30
579.34	46996.79
579.54	46851.38
579.74	47752.49
579.94	47363.37
580.13	47633.71
580.33	47668.52
580.53	47750.44
580.73	48098.59
580.93	47469.87
581.13	47818.02
581.33	47912.23
581.53	48031.01
581.73	47981.86
581.93	48252.19
582.13	48407.84
582.33	48456.99
582.53	47973.67
582.73	48323.87
582.92	48270.62
583.12	48594.20
583.32	48352.54
583.52	48307.49
583.72	48719.13
583.92	48534.81
584.12	49032.47
584.32	48811.29
584.52	48522.52
584.72	49319.18
584.92	49263.89
585.11	49474.83
585.31	48784.66
585.51	49286.42
585.71	49239.31
585.91	49300.75
586.11	49286.42
586.31	49300.75
586.51	49466.64
586.71	49425.68
586.91	49552.65
587.10	49300.75
587.30	49734.92
587.50	49528.08
587.70	49679.63
587.90	49913.09
588.10	50040.07
588.30	49845.51
588.50	50337.02
