SpectraSuite Data File
++++++++++++++++++++++++++++++++++++
Date: Fri Jun 02 14:47:58 CEST 2017
User: INFO_000
Dark Spectrum Present: No
Reference Spectrum Present: No
Number of Sampled Component Spectra: 1
Spectrometers: USB4H00879
Integration Time (usec): 80000 (USB4H00879)
Spectra Averaged: 1 (USB4H00879)
Boxcar Smoothing: 0 (USB4H00879)
Correct for Electrical Dark: No (USB4H00879)
Strobe/Lamp Enabled: No (USB4H00879)
Correct for Detector Non-linearity: No (USB4H00879)
Correct for Stray Light: No (USB4H00879)
Number of Pixels in Processed Spectrum: 3648
>>>>>Begin Processed Spectral Data<<<<<
345.13	1277.93
345.34	1277.93
345.56	1277.93
345.78	1271.79
345.99	1263.60
346.21	1716.20
346.42	1683.43
346.64	1679.33
346.86	1728.49
347.07	1642.47
347.29	1667.05
347.50	1628.14
347.72	1626.09
347.94	1839.08
348.15	1642.47
348.37	1574.89
348.59	1693.67
348.80	1636.33
349.02	1753.06
349.23	1935.33
349.45	1765.35
349.67	1843.17
349.88	1791.97
350.10	1961.95
350.31	1855.46
350.53	1851.36
350.75	1939.43
350.96	1824.74
351.18	1853.41
351.39	1847.27
351.61	1832.93
351.82	1873.89
352.04	1871.84
352.26	1753.06
352.47	1918.95
352.69	1875.94
352.90	1822.69
353.12	1859.56
353.34	1918.95
353.55	1865.70
353.77	1880.04
353.98	1855.46
354.20	1814.50
354.41	1933.28
354.63	1918.95
354.85	1998.82
355.06	1959.91
355.28	1802.21
355.49	1935.33
355.71	1884.13
355.92	1851.36
356.14	1951.71
356.35	1875.94
356.57	1869.80
356.79	1914.85
357.00	1832.93
357.22	1945.57
357.43	1794.02
357.65	1951.71
357.86	1912.80
358.08	1939.43
358.29	1970.15
358.51	1925.09
358.72	1927.14
358.94	1933.28
359.16	1916.90
359.37	1902.56
359.59	1908.71
359.80	1880.04
360.02	1918.95
360.23	1929.19
360.45	2019.30
360.66	1941.47
360.88	1837.03
361.09	1959.91
361.31	2007.01
361.52	1953.76
361.74	2021.35
361.95	2068.45
362.17	1910.75
362.38	2025.44
362.60	2052.06
362.81	2072.54
363.03	1920.99
363.24	1927.14
363.46	2031.58
363.67	2070.50
363.89	1984.48
364.10	1918.95
364.32	1949.67
364.53	2107.36
364.75	1882.08
364.96	1976.29
365.18	1968.10
365.39	2037.73
365.61	2052.06
365.82	2033.63
366.04	1998.82
366.25	1966.05
366.47	1970.15
366.68	1980.39
366.90	2002.91
367.11	2074.59
367.33	2070.50
367.54	2095.07
367.76	2013.15
367.97	2107.36
368.19	1994.72
368.40	2041.82
368.62	1912.80
368.83	1968.10
369.05	2011.11
369.26	2019.30
369.48	1984.48
369.69	2058.21
369.91	2074.59
370.12	2056.16
370.33	2152.42
370.55	2027.49
370.76	2000.87
370.98	2109.41
371.19	1978.34
371.41	2078.69
371.62	1998.82
371.84	2019.30
372.05	2150.37
372.27	1968.10
372.48	2068.45
372.69	2058.21
372.91	2146.27
373.12	2146.27
373.34	2068.45
373.55	2121.70
373.77	2150.37
373.98	2105.31
374.20	2123.74
374.41	2301.92
374.62	2121.70
374.84	2199.52
375.05	2189.28
375.27	2174.94
375.48	2248.67
375.70	2123.74
375.91	2238.43
376.12	2387.93
376.34	2146.27
376.55	2158.56
376.77	2207.71
376.98	2150.37
377.19	2078.69
377.41	2146.27
377.62	2164.70
377.84	2183.13
378.05	2318.30
378.27	2154.46
378.48	2318.30
378.69	2394.08
378.91	2244.57
379.12	2203.61
379.34	2220.00
379.55	2326.49
379.76	2256.86
379.98	2258.91
380.19	2258.91
380.41	2213.85
380.62	2306.01
380.83	2246.62
381.05	2224.09
381.26	2287.58
381.47	2248.67
381.69	2289.63
381.90	2420.70
382.12	2281.44
382.33	2234.33
382.54	2301.92
382.76	2295.77
382.97	2346.97
383.19	2308.06
383.40	2375.64
383.61	2379.74
383.83	2183.13
384.04	2293.72
384.25	2416.60
384.47	2328.54
384.68	2349.02
384.89	2377.69
385.11	2279.39
385.32	2365.40
385.54	2373.60
385.75	2314.20
385.96	2363.36
386.18	2387.93
386.39	2383.84
386.60	2310.11
386.82	2459.61
387.03	2406.36
387.24	2451.42
387.46	2422.75
387.67	2478.04
387.88	2441.18
388.10	2459.61
388.31	2484.19
388.52	2537.43
388.74	2492.38
388.95	2494.43
389.16	2609.11
389.38	2451.42
389.59	2527.19
389.80	2609.11
390.02	2594.78
390.23	2668.50
390.44	2514.91
390.66	2594.78
390.87	2496.47
391.08	2637.78
391.30	2645.98
391.51	2586.58
391.72	2662.36
391.94	2648.02
392.15	2629.59
392.36	2562.01
392.58	2559.96
392.79	2662.36
393.00	2729.94
393.22	2672.60
393.43	2803.67
393.64	2709.46
393.85	2807.77
394.07	2645.98
394.28	2715.61
394.49	2699.22
394.71	2697.17
394.92	2836.44
395.13	2707.41
395.35	2609.11
395.56	2764.76
395.77	2711.51
395.98	2867.16
396.20	2826.20
396.41	2838.48
396.62	2897.88
396.84	2863.06
397.05	2826.20
397.26	2781.14
397.47	2998.23
397.69	2719.70
397.90	3000.27
398.11	2932.69
398.32	2967.51
398.54	2836.44
398.75	2936.79
398.96	2869.20
399.18	3057.62
399.39	2977.75
399.60	2994.13
399.81	2914.26
400.03	2893.78
400.24	3241.93
400.45	3033.04
400.66	3026.90
400.88	3080.14
401.09	3016.66
401.30	3030.99
401.51	3174.35
401.73	3104.72
401.94	3035.09
402.15	3014.61
402.36	3184.59
402.58	3086.29
402.79	3196.88
403.00	2987.99
403.21	3186.64
403.43	3129.30
403.64	3309.52
403.85	3237.84
404.06	3276.75
404.27	3043.28
404.49	3258.32
404.70	3133.39
404.91	3166.16
405.12	3246.03
405.34	3239.89
405.55	3432.40
405.76	3119.06
405.97	3336.14
406.19	3362.76
406.40	3272.65
406.61	3442.64
406.82	3338.19
407.03	3248.08
407.25	3295.18
407.46	3362.76
407.67	3354.57
407.88	3485.64
408.09	3198.93
408.31	3352.52
408.52	3375.05
408.73	3284.94
408.94	3379.15
409.15	3366.86
409.37	3424.20
409.58	3536.84
409.79	3399.63
410.00	3440.59
410.21	3499.98
410.43	3469.26
410.64	3454.92
410.85	3512.27
411.06	3459.02
411.27	3559.37
411.48	3508.17
411.70	3553.23
411.91	3620.81
412.12	3665.86
412.33	3608.52
412.54	3581.90
412.76	3739.59
412.97	3672.01
413.18	3631.05
413.39	3626.95
413.60	3626.95
413.81	3672.01
414.03	3522.51
414.24	3577.80
414.45	3706.82
414.66	3563.47
414.87	3772.36
415.08	3692.49
415.30	3649.48
415.51	3788.74
415.72	3753.93
415.93	3794.89
416.14	3768.26
416.35	3774.41
416.56	3790.79
416.78	3837.89
416.99	3764.17
417.20	3788.74
417.41	3891.14
417.62	3766.21
417.83	3880.90
418.04	3821.51
418.26	3938.24
418.47	3854.28
418.68	3979.20
418.89	3952.58
419.10	4116.42
419.31	4128.70
419.52	3948.48
419.73	3981.25
419.95	4151.23
420.16	4007.87
420.37	3852.23
420.58	3999.68
420.79	3923.91
421.00	4071.36
421.21	4085.70
421.42	4046.79
421.63	4052.93
421.85	4020.16
422.06	4097.99
422.27	4220.86
422.48	4136.90
422.69	4188.10
422.90	4190.14
423.11	4249.54
423.32	4198.34
423.53	4380.61
423.75	4368.32
423.96	4444.09
424.17	4278.21
424.38	4353.98
424.59	4366.27
424.80	4474.81
425.01	4433.85
425.22	4351.93
425.43	4386.75
425.64	4534.20
425.85	4677.56
426.06	4519.87
426.28	4468.67
426.49	4317.12
426.70	4495.29
426.91	4507.58
427.12	4566.97
427.33	4573.11
427.54	4585.40
427.75	4607.93
427.96	4822.97
428.17	4669.37
428.38	4851.64
428.59	4831.16
428.80	4757.43
429.01	4794.29
429.23	4917.17
429.44	4962.23
429.65	4943.80
429.86	4976.56
430.07	4825.01
430.28	4868.02
430.49	4892.60
430.70	5068.72
430.91	5154.74
431.12	5064.63
431.33	5263.28
431.54	5107.63
431.75	5048.24
431.96	5287.86
432.17	5107.63
432.38	5236.66
432.59	5402.54
432.80	5214.13
433.01	5306.29
433.22	5355.44
433.43	5253.04
433.64	5380.01
433.85	5167.03
434.06	5203.89
434.27	5271.47
434.49	5482.41
434.70	5457.84
434.91	5394.35
435.12	5494.70
435.33	5396.40
435.54	5412.78
435.75	5234.61
435.96	5523.37
436.17	5416.88
436.38	5588.91
436.59	5533.61
436.80	5609.39
437.01	5681.07
437.22	5906.34
437.43	5605.29
437.64	5433.26
437.85	5844.90
438.06	5865.38
438.27	5705.64
438.48	5664.68
438.69	5859.24
438.90	5935.01
439.11	5724.07
439.32	5937.06
439.53	5969.83
439.74	5889.96
439.95	5814.18
440.16	5875.62
440.37	6041.51
440.57	5705.64
440.78	6107.04
440.99	5978.02
441.20	6010.79
441.41	5873.57
441.62	5935.01
441.83	5920.68
442.04	6029.22
442.25	6107.04
442.46	6109.09
442.67	6246.30
442.88	6320.03
443.09	6004.64
443.30	6150.05
443.51	6238.11
443.72	6342.56
443.93	6123.43
444.14	6436.77
444.35	6031.27
444.56	6320.03
444.77	6336.42
444.98	6295.46
445.19	6293.41
445.40	6363.04
445.61	6111.14
445.81	6365.09
446.02	6447.01
446.23	6389.66
446.44	6307.74
446.65	6545.31
446.86	6391.71
447.07	6397.85
447.28	6784.92
447.49	6627.23
447.70	6643.61
447.91	6582.17
448.12	6594.46
448.33	6664.09
448.54	6571.93
448.74	6582.17
448.95	6797.21
449.16	6684.57
449.37	6975.38
449.58	6655.90
449.79	7040.92
450.00	6825.88
450.21	6946.71
450.42	6819.74
450.63	6915.99
450.84	6913.94
451.05	6924.18
451.25	7014.29
451.46	6963.09
451.67	6965.14
451.88	7147.41
452.09	6987.67
452.30	7116.69
452.51	6901.65
452.72	7096.21
452.93	7432.08
453.13	7040.92
453.34	7124.88
453.55	7266.19
453.76	7231.38
453.97	7526.29
454.18	7245.71
454.39	7442.32
454.60	7423.89
454.81	7292.82
455.01	7589.77
455.22	7407.50
455.43	7503.76
455.64	7720.84
455.85	7720.84
456.06	7896.97
456.27	7755.66
456.48	7606.16
456.68	7827.34
456.89	7731.08
457.10	7786.38
457.31	7911.30
457.52	7851.91
457.73	7905.16
457.94	8228.74
458.14	7907.21
458.35	8234.88
458.56	8118.15
458.77	8036.23
458.98	8144.77
459.19	8093.57
459.39	8173.44
459.60	8488.83
459.81	8200.07
460.02	8439.68
460.23	8345.47
460.44	8703.87
460.65	8556.41
460.85	8605.56
461.06	8783.74
461.27	8372.10
461.48	8879.99
461.69	9011.06
461.89	8583.04
462.10	8826.75
462.31	8720.25
462.52	8808.31
462.73	9074.55
462.94	9111.41
463.14	8785.79
463.35	9043.83
463.56	9535.34
463.77	9262.96
463.98	9146.23
464.18	9156.47
464.39	9508.72
464.60	9574.25
464.81	9496.43
465.02	9441.14
465.23	9805.67
465.43	9516.91
465.64	9744.24
465.85	9688.94
466.06	9740.14
466.27	9865.07
466.47	10010.47
466.68	9918.31
466.89	9795.43
467.10	9994.09
467.30	9944.94
467.51	10311.52
467.72	10415.97
467.93	10069.86
468.14	10116.97
468.34	10461.02
468.55	10428.26
468.76	10448.74
468.97	10590.05
469.17	10872.67
469.38	10747.74
469.59	10856.28
469.80	10600.29
470.01	10954.58
470.21	10719.07
470.42	11030.36
470.63	11339.60
470.84	10919.77
471.04	11401.04
471.25	11507.54
471.46	11237.20
471.67	11691.85
471.87	11276.12
472.08	11673.42
472.29	11808.59
472.50	11202.39
472.70	11800.40
472.91	11640.65
473.12	11978.57
473.33	12115.78
473.53	12123.98
473.74	12013.38
473.95	12533.57
474.16	12359.49
474.36	12371.78
474.57	12506.95
474.78	12777.28
474.99	12629.82
475.19	12461.89
475.40	12818.24
475.61	13086.52
475.81	13107.00
476.02	13061.94
476.23	13215.54
476.44	13242.17
476.64	13238.07
476.85	13455.15
477.06	13545.27
477.27	13657.90
477.47	13938.48
477.68	13938.48
477.89	13954.86
478.09	13842.22
478.30	13823.79
478.51	13772.59
478.71	14456.61
478.92	14057.26
479.13	14456.61
479.34	14335.78
479.54	14540.58
479.75	14397.22
479.96	14358.31
480.16	14581.54
480.37	14772.00
480.58	14976.80
480.78	15245.08
480.99	15314.71
481.20	15142.68
481.41	15359.77
481.61	15642.39
481.82	15691.54
482.03	15351.57
482.23	15408.92
482.44	15566.61
482.65	15791.89
482.85	15945.48
483.06	16078.60
483.27	16092.94
483.47	16293.64
483.68	16107.27
483.89	16293.64
484.09	16582.40
484.30	16551.68
484.51	16721.66
484.71	16645.89
484.92	16740.10
485.13	16639.75
485.33	16758.53
485.54	16946.94
485.75	17151.74
485.95	17051.39
486.16	17397.49
486.37	17415.93
486.57	17303.29
486.78	17331.96
486.98	17452.79
487.19	17553.14
487.40	17868.53
487.60	17583.86
487.81	18188.01
488.02	17739.51
488.22	17862.38
488.43	18106.09
488.64	18134.76
488.84	18357.99
489.05	18544.36
489.25	18288.36
489.46	18763.49
489.67	18536.17
489.87	19181.28
490.08	19035.87
490.29	18769.63
490.49	19320.54
490.70	19044.06
490.90	19519.19
491.11	19322.59
491.32	19381.98
491.52	19289.82
491.73	19422.94
491.94	19795.67
492.14	19418.84
492.35	19814.10
492.55	19683.03
492.76	19914.45
492.97	20053.71
493.17	20160.20
493.38	20342.47
493.58	20504.26
493.79	20557.51
494.00	20281.03
494.20	20549.32
494.41	20758.21
494.61	20731.59
494.82	20528.84
495.02	20721.35
495.23	20958.91
495.44	20881.09
495.64	21110.46
495.85	21206.72
496.05	21423.80
496.26	21280.44
496.47	21429.94
496.67	21284.54
496.88	21849.78
497.08	21716.66
497.29	21454.52
497.49	21956.27
497.70	21827.25
497.91	21991.09
498.11	22034.10
498.32	22124.21
498.52	22097.58
498.73	22445.74
498.93	22558.38
499.14	22509.22
499.34	22474.41
499.55	22691.49
499.76	22668.97
499.96	22556.33
500.17	22658.73
500.37	22955.68
500.58	22816.42
500.78	22949.54
500.99	23258.78
501.19	23162.53
501.40	23361.18
501.60	23150.24
501.81	23520.92
502.02	23264.92
502.22	23611.03
502.43	23815.83
502.63	23748.25
502.84	23703.19
503.04	23697.05
503.25	23705.24
503.45	24123.02
503.66	23969.43
503.86	23967.38
504.07	24526.47
504.27	23973.52
504.48	24696.46
504.68	24630.92
504.89	24718.98
505.09	24817.29
505.30	24665.74
505.50	24725.13
505.71	24944.26
505.91	24852.10
506.12	24899.20
506.32	24950.40
506.53	25114.24
506.73	25282.17
506.94	25190.02
507.14	25099.90
507.35	25278.08
507.55	25466.49
507.76	25667.19
507.96	25550.46
508.17	25607.80
508.37	25566.84
508.58	25587.32
508.78	25777.78
508.99	26222.19
509.19	26046.07
509.40	25960.05
509.60	26117.75
509.81	26592.87
510.01	26130.03
510.22	26130.03
510.42	26218.10
510.63	26523.24
510.83	26478.19
511.04	26470.00
511.24	26766.95
511.44	26431.08
511.65	26668.65
511.85	26578.54
512.06	26838.63
512.26	27072.10
512.47	26848.87
512.67	27160.16
512.88	27004.52
513.08	26904.17
513.29	27094.63
513.49	27033.19
513.69	27254.37
513.90	27242.08
514.10	27477.60
514.31	27532.89
514.51	27616.86
514.72	27430.49
514.92	27633.24
515.13	27668.06
515.33	27645.53
515.53	27674.20
515.74	28233.30
515.94	27637.34
516.15	27913.81
516.35	27715.16
516.56	28380.75
516.76	27938.39
516.96	28130.90
517.17	28442.19
517.37	28321.36
517.58	28331.60
517.78	28501.58
517.99	28360.27
518.19	28839.50
518.39	28464.72
518.60	28970.57
518.80	28784.20
519.01	29011.53
519.21	28898.89
519.41	29234.75
519.62	28683.85
519.82	29091.40
520.03	29271.62
520.23	29079.11
520.43	28812.87
520.64	29457.98
520.84	29634.11
521.05	29232.71
521.25	29613.63
521.45	29591.10
521.66	29527.61
521.86	29500.99
522.07	29873.72
522.27	29939.26
522.47	29922.87
522.68	30082.61
522.88	29967.93
523.08	30223.92
523.29	30242.35
523.49	30613.04
523.70	30406.19
523.90	30436.91
524.10	30436.91
524.31	30484.01
524.51	30248.50
524.71	31045.16
524.92	30871.08
525.12	31221.28
525.33	31084.07
525.53	30942.76
525.73	31397.41
525.94	31053.35
526.14	31213.09
526.34	31456.80
526.55	31495.71
526.75	31469.09
526.95	31706.65
527.16	31495.71
527.36	31569.44
527.56	31938.07
527.77	31796.76
527.97	31643.17
528.17	32087.57
528.38	32040.47
528.58	32108.05
528.78	32122.39
528.99	32144.92
529.19	32873.99
529.39	32443.92
529.60	32761.36
529.80	32859.66
530.00	32273.94
530.21	33041.93
530.41	33089.03
530.61	32925.19
530.82	32933.39
531.02	32968.20
531.22	33455.62
531.43	33070.60
531.63	33256.96
531.83	33674.75
532.04	33654.27
532.24	33437.19
532.44	33627.65
532.64	33684.99
532.85	33771.00
533.05	33785.34
533.25	34039.29
533.46	33977.85
533.66	34387.44
533.86	33947.13
534.07	34719.21
534.27	34305.52
534.47	34688.49
534.67	34756.08
534.88	34528.75
535.08	34412.02
535.28	34784.75
535.49	35175.91
535.69	35153.38
535.89	35012.07
536.09	35114.47
536.30	35476.96
536.50	35681.76
536.70	35390.95
536.91	35245.54
537.11	35544.55
537.31	35874.27
537.51	35501.54
537.72	36087.26
537.92	36056.54
538.12	36349.40
538.32	35857.88
538.53	36629.97
538.73	36095.45
538.93	36185.56
539.13	36058.59
539.34	36255.19
539.54	36056.54
539.74	36720.08
539.94	36679.12
540.15	36156.89
540.35	36992.46
540.55	36845.01
540.75	36748.75
540.96	36922.83
541.16	36582.87
541.36	36933.07
541.56	36996.56
541.77	37057.99
541.97	37252.55
542.17	37279.18
542.37	37526.98
542.58	37080.52
542.78	37731.78
542.98	37465.54
543.18	37496.26
543.38	37950.91
543.59	37914.05
543.79	37879.23
543.99	37619.14
544.19	38022.59
544.40	38077.88
544.60	38348.21
544.80	38006.20
545.00	37946.81
545.20	38532.53
545.41	38403.51
545.61	38122.94
545.81	38528.44
546.01	38782.38
546.21	38647.22
546.42	38720.95
546.62	39234.99
546.82	38591.92
547.02	38426.04
547.22	38909.36
547.43	38841.78
547.63	38931.89
547.83	39687.59
548.03	38800.82
548.23	39548.32
548.44	39183.79
548.64	39392.68
548.84	39255.46
549.04	39404.97
549.24	39818.66
549.45	39697.83
549.65	39550.37
549.85	39732.64
550.05	40185.24
550.25	39904.67
550.45	40238.49
550.66	39798.18
550.86	39462.31
551.06	40752.53
551.26	40019.36
551.46	40060.32
551.66	40504.73
551.87	40121.76
552.07	40451.48
552.27	40375.70
552.47	40574.36
552.67	40512.92
552.87	40437.14
553.07	40752.53
553.28	40832.40
553.48	40912.27
553.68	40689.04
553.88	40936.85
554.08	40635.80
554.28	40856.98
554.48	40689.04
554.69	40877.46
554.89	40897.94
555.09	40955.28
555.29	41201.04
555.49	41325.96
555.69	41557.38
555.89	41262.47
556.10	41383.30
556.30	41106.83
556.50	41727.36
556.70	41448.84
556.90	41483.66
557.10	41809.28
557.30	41395.59
557.50	41743.75
557.70	42106.24
557.91	41944.45
558.11	41846.15
558.31	42345.85
558.51	42114.43
558.71	41864.58
558.91	42216.83
559.11	41950.59
559.31	41995.65
559.51	42038.65
559.72	42542.45
559.92	42509.69
560.12	42210.68
560.32	42562.93
560.52	42544.50
560.72	43070.83
560.92	42876.27
561.12	42753.40
561.32	43062.64
561.52	42843.51
561.72	43312.49
561.93	42814.83
562.13	42595.70
562.33	42820.98
562.53	43238.76
562.73	43005.30
562.93	43242.86
563.13	42923.38
563.33	43212.14
563.53	43251.05
563.73	43189.61
563.93	43283.82
564.13	43875.68
564.33	43249.00
564.53	43582.82
564.74	43939.17
564.94	43326.83
565.14	43769.19
565.34	43404.65
565.54	43640.17
565.74	43722.08
565.94	44209.50
566.14	43867.49
566.34	43941.22
566.54	44504.41
566.74	43785.57
566.94	43980.13
567.14	44547.42
567.34	43879.78
567.54	44336.48
567.74	43890.02
567.94	44277.08
568.14	44604.76
568.34	44692.82
568.54	44422.49
568.74	44621.14
568.94	44678.49
569.14	44623.19
569.34	44993.87
569.54	44875.09
569.75	44524.89
569.95	44713.30
570.15	45124.94
570.35	45372.75
570.55	44864.85
570.75	45086.03
570.95	44891.48
571.15	45024.59
571.35	45403.47
571.55	45116.75
571.75	44993.87
571.95	45180.24
572.15	45071.70
572.35	45575.50
572.55	45528.39
572.75	45499.72
572.95	45391.18
573.15	45587.78
573.35	45405.52
573.55	45454.67
573.75	45585.74
573.95	45725.00
574.15	45837.64
574.35	45651.27
574.55	45710.66
574.75	45462.86
574.95	45774.15
575.15	45948.23
575.34	45960.51
575.54	46046.53
575.74	46370.11
575.94	46105.92
576.14	46187.84
576.34	46454.08
576.54	46286.14
576.74	46415.16
576.94	46208.32
577.14	46546.23
577.34	46871.86
577.54	46794.04
577.74	46742.84
577.94	46777.65
578.14	46560.57
578.34	46875.96
578.54	45966.66
578.74	46796.09
578.94	46976.31
579.14	46171.46
579.34	46570.81
579.54	46818.61
579.74	47559.98
579.94	46923.06
580.13	47426.86
580.33	47074.61
580.53	47338.80
580.73	47232.30
580.93	47084.85
581.13	47453.48
581.33	47768.87
581.53	47875.37
581.73	47570.22
581.93	47373.61
582.13	47852.84
582.33	48141.60
582.53	47236.40
582.73	47645.99
582.92	47756.58
583.12	48114.98
583.32	47846.69
583.52	47609.13
583.72	47787.30
583.92	47756.58
584.12	47883.56
584.32	47914.28
584.52	48254.24
584.72	47875.37
584.92	48112.93
585.11	48866.58
585.31	48438.56
585.51	48055.59
585.71	47957.28
585.91	48383.26
586.11	48291.10
586.31	48715.03
586.51	48528.67
586.71	48518.43
586.91	48807.19
587.10	48833.81
587.30	48758.04
587.50	48852.25
587.70	48874.77
587.90	48692.50
588.10	49259.79
588.30	48846.10
588.50	48991.51
