SpectraSuite Data File
++++++++++++++++++++++++++++++++++++
Date: Fri Jun 02 14:47:54 CEST 2017
User: INFO_000
Dark Spectrum Present: No
Reference Spectrum Present: No
Number of Sampled Component Spectra: 1
Spectrometers: USB4H00879
Integration Time (usec): 80000 (USB4H00879)
Spectra Averaged: 1 (USB4H00879)
Boxcar Smoothing: 0 (USB4H00879)
Correct for Electrical Dark: No (USB4H00879)
Strobe/Lamp Enabled: No (USB4H00879)
Correct for Detector Non-linearity: No (USB4H00879)
Correct for Stray Light: No (USB4H00879)
Number of Pixels in Processed Spectrum: 3648
>>>>>Begin Processed Spectral Data<<<<<
345.13	1290.22
345.34	1290.22
345.56	1290.22
345.78	1214.45
345.99	1292.27
346.21	1712.10
346.42	1728.49
346.64	1624.04
346.86	1830.88
347.07	1548.26
347.29	1671.14
347.50	1640.42
347.72	1691.62
347.94	1804.26
348.15	1492.97
348.37	1646.57
348.59	1679.33
348.80	1697.77
349.02	1699.81
349.23	1857.51
349.45	1814.50
349.67	1894.37
349.88	1802.21
350.10	1908.71
350.31	1845.22
350.53	1800.16
350.75	1923.04
350.96	1693.67
351.18	1812.45
351.39	1816.55
351.61	1816.55
351.82	1871.84
352.04	1861.60
352.26	1759.21
352.47	1843.17
352.69	1937.38
352.90	1722.34
353.12	1839.08
353.34	1753.06
353.55	1955.81
353.77	1875.94
353.98	1908.71
354.20	1814.50
354.41	1927.14
354.63	1951.71
354.85	1996.77
355.06	1853.41
355.28	1708.01
355.49	1945.57
355.71	1863.65
355.92	1830.88
356.14	1945.57
356.35	1888.23
356.57	1873.89
356.79	1929.19
357.00	1830.88
357.22	1980.39
357.43	1794.02
357.65	1970.15
357.86	1845.22
358.08	1818.60
358.29	1906.66
358.51	1937.38
358.72	1906.66
358.94	1900.52
359.16	2013.15
359.37	1937.38
359.59	1945.57
359.80	1998.82
360.02	1923.04
360.23	1966.05
360.45	1992.67
360.66	1951.71
360.88	1875.94
361.09	1951.71
361.31	1953.76
361.52	1980.39
361.74	1992.67
361.95	2052.06
362.17	1837.03
362.38	1996.77
362.60	1970.15
362.81	1947.62
363.03	1927.14
363.24	1957.86
363.46	2097.12
363.67	2002.91
363.89	1966.05
364.10	2015.20
364.32	1943.52
364.53	2004.96
364.75	1910.75
364.96	1957.86
365.18	1982.43
365.39	1937.38
365.61	1970.15
365.82	2056.16
366.04	2064.35
366.25	1964.00
366.47	2004.96
366.68	2041.82
366.90	2060.26
367.11	2054.11
367.33	2144.22
367.54	2082.78
367.76	2011.11
367.97	2074.59
368.19	2047.97
368.40	2072.54
368.62	2043.87
368.83	1935.33
369.05	2064.35
369.26	2035.68
369.48	2015.20
369.69	1959.91
369.91	2037.73
370.12	2035.68
370.33	2021.35
370.55	1923.04
370.76	2095.07
370.98	2129.89
371.19	2037.73
371.41	1959.91
371.62	2041.82
371.84	1914.85
372.05	2127.84
372.27	2004.96
372.48	2185.18
372.69	2072.54
372.91	2183.13
373.12	2133.98
373.34	2076.64
373.55	2123.74
373.77	2082.78
373.98	2093.02
374.20	2113.50
374.41	2162.66
374.62	2148.32
374.84	2158.56
375.05	2183.13
375.27	2189.28
375.48	2117.60
375.70	2121.70
375.91	2179.04
376.12	2258.91
376.34	2195.42
376.55	2222.05
376.77	2201.57
376.98	2074.59
377.19	2166.75
377.41	2176.99
377.62	2125.79
377.84	2299.87
378.05	2424.80
378.27	2271.20
378.48	2267.10
378.69	2473.95
378.91	2310.11
379.12	2191.33
379.34	2277.34
379.55	2301.92
379.76	2224.09
379.98	2203.61
380.19	2271.20
380.41	2187.23
380.62	2283.49
380.83	2273.25
381.05	2142.18
381.26	2404.32
381.47	2152.42
381.69	2279.39
381.90	2322.40
382.12	2318.30
382.33	2260.96
382.54	2271.20
382.76	2301.92
382.97	2277.34
383.19	2164.70
383.40	2404.32
383.61	2322.40
383.83	2174.94
384.04	2293.72
384.25	2295.77
384.47	2451.42
384.68	2263.01
384.89	2408.41
385.11	2207.71
385.32	2332.64
385.54	2406.36
385.75	2326.49
385.96	2375.64
386.18	2412.51
386.39	2312.16
386.60	2291.68
386.82	2379.74
387.03	2490.33
387.24	2516.95
387.46	2410.46
387.67	2514.91
387.88	2473.95
388.10	2396.12
388.31	2443.23
388.52	2529.24
388.74	2533.34
388.95	2502.62
389.16	2623.45
389.38	2547.67
389.59	2611.16
389.80	2533.34
390.02	2549.72
390.23	2605.02
390.44	2539.48
390.66	2566.10
390.87	2519.00
391.08	2502.62
391.30	2754.52
391.51	2586.58
391.72	2670.55
391.94	2650.07
392.15	2658.26
392.36	2516.95
392.58	2566.10
392.79	2555.86
393.00	2650.07
393.22	2756.57
393.43	2793.43
393.64	2764.76
393.85	2848.72
394.07	2643.93
394.28	2740.18
394.49	2701.27
394.71	2727.89
394.92	2824.15
395.13	2705.37
395.35	2709.46
395.56	2717.65
395.77	2748.37
395.98	2777.05
396.20	2863.06
396.41	2768.85
396.62	2891.73
396.84	2740.18
397.05	2727.89
397.26	2858.96
397.47	3024.85
397.69	2818.00
397.90	3039.19
398.11	2938.84
398.32	2875.35
398.54	2875.35
398.75	2869.20
398.96	2926.55
399.18	3094.48
399.39	3053.52
399.60	2932.69
399.81	2944.98
400.03	2813.91
400.24	3215.31
400.45	2818.00
400.66	3018.71
400.88	2916.31
401.09	3155.92
401.30	3125.20
401.51	3047.38
401.73	3178.45
401.94	3059.67
402.15	3061.71
402.36	3139.54
402.58	3200.98
402.79	3188.69
403.00	3155.92
403.21	3207.12
403.43	3188.69
403.64	3276.75
403.85	3047.38
404.06	3243.98
404.27	2963.41
404.49	3127.25
404.70	3131.34
404.91	3254.22
405.12	3248.08
405.34	3141.58
405.55	3389.39
405.76	3088.34
405.97	3286.99
406.19	3366.86
406.40	3239.89
406.61	3266.51
406.82	3364.81
407.03	3344.33
407.25	3325.90
407.46	3452.88
407.67	3276.75
407.88	3416.01
408.09	3250.13
408.31	3377.10
408.52	3418.06
408.73	3444.68
408.94	3393.48
409.15	3379.15
409.37	3442.64
409.58	3479.50
409.79	3452.88
410.00	3682.25
410.21	3370.96
410.43	3456.97
410.64	3330.00
410.85	3600.33
411.06	3583.95
411.27	3592.14
411.48	3614.66
411.70	3426.25
411.91	3579.85
412.12	3622.86
412.33	3624.90
412.54	3510.22
412.76	3772.36
412.97	3733.45
413.18	3495.88
413.39	3542.99
413.60	3598.28
413.81	3678.15
414.03	3721.16
414.24	3567.56
414.45	3862.47
414.66	3592.14
414.87	3727.30
415.08	3739.59
415.30	3745.73
415.51	3708.87
415.72	3690.44
415.93	3682.25
416.14	3856.33
416.35	3813.32
416.56	3882.95
416.78	3762.12
416.99	3803.08
417.20	3829.70
417.41	3885.00
417.62	3854.28
417.83	3921.86
418.04	3997.64
418.26	3903.43
418.47	3964.87
418.68	4136.90
418.89	3928.00
419.10	4026.31
419.31	4032.45
419.52	4034.50
419.73	3989.44
419.95	4091.84
420.16	4001.73
420.37	4071.36
420.58	4059.07
420.79	3954.63
421.00	4071.36
421.21	4112.32
421.42	4034.50
421.63	4102.08
421.85	4061.12
422.06	4095.94
422.27	4194.24
422.48	4171.71
422.69	4159.42
422.90	4227.01
423.11	4095.94
423.32	4310.97
423.53	4235.20
423.75	4147.14
423.96	4544.44
424.17	4341.69
424.38	4364.22
424.59	4239.30
424.80	4597.69
425.01	4425.66
425.22	4437.95
425.43	4487.10
425.64	4628.41
425.85	4620.22
426.06	4468.67
426.28	4485.05
426.49	4454.33
426.70	4491.20
426.91	4460.48
427.12	4546.49
427.33	4603.83
427.54	4700.09
427.75	4700.09
427.96	4669.37
428.17	4669.37
428.38	4884.41
428.59	4812.73
428.80	4734.90
429.01	4861.88
429.23	4755.38
429.44	4927.41
429.65	4835.25
429.86	4966.32
430.07	4757.43
430.28	4632.51
430.49	5001.14
430.70	5066.67
430.91	5056.43
431.12	4855.73
431.33	5134.26
431.54	5097.39
431.75	5164.98
431.96	5064.63
432.17	5035.96
432.38	5236.66
432.59	5242.80
432.80	5093.30
433.01	5179.31
433.22	5279.66
433.43	5214.13
433.64	5169.07
433.85	5126.07
434.06	5255.09
434.27	5304.24
434.49	5183.41
434.70	5423.02
434.91	5361.58
435.12	5406.64
435.33	5394.35
435.54	5371.82
435.75	5115.83
435.96	5386.16
436.17	5341.10
436.38	5420.97
436.59	5537.71
436.80	5496.75
437.01	5724.07
437.22	5597.10
437.43	5638.06
437.64	5439.40
437.85	5681.07
438.06	5781.42
438.27	5742.50
438.48	5668.78
438.69	5844.90
438.90	5756.84
439.11	5627.82
439.32	5838.76
439.53	5889.96
439.74	5877.67
439.95	6064.04
440.16	5822.38
440.37	5965.73
440.57	6006.69
440.78	5885.86
440.99	6025.12
441.20	5941.16
441.41	5855.14
441.62	5935.01
441.83	5869.48
442.04	6090.66
442.25	6051.75
442.46	6070.18
442.67	6172.58
442.88	6506.40
443.09	5922.73
443.30	6025.12
443.51	6266.78
443.72	6535.07
443.93	6133.67
444.14	6422.43
444.35	6123.43
444.56	6287.26
444.77	6225.82
444.98	6471.58
445.19	6492.06
445.40	6330.27
445.61	6248.35
445.81	6637.47
446.02	6539.16
446.23	6492.06
446.44	6410.14
446.65	6438.81
446.86	6553.50
447.07	6733.72
447.28	6682.52
447.49	6664.09
447.70	6649.75
447.91	6655.90
448.12	6467.49
448.33	6813.59
448.54	6743.96
448.74	6735.77
448.95	6872.98
449.16	6698.91
449.37	7137.17
449.58	6852.50
449.79	7057.30
450.00	6713.24
450.21	6987.67
450.42	7114.64
450.63	6856.60
450.84	6920.09
451.05	6942.61
451.25	6901.65
451.46	7061.40
451.67	7128.98
451.88	7155.60
452.09	7143.32
452.30	7225.23
452.51	6995.86
452.72	7262.10
452.93	7325.58
453.13	7002.01
453.34	7174.03
453.55	7210.90
453.76	7155.60
453.97	7686.03
454.18	7399.31
454.39	7411.60
454.60	7303.06
454.81	7350.16
455.01	7546.76
455.22	7417.74
455.43	7595.92
455.64	7667.60
455.85	7823.24
456.06	7849.86
456.27	7776.14
456.48	7817.10
456.68	7825.29
456.89	7647.12
457.10	7948.17
457.31	7886.73
457.52	7837.58
457.73	7921.54
457.94	8300.42
458.14	7827.34
458.35	8257.41
458.56	8044.42
458.77	8146.82
458.98	8146.82
459.19	8171.40
459.39	8304.51
459.60	8273.79
459.81	8320.90
460.02	8443.78
460.23	8273.79
460.44	8603.52
460.65	8542.08
460.85	8468.35
461.06	8552.32
461.27	8546.17
461.48	8808.31
461.69	8914.81
461.89	8464.25
462.10	8800.12
462.31	8552.32
462.52	8630.14
462.73	8779.64
462.94	8910.71
463.14	9074.55
463.35	8806.27
463.56	9387.89
463.77	9291.63
463.98	8976.25
464.18	9179.00
464.39	9283.44
464.60	9385.84
464.81	9379.70
465.02	9389.94
465.23	9711.47
465.43	9486.19
465.64	9811.82
465.85	9791.34
466.06	9533.29
466.27	9901.93
466.47	9901.93
466.68	9820.01
466.89	10030.95
467.10	10076.01
467.30	9875.31
467.51	10043.24
467.72	10202.98
467.93	9938.79
468.14	10119.01
468.34	10362.72
468.55	10520.42
468.76	10628.96
468.97	10207.08
469.17	10729.31
469.38	10778.46
469.59	10917.72
469.80	10645.34
470.01	10700.64
470.21	10936.15
470.42	11071.32
470.63	11087.70
470.84	11081.56
471.04	11061.08
471.25	11210.58
471.46	11229.01
471.67	11460.43
471.87	11335.51
472.08	11499.34
472.29	11691.85
472.50	11489.10
472.70	11628.37
472.91	11788.11
473.12	11888.46
473.33	11896.65
473.53	12064.58
473.74	11964.23
473.95	12316.48
474.16	12265.28
474.36	12253.00
474.57	12369.73
474.78	12828.48
474.99	12420.93
475.19	12517.18
475.40	12988.22
475.61	13012.79
475.81	13002.55
476.02	13363.00
476.23	13076.28
476.44	13180.73
476.64	13360.95
476.85	13451.06
477.06	13455.15
477.27	13770.54
477.47	13815.60
477.68	13840.17
477.89	14032.68
478.09	13666.10
478.30	13920.04
478.51	13924.14
478.71	14356.26
478.92	14401.32
479.13	14403.36
479.34	14538.53
479.54	14536.48
479.75	14454.56
479.96	14604.07
480.16	14534.43
480.37	14847.77
480.58	15208.22
480.78	15226.65
480.99	14980.89
481.20	15122.20
481.41	15605.52
481.61	15394.58
481.82	15539.99
482.03	15712.02
482.23	15779.60
482.44	15804.17
482.65	16072.46
482.85	15943.44
483.06	15904.53
483.27	15828.75
483.47	16152.33
483.68	16267.02
483.89	16346.89
484.09	16355.08
484.30	16568.07
484.51	16647.94
484.71	16748.29
484.92	16817.92
485.13	16817.92
485.33	16973.56
485.54	16934.65
485.75	17108.73
485.95	17260.28
486.16	17047.29
486.37	17475.32
486.57	17387.25
486.78	17389.30
486.98	17577.72
487.19	17501.94
487.40	17712.88
487.60	17696.50
487.81	18128.62
488.02	17975.02
488.22	18061.04
488.43	18267.88
488.64	18212.59
488.84	18378.47
489.05	18546.40
489.25	18620.13
489.46	18503.40
489.67	18441.96
489.87	18908.90
490.08	19044.06
490.29	18847.46
490.49	19230.43
490.70	19248.86
490.90	19255.00
491.11	18996.96
491.32	19445.46
491.52	19578.58
491.73	19676.88
491.94	19730.13
492.14	19529.43
492.35	19977.94
492.55	19627.73
492.76	19973.84
492.97	20149.96
493.17	20066.00
493.38	20377.29
493.58	20412.10
493.79	20233.93
494.00	20369.10
494.20	20405.96
494.41	20727.49
494.61	20938.43
494.82	20786.88
495.02	20659.91
495.23	20719.30
495.44	21020.35
495.64	21008.06
495.85	21188.28
496.05	21407.42
496.26	21040.83
496.47	21337.79
496.67	21477.05
496.88	21747.38
497.08	21524.15
497.29	21716.66
497.49	21565.11
497.70	22163.12
497.91	21884.59
498.11	22093.49
498.32	22107.82
498.52	22275.76
498.73	22566.57
498.93	22398.63
499.14	22589.10
499.34	22511.27
499.55	22859.43
499.76	22521.51
499.96	22740.64
500.17	22748.84
500.37	22828.71
500.58	22773.41
500.78	23221.92
500.99	23160.48
501.19	23348.89
501.40	23320.22
501.60	23002.78
501.81	23326.36
502.02	23621.27
502.22	23563.93
502.43	23608.98
502.63	23821.97
502.84	23967.38
503.04	23719.57
503.25	24067.73
503.45	23973.52
503.66	24174.22
503.86	23994.00
504.07	24540.81
504.27	24108.69
504.48	24438.41
504.68	24536.71
504.89	24772.23
505.09	24872.58
505.30	24698.50
505.50	25063.04
505.71	24934.02
505.91	24909.44
506.12	25056.90
506.32	25138.82
506.53	25081.47
506.73	25218.69
506.94	25237.12
507.14	25052.80
507.35	25341.57
507.55	25792.12
507.76	25714.30
507.96	25468.54
508.17	25609.85
508.37	25706.10
508.58	25818.74
508.78	25816.69
508.99	26027.63
509.19	26136.18
509.40	26039.92
509.60	25964.15
509.81	25945.72
510.01	26320.49
510.22	26328.69
510.42	26240.62
510.63	26365.55
510.83	26367.60
511.04	26560.11
511.24	26734.18
511.44	26556.01
511.65	26910.31
511.85	27008.61
512.06	26781.29
512.26	26998.37
512.47	26998.37
512.67	27242.08
512.88	27123.30
513.08	27129.44
513.29	27047.52
513.49	26863.21
513.69	27391.58
513.90	27518.56
514.10	27600.47
514.31	27745.88
514.51	27385.44
514.72	27453.02
514.92	27532.89
515.13	27430.49
515.33	27682.39
515.53	27526.75
515.74	27729.50
515.94	27903.57
516.15	28010.07
516.35	28141.14
516.56	28286.54
516.76	27727.45
516.96	28362.32
517.17	28096.08
517.37	28524.11
517.58	28388.94
517.78	28354.13
517.99	28452.43
518.19	28614.22
518.39	28702.28
518.60	28687.95
518.80	28520.01
519.01	28675.66
519.21	28851.78
519.41	28902.98
519.62	29079.11
519.82	28689.99
520.03	29285.95
520.23	29484.61
520.43	28673.61
520.64	29279.81
520.84	29433.41
521.05	29396.54
521.25	29431.36
521.45	29419.07
521.66	29621.82
521.86	29310.53
522.07	29687.36
522.27	29724.22
522.47	29771.32
522.68	29818.42
522.88	29683.26
523.08	30105.14
523.29	30043.70
523.49	30221.87
523.70	30447.15
523.90	30615.08
524.10	30174.77
524.31	30447.15
524.51	29992.50
524.71	30895.66
524.92	30490.16
525.12	31010.34
525.33	30946.86
525.53	30875.18
525.73	30930.47
525.94	30740.01
526.14	30713.39
526.34	30764.59
526.55	31424.03
526.75	30860.84
526.95	31450.66
527.16	31475.23
527.36	31585.82
527.56	31583.77
527.77	31731.23
527.97	31462.94
528.17	31737.37
528.38	31999.51
528.58	31534.62
528.78	31884.83
528.99	32050.71
529.19	32656.91
529.39	32103.96
529.60	32450.06
529.80	32511.50
530.00	32433.68
530.21	32527.89
530.41	33062.41
530.61	32493.07
530.82	32443.92
531.02	32931.34
531.22	32923.15
531.43	32986.63
531.63	32937.48
531.83	32853.51
532.04	33605.12
532.24	33199.62
532.44	33601.02
532.64	33662.46
532.85	33648.13
533.05	33752.57
533.25	33586.69
533.46	33623.55
533.66	33986.04
533.86	33551.87
534.07	33981.95
534.27	34002.43
534.47	34182.65
534.67	34469.36
534.88	33775.10
535.08	34332.15
535.28	34719.21
535.49	34942.44
535.69	34930.16
535.89	34964.97
536.09	34563.57
536.30	35116.52
536.50	34905.58
536.70	35349.99
536.91	35294.69
537.11	35665.38
537.31	35417.57
537.51	35309.03
537.72	35593.70
537.92	35778.01
538.12	36052.44
538.32	35782.11
538.53	36267.48
538.73	35943.90
538.93	35956.19
539.13	36275.67
539.34	36177.37
539.54	36140.50
539.74	36476.37
539.94	36402.64
540.15	36552.15
540.35	36558.29
540.55	36763.09
540.75	36769.23
540.96	36699.60
541.16	36928.97
541.36	36971.98
541.56	36931.02
541.77	36998.60
541.97	37060.04
542.17	37443.01
542.37	37266.89
542.58	37639.62
542.78	37430.72
542.98	37299.65
543.18	37572.03
543.38	38274.49
543.59	38061.50
543.79	37924.29
543.99	37668.29
544.19	38301.11
544.40	38403.51
544.60	38268.34
544.80	38575.54
545.00	38626.74
545.20	38657.46
545.41	38557.11
545.61	38292.92
545.81	38866.35
546.01	39099.82
546.21	38559.16
546.42	38636.98
546.62	39318.95
546.82	38802.86
547.02	39237.03
547.22	39407.01
547.43	39282.09
547.63	39654.82
547.83	39484.84
548.03	39572.90
548.23	39732.64
548.44	39736.74
548.64	40177.05
548.84	39703.97
549.04	39886.24
549.24	40027.55
549.45	40361.37
549.65	40062.36
549.85	39951.77
550.05	40529.30
550.25	39785.89
550.45	40555.93
550.66	40648.08
550.86	40523.16
551.06	40680.85
551.26	40707.47
551.46	40756.63
551.66	40744.34
551.87	40492.44
552.07	41072.01
552.27	40994.19
552.47	41211.28
552.67	41133.45
552.87	41055.63
553.07	41360.78
553.28	41045.39
553.48	41772.42
553.68	41231.75
553.88	41696.64
554.08	41794.95
554.28	41530.76
554.48	40979.85
554.69	41852.29
554.89	41401.74
555.09	41457.03
555.29	41491.85
555.49	41952.64
555.69	41702.79
555.89	41948.54
556.10	42132.86
556.30	41950.59
556.50	42405.24
556.70	42130.81
556.90	42419.58
557.10	42235.26
557.30	41854.34
557.50	42737.01
557.70	42534.26
557.91	42614.13
558.11	42378.62
558.31	42634.61
558.51	42114.43
558.71	42786.16
558.91	42456.44
559.11	42595.70
559.31	42694.00
559.51	42562.93
559.72	42820.98
559.92	43042.16
560.12	42896.75
560.32	43087.21
560.52	43453.80
560.72	43064.69
560.92	43111.79
561.12	43081.07
561.32	43461.99
561.52	42878.32
561.72	43292.01
561.93	43095.41
562.13	43449.70
562.33	43255.15
562.53	43920.74
562.73	43466.09
562.93	43423.08
563.13	43375.98
563.33	43308.40
563.53	43556.20
563.73	43511.14
563.93	43259.24
564.13	43832.68
564.33	43824.48
564.53	43531.62
564.74	43756.90
564.94	43971.94
565.14	44238.17
565.34	43939.17
565.54	43660.65
565.74	43597.16
565.94	43851.11
566.14	44422.49
566.34	43674.98
566.54	44660.05
566.74	43930.98
566.94	43883.87
567.14	44324.19
567.34	43961.70
567.54	44107.10
567.74	43988.32
567.94	43650.41
568.14	44582.23
568.34	44420.44
568.54	44207.45
568.74	44698.97
568.94	44176.73
569.14	44604.76
569.34	44569.94
569.54	44195.17
569.75	44100.96
569.95	44639.57
570.15	44694.87
570.35	44576.09
570.55	44625.24
570.75	44809.56
570.95	44911.95
571.15	45049.17
571.35	44803.41
571.55	45040.98
571.75	45000.02
571.95	45151.57
572.15	44588.38
572.35	45073.74
572.55	44713.30
572.75	44969.30
572.95	45110.61
573.15	45014.35
573.35	44856.66
573.55	45241.68
573.75	45036.88
573.95	45301.07
574.15	45110.61
574.35	45083.98
574.55	45108.56
574.75	45215.05
574.95	45270.35
575.15	44684.63
575.34	45010.26
575.54	45137.23
575.74	45839.68
575.94	45526.35
576.14	45221.20
576.34	45636.94
576.54	45845.83
576.74	45405.52
576.94	45372.75
577.14	45802.82
577.34	45741.38
577.54	45303.12
577.74	45899.08
577.94	46142.78
578.14	45661.51
578.34	46232.89
578.54	45389.13
578.74	45708.61
578.94	46140.74
579.14	45667.66
579.34	45864.26
579.54	46255.42
579.74	46396.73
579.94	45937.99
580.13	46202.18
580.33	45923.65
580.53	45915.46
580.73	46073.15
580.93	46331.20
581.13	46052.67
581.33	46552.38
581.53	46490.94
581.73	46210.37
581.93	46447.93
582.13	46490.94
582.33	46697.78
582.53	46474.55
582.73	46828.85
582.92	46753.08
583.12	47220.02
583.32	46683.45
583.52	46738.74
583.72	47011.12
583.92	47074.61
584.12	47035.70
584.32	47238.45
584.52	47326.51
584.72	47363.37
584.92	47473.96
585.11	47605.03
585.31	47457.58
585.51	47588.65
585.71	47346.99
585.91	47635.75
586.11	47234.35
586.31	47508.78
586.51	47795.49
586.71	47723.82
586.91	48184.61
587.10	48069.92
587.30	47523.11
587.50	48338.21
587.70	48078.11
587.90	48178.46
588.10	48295.20
588.30	48045.35
588.50	48086.31
