SpectraSuite Data File
++++++++++++++++++++++++++++++++++++
Date: Fri Jun 02 14:47:53 CEST 2017
User: INFO_000
Dark Spectrum Present: No
Reference Spectrum Present: No
Number of Sampled Component Spectra: 1
Spectrometers: USB4H00879
Integration Time (usec): 80000 (USB4H00879)
Spectra Averaged: 1 (USB4H00879)
Boxcar Smoothing: 0 (USB4H00879)
Correct for Electrical Dark: No (USB4H00879)
Strobe/Lamp Enabled: No (USB4H00879)
Correct for Detector Non-linearity: No (USB4H00879)
Correct for Stray Light: No (USB4H00879)
Number of Pixels in Processed Spectrum: 3648
>>>>>Begin Processed Spectral Data<<<<<
345.13	1314.80
345.34	1314.80
345.56	1314.80
345.78	1271.79
345.99	1314.80
346.21	1732.58
346.42	1738.73
346.64	1558.50
346.86	1798.12
347.07	1742.82
347.29	1679.33
347.50	1583.08
347.72	1621.99
347.94	1820.64
348.15	1605.61
348.37	1593.32
348.59	1679.33
348.80	1658.85
349.02	1732.58
349.23	1724.39
349.45	1736.68
349.67	1746.92
349.88	1658.85
350.10	1953.76
350.31	1720.29
350.53	1648.61
350.75	1830.88
350.96	1662.95
351.18	1673.19
351.39	1757.16
351.61	1667.05
351.82	1834.98
352.04	1746.92
352.26	1681.38
352.47	1783.78
352.69	1789.92
352.90	1593.32
353.12	1665.00
353.34	1687.53
353.55	1779.68
353.77	1738.73
353.98	1693.67
354.20	1646.57
354.41	1798.12
354.63	1757.16
354.85	1888.23
355.06	1748.97
355.28	1624.04
355.49	1824.74
355.71	1603.56
355.92	1650.66
356.14	1812.45
356.35	1751.01
356.57	1755.11
356.79	1761.25
357.00	1636.33
357.22	1681.38
357.43	1611.75
357.65	1761.25
357.86	1669.09
358.08	1665.00
358.29	1748.97
358.51	1824.74
358.72	1746.92
358.94	1718.25
359.16	1720.29
359.37	1705.96
359.59	1722.34
359.80	1753.06
360.02	1652.71
360.23	1712.10
360.45	1757.16
360.66	1662.95
360.88	1617.90
361.09	1705.96
361.31	1708.01
361.52	1712.10
361.74	1732.58
361.95	1855.46
362.17	1703.91
362.38	1785.83
362.60	1781.73
362.81	1724.39
363.03	1699.81
363.24	1581.03
363.46	1804.26
363.67	1740.77
363.89	1718.25
364.10	1730.53
364.32	1716.20
364.53	1705.96
364.75	1626.09
364.96	1742.82
365.18	1718.25
365.39	1712.10
365.61	1644.52
365.82	1849.32
366.04	1718.25
366.25	1662.95
366.47	1746.92
366.68	1791.97
366.90	1640.42
367.11	1658.85
367.33	1757.16
367.54	1734.63
367.76	1683.43
367.97	1802.21
368.19	1757.16
368.40	1744.87
368.62	1697.77
368.83	1603.56
369.05	1771.49
369.26	1726.44
369.48	1556.46
369.69	1677.29
369.91	1685.48
370.12	1724.39
370.33	1761.25
370.55	1634.28
370.76	1613.80
370.98	1648.61
371.19	1662.95
371.41	1712.10
371.62	1708.01
371.84	1587.18
372.05	1691.62
372.27	1726.44
372.48	1720.29
372.69	1710.05
372.91	1765.35
373.12	1761.25
373.34	1744.87
373.55	1748.97
373.77	1648.61
373.98	1652.71
374.20	1818.60
374.41	1796.07
374.62	1646.57
374.84	1705.96
375.05	1701.86
375.27	1732.58
375.48	1751.01
375.70	1650.66
375.91	1791.97
376.12	1871.84
376.34	1667.05
376.55	1728.49
376.77	1722.34
376.98	1681.38
377.19	1687.53
377.41	1693.67
377.62	1695.72
377.84	1687.53
378.05	1845.22
378.27	1718.25
378.48	1820.64
378.69	1824.74
378.91	1759.21
379.12	1763.30
379.34	1708.01
379.55	1746.92
379.76	1716.20
379.98	1740.77
380.19	1798.12
380.41	1785.83
380.62	1701.86
380.83	1701.86
381.05	1703.91
381.26	1837.03
381.47	1650.66
381.69	1730.53
381.90	1796.07
382.12	1671.14
382.33	1720.29
382.54	1734.63
382.76	1667.05
382.97	1689.57
383.19	1650.66
383.40	1720.29
383.61	1695.72
383.83	1689.57
384.04	1689.57
384.25	1761.25
384.47	1816.55
384.68	1673.19
384.89	1652.71
385.11	1658.85
385.32	1708.01
385.54	1693.67
385.75	1699.81
385.96	1673.19
386.18	1722.34
386.39	1740.77
386.60	1675.24
386.82	1724.39
387.03	1667.05
387.24	1837.03
387.46	1665.00
387.67	1740.77
387.88	1775.59
388.10	1732.58
388.31	1640.42
388.52	1837.03
388.74	1789.92
388.95	1773.54
389.16	1746.92
389.38	1619.94
389.59	1732.58
389.80	1777.64
390.02	1765.35
390.23	1734.63
390.44	1705.96
390.66	1652.71
390.87	1613.80
391.08	1714.15
391.30	1794.02
391.51	1759.21
391.72	1798.12
391.94	1787.88
392.15	1781.73
392.36	1746.92
392.58	1685.48
392.79	1667.05
393.00	1787.88
393.22	1746.92
393.43	1814.50
393.64	1744.87
393.85	1849.32
394.07	1669.09
394.28	1673.19
394.49	1753.06
394.71	1867.75
394.92	1904.61
395.13	1640.42
395.35	1677.29
395.56	1710.05
395.77	1738.73
395.98	1730.53
396.20	1748.97
396.41	1732.58
396.62	1783.78
396.84	1691.62
397.05	1617.90
397.26	1759.21
397.47	1740.77
397.69	1587.18
397.90	1880.04
398.11	1849.32
398.32	1771.49
398.54	1679.33
398.75	1681.38
398.96	1765.35
399.18	1865.70
399.39	1687.53
399.60	1783.78
399.81	1708.01
400.03	1759.21
400.24	1961.95
400.45	1781.73
400.66	1759.21
400.88	1673.19
401.09	1877.99
401.30	1642.47
401.51	1787.88
401.73	1812.45
401.94	1816.55
402.15	1734.63
402.36	1822.69
402.58	1794.02
402.79	1796.07
403.00	1720.29
403.21	1789.92
403.43	1800.16
403.64	1859.56
403.85	1675.24
404.06	1757.16
404.27	1640.42
404.49	1740.77
404.70	1708.01
404.91	1761.25
405.12	1730.53
405.34	1794.02
405.55	1855.46
405.76	1642.47
405.97	1722.34
406.19	1906.66
406.40	1701.86
406.61	1820.64
406.82	1759.21
407.03	1716.20
407.25	1701.86
407.46	1877.99
407.67	1744.87
407.88	1839.08
408.09	1730.53
408.31	1708.01
408.52	1783.78
408.73	1632.23
408.94	1720.29
409.15	1751.01
409.37	1800.16
409.58	1726.44
409.79	1744.87
410.00	1865.70
410.21	1800.16
410.43	1740.77
410.64	1708.01
410.85	1806.31
411.06	1712.10
411.27	1759.21
411.48	1765.35
411.70	1755.11
411.91	1726.44
412.12	1851.36
412.33	1873.89
412.54	1761.25
412.76	1847.27
412.97	1849.32
413.18	1656.81
413.39	1785.83
413.60	1787.88
413.81	1773.54
414.03	1761.25
414.24	1712.10
414.45	1914.85
414.66	1681.38
414.87	1810.40
415.08	1720.29
415.30	1800.16
415.51	1834.98
415.72	1796.07
415.93	1867.75
416.14	1806.31
416.35	1748.97
416.56	1843.17
416.78	1718.25
416.99	1779.68
417.20	1738.73
417.41	1904.61
417.62	1759.21
417.83	1824.74
418.04	1781.73
418.26	1892.32
418.47	1759.21
418.68	1773.54
418.89	1828.84
419.10	2011.11
419.31	1877.99
419.52	1834.98
419.73	1773.54
419.95	1898.47
420.16	1732.58
420.37	1673.19
420.58	1775.59
420.79	1673.19
421.00	1642.47
421.21	1773.54
421.42	1859.56
421.63	1810.40
421.85	1773.54
422.06	1728.49
422.27	1769.44
422.48	1806.31
422.69	1775.59
422.90	1806.31
423.11	1791.97
423.32	1843.17
423.53	1935.33
423.75	1794.02
423.96	1875.94
424.17	1855.46
424.38	2004.96
424.59	1820.64
424.80	1769.44
425.01	1880.04
425.22	1740.77
425.43	1900.52
425.64	1920.99
425.85	2050.02
426.06	1994.72
426.28	1902.56
426.49	1728.49
426.70	1763.30
426.91	1810.40
427.12	1773.54
427.33	1908.71
427.54	1902.56
427.75	1943.52
427.96	1964.00
428.17	1974.24
428.38	1781.73
428.59	1910.75
428.80	1824.74
429.01	1822.69
429.23	1767.40
429.44	1826.79
429.65	1867.75
429.86	1880.04
430.07	1974.24
430.28	1880.04
430.49	2007.01
430.70	1861.60
430.91	2002.91
431.12	1877.99
431.33	1830.88
431.54	2041.82
431.75	1937.38
431.96	1951.71
432.17	1916.90
432.38	2002.91
432.59	1992.67
432.80	2115.55
433.01	1955.81
433.22	1925.09
433.43	1937.38
433.64	2037.73
433.85	1966.05
434.06	1957.86
434.27	1839.08
434.49	1920.99
434.70	2017.25
434.91	1939.43
435.12	2082.78
435.33	1892.32
435.54	1886.18
435.75	1744.87
435.96	1896.42
436.17	1918.95
436.38	1978.34
436.59	1992.67
436.80	1822.69
437.01	2043.87
437.22	2027.49
437.43	1916.90
437.64	1880.04
437.85	1939.43
438.06	2154.46
438.27	1822.69
438.48	1972.19
438.69	1951.71
438.90	2080.74
439.11	2031.58
439.32	2312.16
439.53	1914.85
439.74	1998.82
439.95	2037.73
440.16	1937.38
440.37	2060.26
440.57	1945.57
440.78	2125.79
440.99	2179.04
441.20	1992.67
441.41	2025.44
441.62	1972.19
441.83	1980.39
442.04	2002.91
442.25	2019.30
442.46	2039.78
442.67	1929.19
442.88	2158.56
443.09	2027.49
443.30	1873.89
443.51	2047.97
443.72	2099.17
443.93	2074.59
444.14	2220.00
444.35	1884.13
444.56	1966.05
444.77	1937.38
444.98	2209.76
445.19	2326.49
445.40	2113.50
445.61	2088.93
445.81	1978.34
446.02	2166.75
446.23	2123.74
446.44	2039.78
446.65	2164.70
446.86	2398.17
447.07	2555.86
447.28	2084.83
447.49	2093.02
447.70	2310.11
447.91	2392.03
448.12	2133.98
448.33	2346.97
448.54	2207.71
448.74	2117.60
448.95	2267.10
449.16	2093.02
449.37	2310.11
449.58	2277.34
449.79	2217.95
450.00	2168.80
450.21	2283.49
450.42	2279.39
450.63	2369.50
450.84	2133.98
451.05	2265.05
451.25	2164.70
451.46	2238.43
451.67	2383.84
451.88	2416.60
452.09	2217.95
452.30	2115.55
452.51	2215.90
452.72	2234.33
452.93	2625.50
453.13	1984.48
453.34	2199.52
453.55	2523.10
453.76	2346.97
453.97	2529.24
454.18	1998.82
454.39	2232.29
454.60	2273.25
454.81	2453.47
455.01	2402.27
455.22	2031.58
455.43	2342.88
455.64	2574.30
455.85	2297.82
456.06	2611.16
456.27	2435.03
456.48	2392.03
456.68	2549.72
456.89	2625.50
457.10	2484.19
457.31	2326.49
457.52	2199.52
457.73	2469.85
457.94	2508.76
458.14	2441.18
458.35	2715.61
458.56	2303.96
458.77	2504.67
458.98	2527.19
459.19	2715.61
459.39	2643.93
459.60	2854.87
459.81	2590.68
460.02	2734.04
460.23	2721.75
460.44	2668.50
460.65	2555.86
460.85	2523.10
461.06	2498.52
461.27	2598.87
461.48	2586.58
461.69	2736.09
461.89	2480.09
462.10	2574.30
462.31	2449.37
462.52	2856.92
462.73	2832.34
462.94	2873.30
463.14	2920.40
463.35	2830.29
463.56	3108.82
463.77	2844.63
463.98	2781.14
464.18	2576.34
464.39	3297.23
464.60	3211.22
464.81	2834.39
465.02	3053.52
465.23	3080.14
465.43	3254.22
465.64	3076.05
465.85	2768.85
466.06	3096.53
466.27	3377.10
466.47	3409.87
466.68	3258.32
466.89	3045.33
467.10	3137.49
467.30	2838.48
467.51	3663.82
467.72	3246.03
467.93	3039.19
468.14	3178.45
468.34	3727.30
468.55	3424.20
468.76	3485.64
468.97	3125.20
469.17	3780.55
469.38	3305.42
469.59	3583.95
469.80	3067.86
470.01	3866.56
470.21	3207.12
470.42	3694.54
470.63	3733.45
470.84	3862.47
471.04	3551.18
471.25	4145.09
471.46	3555.27
471.67	4280.25
471.87	3907.52
472.08	3866.56
472.29	3708.87
472.50	3678.15
472.70	4026.31
472.91	3651.53
473.12	3829.70
473.33	3739.59
473.53	4052.93
473.74	3928.00
473.95	4190.14
474.16	4143.04
474.36	3782.60
474.57	4341.69
474.78	4214.72
474.99	4564.92
475.19	4007.87
475.40	4597.69
475.61	4765.62
475.81	3942.34
476.02	4468.67
476.23	4466.62
476.44	4341.69
476.64	4458.43
476.85	4642.75
477.06	4519.87
477.27	4990.90
477.47	4800.44
477.68	4825.01
477.89	4485.05
478.09	4691.90
478.30	4485.05
478.51	4589.50
478.71	4753.34
478.92	4833.21
479.13	5054.39
479.34	5052.34
479.54	5271.47
479.75	4865.97
479.96	5502.89
480.16	4743.10
480.37	5070.77
480.58	5183.41
480.78	5580.71
480.99	5070.77
481.20	5437.36
481.41	4941.75
481.61	5377.97
481.82	5732.26
482.03	5472.17
482.23	5083.06
482.44	5590.95
482.65	6033.32
482.85	5791.66
483.06	5726.12
483.27	5746.60
483.47	5738.41
483.68	5554.09
483.89	5590.95
484.09	6207.39
484.30	5982.12
484.51	5838.76
484.71	5926.82
484.92	6154.15
485.13	6082.47
485.33	6240.16
485.54	5922.73
485.75	5965.73
485.95	6260.64
486.16	6188.96
486.37	6303.65
486.57	6406.05
486.78	6309.79
486.98	6520.73
487.19	6162.34
487.40	6449.05
487.60	6303.65
487.81	6385.57
488.02	6354.85
488.22	6553.50
488.43	6662.04
488.64	6563.74
488.84	6557.60
489.05	6971.29
489.25	6619.04
489.46	6313.89
489.67	6977.43
489.87	7327.63
490.08	6950.81
490.29	7147.41
490.49	6850.46
490.70	7200.66
490.90	6746.01
491.11	6842.26
491.32	7296.91
491.52	6999.96
491.73	7350.16
491.94	7128.98
492.14	7331.73
492.35	7143.32
492.55	7241.62
492.76	7253.91
492.97	7589.77
493.17	7331.73
493.38	7450.51
493.58	7937.93
493.79	7759.75
494.00	7802.76
494.20	7573.39
494.41	7993.22
494.61	8193.92
494.82	8138.63
495.02	7501.71
495.23	8294.27
495.44	7747.47
495.64	8099.72
495.85	7972.74
496.05	8261.51
496.26	8361.86
496.47	8216.45
496.67	7950.21
496.88	8906.62
497.08	7923.59
497.29	8312.71
497.49	8456.06
497.70	8212.35
497.91	8384.38
498.11	8660.86
498.32	8621.95
498.52	8497.02
498.73	8187.78
498.93	8963.96
499.14	8879.99
499.34	8671.10
499.55	8894.33
499.76	8226.69
499.96	8941.43
500.17	8460.16
500.37	8681.34
500.58	8879.99
500.78	8759.16
500.99	8669.05
501.19	9101.17
501.40	9234.29
501.60	8585.08
501.81	9187.19
502.02	9418.61
502.22	9097.08
502.43	9119.60
502.63	8941.43
502.84	9580.40
503.04	9060.21
503.25	9521.01
503.45	9254.77
503.66	9021.30
503.86	9035.64
504.07	8961.91
504.27	8884.09
504.48	9428.85
504.68	9572.21
504.89	9463.66
505.09	9232.24
505.30	9267.06
505.50	9539.44
505.71	9404.27
505.91	10381.15
506.12	9729.90
506.32	9283.44
506.53	9623.41
506.73	9598.83
506.94	9910.12
507.14	9596.78
507.35	9713.52
507.55	9557.87
507.76	9832.30
507.96	9838.44
508.17	9774.95
508.37	9621.36
508.58	10139.49
508.78	9799.53
508.99	10594.14
509.19	9850.73
509.40	9973.61
509.60	10284.90
509.81	10202.98
510.01	10157.92
510.22	10012.52
510.42	10082.15
510.63	10270.56
510.83	9858.92
511.04	9971.56
511.24	10518.37
511.44	10145.64
511.65	10653.53
511.85	10299.23
512.06	10250.08
512.26	10317.67
512.47	10567.52
512.67	10604.38
512.88	10309.47
513.08	10565.47
513.29	10473.31
513.49	10213.22
513.69	10350.43
513.90	10794.84
514.10	10764.12
514.31	10688.35
514.51	10487.65
514.72	11059.03
514.92	10790.75
515.13	10555.23
515.33	10544.99
515.53	10702.68
515.74	11214.68
515.94	10405.73
516.15	10874.71
516.35	10487.65
516.56	10674.01
516.76	10764.12
516.96	11183.96
517.17	11231.06
517.37	10432.35
517.58	11112.28
517.78	11059.03
517.99	11157.33
518.19	11183.96
518.39	10954.58
518.60	12037.96
518.80	11102.04
519.01	11849.55
519.21	11331.41
519.41	11642.70
519.62	11050.84
519.82	11476.82
520.03	11493.20
520.23	11589.46
520.43	11186.01
520.64	12291.91
520.84	11427.67
521.05	11384.66
521.25	11118.42
521.45	11685.71
521.66	11558.74
521.86	11530.06
522.07	11927.37
522.27	11497.30
522.47	11366.23
522.68	11962.19
522.88	11532.11
523.08	12171.08
523.29	11433.81
523.49	11853.64
523.70	11874.12
523.90	11990.86
524.10	11997.00
524.31	11876.17
524.51	11953.99
524.71	12222.28
524.92	12220.23
525.12	11992.90
525.33	12156.74
525.53	12144.45
525.73	12554.05
525.94	12140.36
526.14	12279.62
526.34	12091.21
526.55	12367.68
526.75	12715.84
526.95	12654.40
527.16	12808.00
527.36	12640.06
527.56	12592.96
527.77	12709.69
527.97	12805.95
528.17	12627.78
528.38	12883.77
528.58	12648.26
528.78	12638.02
528.99	12660.54
529.19	13000.51
529.39	12701.50
529.60	12629.82
529.80	12992.31
530.00	12953.40
530.21	13166.39
530.41	13371.19
530.61	13711.15
530.82	13193.01
531.02	13012.79
531.22	13264.69
531.43	13248.31
531.63	13684.53
531.83	13248.31
532.04	13524.79
532.24	13385.52
532.44	13107.00
532.64	13537.07
532.85	13913.90
533.05	14067.50
533.25	13496.11
533.46	13610.80
533.66	13909.80
533.86	13524.79
534.07	14233.38
534.27	13774.64
534.47	14303.01
534.67	14223.14
534.88	13612.85
535.08	14270.25
535.28	14407.46
535.49	14024.49
535.69	14509.86
535.89	14587.68
536.09	14495.52
536.30	14178.09
536.50	14040.87
536.70	14612.26
536.91	14280.49
537.11	14788.38
537.31	14819.10
537.51	14784.29
537.72	14843.68
537.92	14751.52
538.12	14888.73
538.32	14751.52
538.53	15034.14
538.73	14821.15
538.93	14548.77
539.13	14821.15
539.34	14980.89
539.54	14855.97
539.74	15079.19
539.94	15101.72
540.15	15058.71
540.35	15130.39
540.55	15302.42
540.75	15255.32
540.96	15079.19
541.16	15453.97
541.36	14995.23
541.56	15687.44
541.77	15658.77
541.97	15077.15
542.17	15193.88
542.37	16049.93
542.58	15052.57
542.78	15826.70
542.98	15439.64
543.18	15550.23
543.38	15959.82
543.59	15697.68
543.79	15552.27
543.99	15709.97
544.19	15494.93
544.40	15712.02
544.60	15898.38
544.80	15838.99
545.00	15904.53
545.20	15888.14
545.41	15976.20
545.61	15728.40
545.81	15695.63
546.01	16115.47
546.21	16013.07
546.42	16156.43
546.62	16518.92
546.82	16289.54
547.02	16348.93
547.22	16654.08
547.43	16443.14
547.63	16330.50
547.83	16445.19
548.03	15841.04
548.23	16103.18
548.44	16307.98
548.64	16459.52
548.84	16453.38
549.04	16117.51
549.24	16377.61
549.45	17057.53
549.65	16461.57
549.85	16690.95
550.05	16822.02
550.25	16459.52
550.45	17106.68
550.66	16584.45
550.86	16535.30
551.06	16725.76
551.26	16725.76
551.46	16733.95
551.66	17084.16
551.87	16695.04
552.07	16641.79
552.27	16717.57
552.47	16785.15
552.67	16891.65
552.87	17180.41
553.07	17172.22
553.28	16930.56
553.48	17252.09
553.68	16772.86
553.88	17319.67
554.08	16936.70
554.28	17518.32
554.48	16856.83
554.69	17049.34
554.89	17147.64
555.09	17114.87
555.29	17049.34
555.49	17272.57
555.69	17133.31
555.89	17346.30
556.10	16901.89
556.30	17112.83
556.50	17446.65
556.70	17131.26
556.90	17104.64
557.10	17628.92
557.30	17362.68
557.50	17659.63
557.70	17420.02
557.91	17491.70
558.11	17307.38
558.31	17725.17
558.51	17671.92
558.71	17608.44
558.91	17637.11
559.11	17608.44
559.31	17411.83
559.51	17479.41
559.72	17886.96
559.92	17481.46
560.12	17608.44
560.32	18056.94
560.52	17770.22
560.72	17770.22
560.92	18020.08
561.12	17704.69
561.32	18118.38
561.52	17821.42
561.72	18179.82
561.93	17936.11
562.13	17913.58
562.33	17676.02
562.53	18243.31
562.73	17983.21
562.93	17932.01
563.13	18151.15
563.33	17667.83
563.53	18357.99
563.73	17762.03
563.93	18228.97
564.13	18335.46
564.33	18085.61
564.53	18022.12
564.74	18269.93
564.94	18106.09
565.14	18204.39
565.34	18237.16
565.54	18247.40
565.74	17960.69
565.94	18415.34
566.14	18325.22
566.34	18048.75
566.54	18507.49
566.74	18312.94
566.94	18800.35
567.14	18355.94
567.34	18312.94
567.54	18431.72
567.74	18431.72
567.94	18396.90
568.14	18159.34
568.34	18906.85
568.54	18693.86
568.74	18161.39
568.94	18362.09
569.14	18919.14
569.34	18968.29
569.54	18802.40
569.75	18075.37
569.95	18591.46
570.15	18880.22
570.35	18878.18
570.55	18394.86
570.75	18796.26
570.95	18947.81
571.15	18489.06
571.35	19046.11
571.55	18855.65
571.75	18771.68
571.95	19125.98
572.15	18745.06
572.35	18728.67
572.55	18859.74
572.75	19095.26
572.95	18519.78
573.15	19046.11
573.35	19117.79
573.55	18724.58
573.75	18646.76
573.95	19119.84
574.15	19187.42
574.35	19359.45
574.55	18794.21
574.75	18886.37
574.95	19459.80
575.15	18687.71
575.34	19001.05
575.54	19218.14
575.74	19363.54
575.94	19261.15
576.14	19121.88
576.34	19111.64
576.54	19265.24
576.74	19558.10
576.94	19488.47
577.14	19255.00
577.34	19619.54
577.54	19134.17
577.74	19451.61
577.94	19789.52
578.14	19568.34
578.34	19760.85
578.54	19082.97
578.74	19867.34
578.94	19687.12
579.14	19869.39
579.34	18958.05
579.54	19756.75
579.74	19771.09
579.94	19781.33
580.13	19801.81
580.33	19171.04
580.53	19480.28
580.73	19654.36
580.93	19961.55
581.13	19652.31
581.33	19668.69
581.53	20420.30
581.73	19926.74
581.93	19803.86
582.13	20289.23
582.33	19869.39
582.53	20049.61
582.73	20319.95
582.92	20102.86
583.12	20332.23
583.32	19666.64
583.52	20047.57
583.72	20311.75
583.92	20156.11
584.12	20031.18
584.32	20098.77
584.52	19887.82
584.72	20182.73
584.92	20305.61
585.11	20559.56
585.31	20729.54
585.51	20526.79
585.71	20342.47
585.91	20590.28
586.11	20797.12
586.31	20661.96
586.51	20457.16
586.71	20559.56
586.91	20416.20
587.10	20725.44
587.30	21063.36
587.50	20799.17
587.70	20530.89
587.90	20674.24
588.10	20833.99
588.30	21112.51
588.50	20725.44
588.69	20577.99
588.89	20713.16
589.09	20928.19
589.29	21059.26
589.49	21206.72
589.69	20537.03
589.89	21221.05
590.08	20938.43
590.28	20950.72
590.48	21089.98
590.68	20981.44
590.88	21382.84
