SpectraSuite Data File
++++++++++++++++++++++++++++++++++++
Date: Fri Jun 02 14:48:01 CEST 2017
User: INFO_000
Dark Spectrum Present: No
Reference Spectrum Present: No
Number of Sampled Component Spectra: 1
Spectrometers: USB4H00879
Integration Time (usec): 80000 (USB4H00879)
Spectra Averaged: 1 (USB4H00879)
Boxcar Smoothing: 0 (USB4H00879)
Correct for Electrical Dark: No (USB4H00879)
Strobe/Lamp Enabled: No (USB4H00879)
Correct for Detector Non-linearity: No (USB4H00879)
Correct for Stray Light: No (USB4H00879)
Number of Pixels in Processed Spectrum: 3648
>>>>>Begin Processed Spectral Data<<<<<
345.13	1337.32
345.34	1337.32
345.56	1337.32
345.78	1222.64
345.99	1263.60
346.21	1724.39
346.42	1742.82
346.64	1656.81
346.86	1783.78
347.07	1685.48
347.29	1726.44
347.50	1546.22
347.72	1626.09
347.94	1761.25
348.15	1568.74
348.37	1576.94
348.59	1728.49
348.80	1650.66
349.02	1677.29
349.23	1843.17
349.45	1798.12
349.67	1929.19
349.88	1828.84
350.10	1908.71
350.31	1849.32
350.53	1877.99
350.75	2019.30
350.96	1834.98
351.18	1830.88
351.39	1880.04
351.61	1785.83
351.82	1871.84
352.04	1939.43
352.26	1859.56
352.47	1951.71
352.69	1898.47
352.90	1783.78
353.12	1832.93
353.34	1810.40
353.55	1900.52
353.77	1812.45
353.98	1880.04
354.20	1875.94
354.41	1882.08
354.63	1894.37
354.85	2015.20
355.06	1935.33
355.28	1808.36
355.49	1865.70
355.71	1843.17
355.92	1832.93
356.14	1890.28
356.35	1877.99
356.57	1855.46
356.79	1918.95
357.00	1910.75
357.22	1931.23
357.43	1808.36
357.65	2011.11
357.86	1869.80
358.08	1966.05
358.29	1961.95
358.51	1906.66
358.72	1886.18
358.94	1959.91
359.16	1904.61
359.37	1937.38
359.59	1966.05
359.80	1972.19
360.02	1996.77
360.23	1945.57
360.45	2041.82
360.66	1929.19
360.88	1861.60
361.09	1990.63
361.31	1998.82
361.52	1974.24
361.74	2029.54
361.95	2119.65
362.17	1994.72
362.38	2115.55
362.60	2004.96
362.81	1984.48
363.03	1974.24
363.24	1953.76
363.46	2115.55
363.67	1927.14
363.89	2025.44
364.10	2015.20
364.32	1949.67
364.53	1982.43
364.75	1916.90
364.96	2013.15
365.18	1994.72
365.39	2023.39
365.61	1912.80
365.82	2113.50
366.04	2093.02
366.25	1908.71
366.47	2017.25
366.68	1988.58
366.90	2000.87
367.11	1957.86
367.33	2148.32
367.54	2236.38
367.76	2056.16
367.97	2133.98
368.19	1957.86
368.40	2111.46
368.62	2025.44
368.83	2060.26
369.05	2129.89
369.26	2041.82
369.48	1972.19
369.69	1953.76
369.91	2007.01
370.12	2052.06
370.33	2113.50
370.55	1955.81
370.76	2078.69
370.98	2125.79
371.19	2031.58
371.41	2009.06
371.62	2058.21
371.84	2007.01
372.05	2123.74
372.27	2031.58
372.48	2033.63
372.69	2060.26
372.91	2158.56
373.12	2191.33
373.34	2088.93
373.55	2211.81
373.77	2246.62
373.98	2074.59
374.20	2158.56
374.41	2379.74
374.62	2195.42
374.84	2211.81
375.05	2211.81
375.27	2205.66
375.48	2193.37
375.70	2142.18
375.91	2213.85
376.12	2277.34
376.34	2131.94
376.55	2209.76
376.77	2195.42
376.98	2101.22
377.19	2197.47
377.41	2197.47
377.62	2279.39
377.84	2199.52
378.05	2338.78
378.27	2252.77
378.48	2263.01
378.69	2316.25
378.91	2291.68
379.12	2289.63
379.34	2226.14
379.55	2334.68
379.76	2338.78
379.98	2248.67
380.19	2291.68
380.41	2260.96
380.62	2338.78
380.83	2291.68
381.05	2197.47
381.26	2422.75
381.47	2224.09
381.69	2351.07
381.90	2453.47
382.12	2256.86
382.33	2293.72
382.54	2310.11
382.76	2363.36
382.97	2295.77
383.19	2269.15
383.40	2432.99
383.61	2271.20
383.83	2346.97
384.04	2326.49
384.25	2318.30
384.47	2443.23
384.68	2383.84
384.89	2250.72
385.11	2351.07
385.32	2410.46
385.54	2394.08
385.75	2367.45
385.96	2451.42
386.18	2404.32
386.39	2478.04
386.60	2402.27
386.82	2441.18
387.03	2404.32
387.24	2533.34
387.46	2457.56
387.67	2547.67
387.88	2527.19
388.10	2557.91
388.31	2519.00
388.52	2572.25
388.74	2584.54
388.95	2572.25
389.16	2469.85
389.38	2510.81
389.59	2615.26
389.80	2684.89
390.02	2498.52
390.23	2672.60
390.44	2559.96
390.66	2598.87
390.87	2475.99
391.08	2600.92
391.30	2723.80
391.51	2672.60
391.72	2664.41
391.94	2707.41
392.15	2760.66
392.36	2662.36
392.58	2625.50
392.79	2697.17
393.00	2703.32
393.22	2703.32
393.43	2721.75
393.64	2830.29
393.85	2797.53
394.07	2772.95
394.28	2768.85
394.49	2789.33
394.71	2697.17
394.92	2848.72
395.13	2684.89
395.35	2734.04
395.56	2793.43
395.77	2895.83
395.98	2721.75
396.20	2869.20
396.41	2961.36
396.62	2951.12
396.84	2828.24
397.05	2885.59
397.26	2961.36
397.47	2947.03
397.69	2889.68
397.90	3133.39
398.11	2916.31
398.32	2932.69
398.54	2934.74
398.75	2990.03
398.96	2889.68
399.18	3123.15
399.39	2965.46
399.60	3096.53
399.81	2975.70
400.03	2869.20
400.24	3219.41
400.45	3100.62
400.66	3178.45
400.88	3049.43
401.09	3268.56
401.30	3139.54
401.51	3139.54
401.73	3186.64
401.94	3221.45
402.15	3211.22
402.36	3176.40
402.58	3278.80
402.79	3223.50
403.00	3239.89
403.21	3305.42
403.43	3207.12
403.64	3301.33
403.85	3170.26
404.06	3252.17
404.27	3174.35
404.49	3278.80
404.70	3278.80
404.91	3420.11
405.12	3336.14
405.34	3258.32
405.55	3542.99
405.76	3121.10
405.97	3246.03
406.19	3428.30
406.40	3266.51
406.61	3428.30
406.82	3307.47
407.03	3454.92
407.25	3452.88
407.46	3561.42
407.67	3477.45
407.88	3401.68
408.09	3327.95
408.31	3436.49
408.52	3506.12
408.73	3385.29
408.94	3440.59
409.15	3506.12
409.37	3532.75
409.58	3475.40
409.79	3530.70
410.00	3489.74
410.21	3536.84
410.43	3596.23
410.64	3454.92
410.85	3467.21
411.06	3641.29
411.27	3659.72
411.48	3698.63
411.70	3579.85
411.91	3663.82
412.12	3663.82
412.33	3547.08
412.54	3653.58
412.76	3641.29
412.97	3594.19
413.18	3678.15
413.39	3743.69
413.60	3717.06
413.81	3696.58
414.03	3618.76
414.24	3702.73
414.45	3854.28
414.66	3573.71
414.87	3762.12
415.08	3895.24
415.30	3704.78
415.51	3882.95
415.72	3805.13
415.93	3833.80
416.14	3850.18
416.35	3874.76
416.56	3872.71
416.78	3848.13
416.99	3968.96
417.20	3899.33
417.41	4065.22
417.62	3897.28
417.83	3968.96
418.04	3870.66
418.26	4018.11
418.47	3989.44
418.68	3979.20
418.89	4087.75
419.10	4227.01
419.31	4124.61
419.52	4159.42
419.73	4093.89
419.95	4116.42
420.16	3958.72
420.37	4241.34
420.58	4159.42
420.79	3983.30
421.00	4136.90
421.21	4214.72
421.42	4093.89
421.63	4134.85
421.85	4231.10
422.06	4247.49
422.27	4294.59
422.48	4380.61
422.69	4382.65
422.90	4282.30
423.11	4374.46
423.32	4222.91
423.53	4419.52
423.75	4429.76
423.96	4501.44
424.17	4468.67
424.38	4569.02
424.59	4534.20
424.80	4632.51
425.01	4595.64
425.22	4468.67
425.43	4624.31
425.64	4769.72
425.85	4773.82
426.06	4577.21
426.28	4628.41
426.49	4607.93
426.70	4599.74
426.91	4597.69
427.12	4739.00
427.33	4827.06
427.54	4636.60
427.75	4902.84
427.96	5025.72
428.17	4767.67
428.38	4898.74
428.59	4915.12
428.80	4872.12
429.01	4962.23
429.23	4857.78
429.44	5107.63
429.65	5042.10
429.86	5093.30
430.07	4908.98
430.28	4986.80
430.49	5050.29
430.70	5255.09
430.91	5371.82
431.12	5054.39
431.33	5373.87
431.54	5382.06
431.75	5425.07
431.96	5242.80
432.17	5148.59
432.38	5136.31
432.59	5400.49
432.80	5332.91
433.01	5367.73
433.22	5371.82
433.43	5427.12
433.64	5472.17
433.85	5388.21
434.06	5386.16
434.27	5484.46
434.49	5511.08
434.70	5595.05
434.91	5545.90
435.12	5687.21
435.33	5558.19
435.54	5652.39
435.75	5388.21
435.96	5531.56
436.17	5451.69
436.38	5722.02
436.59	5797.80
436.80	5658.54
437.01	5859.24
437.22	5834.66
437.43	5859.24
437.64	5633.96
437.85	5885.86
438.06	5973.92
438.27	5801.90
438.48	5752.74
438.69	6070.18
438.90	5912.49
439.11	5734.31
439.32	6004.64
439.53	5986.21
439.74	6006.69
439.95	6168.48
440.16	6047.65
440.37	5984.16
440.57	5775.27
440.78	5978.02
440.99	6203.30
441.20	6188.96
441.41	5939.11
441.62	6162.34
441.83	6121.38
442.04	6209.44
442.25	6338.46
442.46	6240.16
442.67	6320.03
442.88	6500.25
443.09	6145.95
443.30	6309.79
443.51	6227.87
443.72	6635.42
443.93	6256.54
444.14	6520.73
444.35	6307.74
444.56	6457.25
444.77	6504.35
444.98	6424.48
445.19	6582.17
445.40	6496.16
445.61	6410.14
445.81	6756.25
446.02	6592.41
446.23	6682.52
446.44	6473.63
446.65	6717.34
446.86	6651.80
447.07	6700.95
447.28	6932.37
447.49	6821.78
447.70	6766.49
447.91	6784.92
448.12	6668.19
448.33	6782.87
448.54	6922.13
448.74	6752.15
448.95	6911.89
449.16	6922.13
449.37	7061.40
449.58	6805.40
449.79	7235.47
450.00	6758.30
450.21	7147.41
450.42	7292.82
450.63	7128.98
450.84	7059.35
451.05	7198.61
451.25	7094.16
451.46	7214.99
451.67	7427.98
451.88	7337.87
452.09	7321.49
452.30	7219.09
452.51	7239.57
452.72	7374.74
452.93	7769.99
453.13	7333.78
453.34	7395.22
453.55	7614.35
453.76	7378.83
453.97	7876.49
454.18	7665.55
454.39	7743.37
454.60	7769.99
454.81	7868.30
455.01	7780.23
455.22	7552.91
455.43	7864.20
455.64	7997.32
455.85	8054.66
456.06	8298.37
456.27	8034.18
456.48	7923.59
456.68	8136.58
456.89	8128.39
457.10	8105.86
457.31	8251.27
457.52	7954.31
457.73	8517.50
457.94	8435.58
458.14	8216.45
458.35	8636.28
458.56	8454.02
458.77	8486.78
458.98	8570.75
459.19	8490.88
459.39	8574.85
459.60	8763.26
459.81	8654.72
460.02	8677.24
460.23	8767.35
460.44	9039.73
460.65	8892.28
460.85	8951.67
461.06	9088.89
461.27	8707.96
461.48	9117.56
461.69	9203.57
461.89	9144.18
462.10	9170.80
462.31	8974.20
462.52	9045.88
462.73	9056.12
462.94	9518.96
463.14	9287.54
463.35	9256.82
463.56	9783.15
463.77	9664.36
463.98	9512.81
464.18	9789.29
464.39	9752.43
464.60	9766.76
464.81	10002.28
465.02	9752.43
465.23	10307.43
465.43	9924.46
465.64	10137.45
465.85	10225.51
466.06	9987.94
466.27	10256.23
466.47	10329.95
466.68	10336.10
466.89	10268.52
467.10	10651.49
467.30	10198.88
467.51	10397.54
467.72	10663.77
467.93	10264.42
468.14	10659.68
468.34	10749.79
468.55	10669.92
468.76	10866.52
468.97	10848.09
469.17	11005.78
469.38	11104.09
469.59	11343.70
469.80	11011.93
470.01	11122.52
470.21	11147.09
470.42	11429.71
470.63	11208.53
470.84	11325.27
471.04	11636.56
471.25	11505.49
471.46	11822.92
471.67	11921.23
471.87	11743.05
472.08	11980.62
472.29	12109.64
472.50	11841.36
472.70	12009.29
472.91	11949.90
473.12	12474.18
473.33	12216.13
473.53	12535.62
473.74	12408.64
473.95	12830.52
474.16	12676.93
474.36	12609.34
474.57	12992.31
474.78	12941.11
474.99	12861.24
475.19	12789.56
475.40	13227.83
475.61	13350.71
475.81	13629.23
476.02	13698.86
476.23	13342.52
476.44	13877.04
476.64	13791.02
476.85	13831.98
477.06	14006.06
477.27	14114.60
477.47	14274.34
477.68	14112.55
477.89	14186.28
478.09	14436.13
478.30	14479.14
478.51	14368.55
478.71	14577.44
478.92	14663.46
479.13	14849.82
479.34	15085.34
479.54	14890.78
479.75	15124.25
479.96	15044.38
480.16	15021.85
480.37	15322.90
480.58	15122.20
480.78	15742.74
480.99	15918.86
481.20	15951.63
481.41	15845.13
481.61	15865.61
481.82	16133.90
482.03	15982.35
482.23	16051.98
482.44	16187.14
482.65	16553.73
482.85	16592.64
483.06	16400.13
483.27	16508.68
483.47	16643.84
483.68	16856.83
483.89	16983.80
484.09	16934.65
484.30	16955.13
484.51	17403.64
484.71	17395.45
484.92	17495.80
485.13	17450.74
485.33	17440.50
485.54	17669.87
485.75	17590.00
485.95	17929.97
486.16	17786.61
486.37	18282.22
486.57	17989.36
486.78	18007.79
486.98	18310.89
487.19	18304.74
487.40	18474.73
487.60	18505.45
487.81	18810.59
488.02	18585.32
488.22	18802.40
488.43	19433.18
488.64	19029.73
488.84	19181.28
489.05	19257.05
489.25	19238.62
489.46	19373.78
489.67	19130.08
489.87	19621.59
490.08	19789.52
490.29	19842.77
490.49	20014.80
490.70	20109.01
490.90	20276.94
491.11	19979.98
491.32	20401.86
491.52	20504.26
491.73	20393.67
491.94	20776.64
492.14	20395.72
492.35	20637.38
492.55	20743.88
492.76	21008.06
492.97	21135.04
493.17	21028.54
493.38	21046.97
493.58	21438.14
493.79	21589.69
494.00	21188.28
494.20	21395.13
494.41	21704.37
494.61	21747.38
494.82	21677.75
495.02	21827.25
495.23	21886.64
495.44	22111.92
495.64	22226.60
495.85	22372.01
496.05	22394.54
496.26	22212.27
496.47	22433.45
496.67	22193.84
496.88	22630.05
497.08	22443.69
497.29	22986.40
497.49	22734.50
497.70	22900.39
497.91	22965.92
498.11	23072.42
498.32	23387.80
498.52	23430.81
498.73	23559.83
498.93	23629.46
499.14	23705.24
499.34	23883.41
499.55	23844.50
499.76	23572.12
499.96	24037.01
500.17	23520.92
500.37	23989.91
500.58	24286.86
500.78	24200.85
500.99	24317.58
501.19	24530.57
501.40	24163.98
501.60	24237.71
501.81	24239.76
502.02	24753.80
502.22	24571.53
502.43	24860.29
502.63	24884.87
502.84	24829.57
503.04	24671.88
503.25	25159.30
503.45	25032.32
503.66	25144.96
503.86	25235.07
504.07	25362.04
504.27	24974.98
504.48	25511.55
504.68	25607.80
504.89	25292.41
505.09	25822.84
505.30	25636.47
505.50	25874.04
505.71	25824.89
505.91	25847.41
506.12	25888.37
506.32	25732.73
506.53	26097.27
506.73	25958.00
506.94	26166.90
507.14	26361.45
507.35	26447.47
507.55	26429.04
507.76	26637.93
507.96	26502.76
508.17	26566.25
508.37	26388.08
508.58	26603.11
508.78	26556.01
508.99	27180.64
509.19	27086.43
509.40	27022.95
509.60	26906.21
509.81	27432.54
510.01	27260.51
510.22	27072.10
510.42	27080.29
510.63	27528.80
510.83	27645.53
511.04	26938.98
511.24	27364.96
511.44	27188.83
511.65	27653.72
511.85	27643.48
512.06	27723.35
512.26	27815.51
512.47	27897.43
512.67	27635.29
512.88	28085.84
513.08	27801.18
513.29	27956.82
513.49	28198.48
513.69	27895.38
513.90	28118.61
514.10	27979.35
514.31	28429.90
514.51	28237.39
514.72	28296.78
514.92	28198.48
515.13	28231.25
515.33	28702.28
515.53	28657.23
515.74	28624.46
515.94	28724.81
516.15	28933.70
516.35	28780.10
516.56	28683.85
516.76	28620.36
516.96	28872.26
517.17	29077.06
517.37	29036.10
517.58	29431.36
517.78	29306.43
517.99	28931.65
518.19	29580.86
518.39	29668.92
518.60	29681.21
518.80	29429.31
519.01	29670.97
519.21	29857.34
519.41	29576.76
519.62	29775.42
519.82	29986.36
520.03	30037.56
520.23	29775.42
520.43	30123.57
520.64	30463.54
520.84	30326.32
521.05	30041.65
521.25	30217.78
521.45	30711.34
521.66	30725.68
521.86	30813.74
522.07	30557.74
522.27	30754.35
522.47	30672.43
522.68	30914.09
522.88	30508.59
523.08	31022.63
523.29	30983.72
523.49	31286.82
523.70	31297.06
523.90	31569.44
524.10	31751.71
524.31	31729.18
524.51	31116.84
524.71	32171.54
524.92	31823.39
525.12	32169.49
525.33	32019.99
525.53	32323.09
525.73	32318.99
525.94	32124.44
526.14	32204.31
526.34	32130.58
526.55	32669.20
526.75	32826.89
526.95	32548.37
527.16	32491.02
527.36	32505.36
527.56	32818.70
527.77	32921.10
527.97	32933.39
528.17	32849.42
528.38	33428.99
528.58	33433.09
528.78	33641.98
528.99	33304.07
529.19	33789.44
529.39	33242.63
529.60	34041.34
529.80	33734.14
530.00	33961.47
530.21	33969.66
530.41	34098.68
530.61	34330.10
530.82	34233.85
531.02	34205.17
531.22	34184.69
531.43	34489.84
531.63	34489.84
531.83	34549.23
532.04	34799.08
532.24	34799.08
532.44	35118.57
532.64	35067.37
532.85	35296.74
533.05	35505.63
533.25	35433.96
533.46	35241.45
533.66	35659.23
533.86	35536.35
534.07	36085.21
534.27	35671.52
534.47	36259.29
534.67	36083.16
534.88	35825.12
535.08	35806.69
535.28	36275.67
535.49	36242.90
535.69	36701.65
535.89	36541.91
536.09	37068.23
536.30	37201.35
536.50	36885.97
536.70	37219.78
536.91	36879.82
537.11	37035.47
537.31	37244.36
537.51	37250.50
537.72	37547.46
537.92	37461.44
538.12	37739.97
538.32	37563.84
538.53	38198.71
538.73	37649.86
538.93	37375.43
539.13	38143.42
539.34	37662.15
539.54	38118.84
539.74	38432.18
539.94	38432.18
540.15	38245.82
540.35	38743.47
540.55	38567.35
540.75	38794.67
540.96	38696.37
541.16	38661.55
541.36	38372.79
541.56	38641.07
541.77	39191.98
541.97	38622.64
542.17	39189.93
542.37	39572.90
542.58	39054.76
542.78	39450.02
542.98	39382.44
543.18	39523.75
543.38	39749.03
543.59	39742.88
543.79	39431.59
543.99	39566.76
544.19	40207.77
544.40	39953.82
544.60	40437.14
544.80	39792.03
545.00	39990.69
545.20	40435.10
545.41	40021.41
545.61	39974.30
545.81	40891.79
546.01	40613.27
546.21	40277.40
546.42	40488.34
546.62	40844.69
546.82	40517.01
547.02	40797.59
547.22	40598.93
547.43	40795.54
547.63	41020.81
547.83	41151.88
548.03	40658.32
548.23	40904.08
548.44	41454.98
548.64	41049.49
548.84	41586.05
549.04	41205.13
549.24	41526.66
549.45	41729.41
549.65	41280.91
549.85	41944.45
550.05	41842.05
550.25	41733.51
550.45	41762.18
550.66	41964.93
550.86	41989.50
551.06	42399.10
551.26	42136.96
551.46	42245.50
551.66	42386.81
551.87	42503.54
552.07	42407.29
552.27	42440.06
552.47	42601.85
552.67	42407.29
552.87	42476.92
553.07	42784.12
553.28	42661.24
553.48	42630.52
553.68	42438.01
553.88	42739.06
554.08	42751.35
554.28	43021.68
554.48	42915.19
554.69	43050.35
554.89	43054.45
555.09	42857.84
555.29	42843.51
555.49	43036.02
555.69	43314.54
555.89	43234.67
556.10	43390.31
556.30	42960.24
556.50	42906.99
556.70	43353.45
556.90	43431.27
557.10	43703.65
557.30	43521.38
557.50	43496.81
557.70	43953.51
557.91	43801.96
558.11	43695.46
558.31	44021.09
558.51	43289.96
558.71	44045.66
558.91	43951.46
559.11	43908.45
559.31	43545.96
559.51	43726.18
559.72	43967.84
559.92	44316.00
560.12	43924.83
560.32	44176.73
560.52	44150.11
560.72	44494.17
560.92	44602.71
561.12	44236.12
561.32	44957.01
561.52	44299.61
561.72	44703.06
561.93	44035.42
562.13	44528.98
562.33	44184.93
562.53	44643.67
562.73	44449.11
562.93	44848.47
563.13	44645.72
563.33	44600.66
563.53	44774.74
563.73	44932.43
563.93	44875.09
564.13	45204.81
564.33	45036.88
564.53	45055.31
564.74	45469.00
564.94	44707.16
565.14	45043.02
565.34	44899.67
565.54	45067.60
565.74	45319.50
565.94	45634.89
566.14	45417.80
566.34	45135.18
566.54	45622.60
566.74	45008.21
566.94	45516.11
567.14	45546.82
567.34	45632.84
567.54	45536.59
567.74	45239.63
567.94	45610.31
568.14	45800.77
568.34	45974.85
568.54	45491.53
568.74	45464.91
568.94	45892.93
569.14	46159.17
569.34	45862.21
569.54	45880.64
569.75	45413.71
569.95	46105.92
570.15	46234.94
570.35	46294.33
570.55	45948.23
570.75	46071.10
570.95	46331.20
571.15	46351.68
571.35	46325.05
571.55	46546.23
571.75	46603.58
571.95	46720.31
572.15	46327.10
572.35	46974.26
572.55	46509.37
572.75	46535.99
572.95	46818.61
573.15	46949.68
573.35	46828.85
573.55	46531.90
573.75	46800.18
573.95	46945.59
574.15	46589.24
574.35	47170.86
574.55	47187.25
574.75	46671.16
574.95	47029.55
575.15	47220.02
575.34	47240.50
575.54	47045.94
575.74	47570.22
575.94	47777.06
576.14	47072.56
576.34	47525.16
576.54	47625.51
576.74	47441.20
576.94	47392.04
577.14	47471.92
577.34	48434.46
577.54	47666.47
577.74	47926.56
577.94	47772.97
578.14	47748.39
578.34	48203.04
578.54	47422.76
578.74	47904.04
578.94	48528.67
579.14	48094.50
579.34	48299.30
579.54	48264.48
579.74	48614.68
579.94	48446.75
580.13	48829.72
580.33	48289.06
580.53	48469.28
580.73	48526.62
580.93	48469.28
581.13	48586.01
581.33	49132.82
581.53	49308.94
581.73	48846.10
581.93	48848.15
582.13	48993.56
582.33	49177.87
582.53	48944.41
582.73	49020.18
582.92	49120.53
583.12	49646.86
583.32	49091.86
583.52	49222.93
583.72	49700.11
583.92	49544.46
584.12	49403.15
584.32	49775.88
584.52	49347.86
584.72	49483.02
584.92	49683.72
585.11	50124.04
585.31	49868.04
585.51	50136.32
585.71	49403.15
585.91	50226.43
586.11	50117.89
586.31	50144.51
586.51	50001.16
586.71	50314.50
586.91	50255.11
587.10	50023.68
587.30	50525.44
587.50	50324.74
587.70	50668.79
587.90	50869.50
588.10	50777.34
588.30	50328.83
588.50	50402.56
