SpectraSuite Data File
++++++++++++++++++++++++++++++++++++
Date: Fri Jun 02 14:47:53 CEST 2017
User: INFO_000
Dark Spectrum Present: No
Reference Spectrum Present: No
Number of Sampled Component Spectra: 1
Spectrometers: USB4H00879
Integration Time (usec): 80000 (USB4H00879)
Spectra Averaged: 1 (USB4H00879)
Boxcar Smoothing: 0 (USB4H00879)
Correct for Electrical Dark: No (USB4H00879)
Strobe/Lamp Enabled: No (USB4H00879)
Correct for Detector Non-linearity: No (USB4H00879)
Correct for Stray Light: No (USB4H00879)
Number of Pixels in Processed Spectrum: 3648
>>>>>Begin Processed Spectral Data<<<<<
345.13	1251.31
345.34	1251.31
345.56	1251.31
345.78	1322.99
345.99	1232.88
346.21	1773.54
346.42	1710.05
346.64	1669.09
346.86	1722.34
347.07	1646.57
347.29	1712.10
347.50	1667.05
347.72	1646.57
347.94	1763.30
348.15	1611.75
348.37	1558.50
348.59	1656.81
348.80	1718.25
349.02	1732.58
349.23	1789.92
349.45	1724.39
349.67	1812.45
349.88	1697.77
350.10	1843.17
350.31	1695.72
350.53	1662.95
350.75	1845.22
350.96	1658.85
351.18	1667.05
351.39	1738.73
351.61	1638.38
351.82	1730.53
352.04	1787.88
352.26	1718.25
352.47	1710.05
352.69	1771.49
352.90	1617.90
353.12	1740.77
353.34	1726.44
353.55	1798.12
353.77	1679.33
353.98	1632.23
354.20	1650.66
354.41	1724.39
354.63	1718.25
354.85	1845.22
355.06	1753.06
355.28	1578.98
355.49	1765.35
355.71	1769.44
355.92	1638.38
356.14	1722.34
356.35	1687.53
356.57	1701.86
356.79	1746.92
357.00	1648.61
357.22	1820.64
357.43	1691.62
357.65	1765.35
357.86	1648.61
358.08	1693.67
358.29	1693.67
358.51	1753.06
358.72	1744.87
358.94	1755.11
359.16	1673.19
359.37	1699.81
359.59	1724.39
359.80	1732.58
360.02	1751.01
360.23	1789.92
360.45	1726.44
360.66	1708.01
360.88	1634.28
361.09	1673.19
361.31	1689.57
361.52	1744.87
361.74	1894.37
361.95	1812.45
362.17	1708.01
362.38	1785.83
362.60	1806.31
362.81	1703.91
363.03	1613.80
363.24	1736.68
363.46	1763.30
363.67	1730.53
363.89	1755.11
364.10	1703.91
364.32	1671.14
364.53	1679.33
364.75	1665.00
364.96	1728.49
365.18	1740.77
365.39	1691.62
365.61	1689.57
365.82	1798.12
366.04	1675.24
366.25	1593.32
366.47	1691.62
366.68	1648.61
366.90	1658.85
367.11	1714.15
367.33	1738.73
367.54	1771.49
367.76	1691.62
367.97	1796.07
368.19	1626.09
368.40	1773.54
368.62	1667.05
368.83	1642.47
369.05	1781.73
369.26	1613.80
369.48	1681.38
369.69	1683.43
369.91	1726.44
370.12	1638.38
370.33	1714.15
370.55	1576.94
370.76	1638.38
370.98	1791.97
371.19	1675.24
371.41	1626.09
371.62	1705.96
371.84	1673.19
372.05	1748.97
372.27	1693.67
372.48	1683.43
372.69	1716.20
372.91	1769.44
373.12	1734.63
373.34	1621.99
373.55	1771.49
373.77	1785.83
373.98	1710.05
374.20	1775.59
374.41	1830.88
374.62	1691.62
374.84	1685.48
375.05	1732.58
375.27	1742.82
375.48	1718.25
375.70	1781.73
375.91	1703.91
376.12	1751.01
376.34	1681.38
376.55	1734.63
376.77	1722.34
376.98	1585.13
377.19	1568.74
377.41	1658.85
377.62	1644.52
377.84	1665.00
378.05	1794.02
378.27	1605.61
378.48	1798.12
378.69	1841.12
378.91	1808.36
379.12	1742.82
379.34	1730.53
379.55	1763.30
379.76	1701.86
379.98	1693.67
380.19	1746.92
380.41	1662.95
380.62	1761.25
380.83	1710.05
381.05	1621.99
381.26	1808.36
381.47	1642.47
381.69	1705.96
381.90	1710.05
382.12	1656.81
382.33	1699.81
382.54	1720.29
382.76	1701.86
382.97	1783.78
383.19	1550.31
383.40	1699.81
383.61	1675.24
383.83	1613.80
384.04	1601.51
384.25	1705.96
384.47	1683.43
384.68	1730.53
384.89	1638.38
385.11	1679.33
385.32	1660.90
385.54	1630.18
385.75	1736.68
385.96	1724.39
386.18	1712.10
386.39	1716.20
386.60	1644.52
386.82	1714.15
387.03	1662.95
387.24	1740.77
387.46	1697.77
387.67	1740.77
387.88	1710.05
388.10	1720.29
388.31	1699.81
388.52	1814.50
388.74	1748.97
388.95	1648.61
389.16	1708.01
389.38	1636.33
389.59	1716.20
389.80	1726.44
390.02	1665.00
390.23	1771.49
390.44	1656.81
390.66	1667.05
390.87	1667.05
391.08	1703.91
391.30	1816.55
391.51	1775.59
391.72	1814.50
391.94	1730.53
392.15	1689.57
392.36	1679.33
392.58	1669.09
392.79	1710.05
393.00	1726.44
393.22	1787.88
393.43	1718.25
393.64	1814.50
393.85	1740.77
394.07	1628.14
394.28	1650.66
394.49	1710.05
394.71	1820.64
394.92	1810.40
395.13	1654.76
395.35	1619.94
395.56	1613.80
395.77	1705.96
395.98	1699.81
396.20	1720.29
396.41	1644.52
396.62	1722.34
396.84	1632.23
397.05	1611.75
397.26	1662.95
397.47	1736.68
397.69	1658.85
397.90	1820.64
398.11	1705.96
398.32	1699.81
398.54	1638.38
398.75	1685.48
398.96	1660.90
399.18	1777.64
399.39	1624.04
399.60	1708.01
399.81	1724.39
400.03	1603.56
400.24	1961.95
400.45	1671.14
400.66	1708.01
400.88	1570.79
401.09	1880.04
401.30	1781.73
401.51	1738.73
401.73	1710.05
401.94	1751.01
402.15	1597.42
402.36	1757.16
402.58	1697.77
402.79	1701.86
403.00	1685.48
403.21	1712.10
403.43	1755.11
403.64	1687.53
403.85	1677.29
404.06	1839.08
404.27	1638.38
404.49	1689.57
404.70	1714.15
404.91	1738.73
405.12	1757.16
405.34	1681.38
405.55	1828.84
405.76	1634.28
405.97	1677.29
406.19	1722.34
406.40	1605.61
406.61	1724.39
406.82	1662.95
407.03	1697.77
407.25	1708.01
407.46	1830.88
407.67	1759.21
407.88	1761.25
408.09	1732.58
408.31	1705.96
408.52	1769.44
408.73	1601.51
408.94	1660.90
409.15	1716.20
409.37	1781.73
409.58	1687.53
409.79	1724.39
410.00	1824.74
410.21	1628.14
410.43	1654.76
410.64	1560.55
410.85	1744.87
411.06	1722.34
411.27	1669.09
411.48	1757.16
411.70	1671.14
411.91	1712.10
412.12	1771.49
412.33	1720.29
412.54	1609.70
412.76	1783.78
412.97	1847.27
413.18	1667.05
413.39	1728.49
413.60	1716.20
413.81	1603.56
414.03	1654.76
414.24	1640.42
414.45	1787.88
414.66	1662.95
414.87	1724.39
415.08	1646.57
415.30	1738.73
415.51	1728.49
415.72	1671.14
415.93	1718.25
416.14	1679.33
416.35	1681.38
416.56	1689.57
416.78	1722.34
416.99	1705.96
417.20	1685.48
417.41	1728.49
417.62	1724.39
417.83	1679.33
418.04	1675.24
418.26	1757.16
418.47	1697.77
418.68	1730.53
418.89	1718.25
419.10	1859.56
419.31	1718.25
419.52	1714.15
419.73	1761.25
419.95	1742.82
420.16	1667.05
420.37	1705.96
420.58	1689.57
420.79	1581.03
421.00	1697.77
421.21	1636.33
421.42	1658.85
421.63	1675.24
421.85	1701.86
422.06	1718.25
422.27	1642.47
422.48	1656.81
422.69	1660.90
422.90	1646.57
423.11	1574.89
423.32	1777.64
423.53	1732.58
423.75	1634.28
423.96	1708.01
424.17	1726.44
424.38	1775.59
424.59	1685.48
424.80	1740.77
425.01	1613.80
425.22	1617.90
425.43	1720.29
425.64	1765.35
425.85	1705.96
426.06	1708.01
426.28	1726.44
426.49	1634.28
426.70	1681.38
426.91	1671.14
427.12	1732.58
427.33	1716.20
427.54	1708.01
427.75	1699.81
427.96	1724.39
428.17	1744.87
428.38	1701.86
428.59	1693.67
428.80	1640.42
429.01	1665.00
429.23	1662.95
429.44	1701.86
429.65	1677.29
429.86	1728.49
430.07	1644.52
430.28	1630.18
430.49	1691.62
430.70	1802.21
430.91	1884.13
431.12	1650.66
431.33	1650.66
431.54	1734.63
431.75	1628.14
431.96	1685.48
432.17	1681.38
432.38	1748.97
432.59	1816.55
432.80	1775.59
433.01	1705.96
433.22	1658.85
433.43	1689.57
433.64	1697.77
433.85	1724.39
434.06	1746.92
434.27	1660.90
434.49	1726.44
434.70	1775.59
434.91	1683.43
435.12	1716.20
435.33	1642.47
435.54	1718.25
435.75	1634.28
435.96	1744.87
436.17	1656.81
436.38	1794.02
436.59	1757.16
436.80	1636.33
437.01	1761.25
437.22	1791.97
437.43	1716.20
437.64	1628.14
437.85	1697.77
438.06	1748.97
438.27	1728.49
438.48	1724.39
438.69	1753.06
438.90	1675.24
439.11	1642.47
439.32	1748.97
439.53	1560.55
439.74	1640.42
439.95	1781.73
440.16	1662.95
440.37	1654.76
440.57	1638.38
440.78	1658.85
440.99	1699.81
441.20	1695.72
441.41	1617.90
441.62	1609.70
441.83	1654.76
442.04	1638.38
442.25	1662.95
442.46	1654.76
442.67	1595.37
442.88	1845.22
443.09	1671.14
443.30	1605.61
443.51	1617.90
443.72	1744.87
443.93	1718.25
444.14	1802.21
444.35	1640.42
444.56	1626.09
444.77	1660.90
444.98	1724.39
445.19	1740.77
445.40	1689.57
445.61	1650.66
445.81	1650.66
446.02	1773.54
446.23	1634.28
446.44	1591.27
446.65	1724.39
446.86	1732.58
447.07	1837.03
447.28	1671.14
447.49	1689.57
447.70	1611.75
447.91	1699.81
448.12	1693.67
448.33	1724.39
448.54	1705.96
448.74	1716.20
448.95	1673.19
449.16	1748.97
449.37	1667.05
449.58	1695.72
449.79	1714.15
450.00	1699.81
450.21	1564.65
450.42	1722.34
450.63	1650.66
450.84	1722.34
451.05	1757.16
451.25	1597.42
451.46	1632.23
451.67	1744.87
451.88	1699.81
452.09	1777.64
452.30	1642.47
452.51	1673.19
452.72	1773.54
452.93	1806.31
453.13	1716.20
453.34	1634.28
453.55	1728.49
453.76	1632.23
453.97	1673.19
454.18	1624.04
454.39	1683.43
454.60	1611.75
454.81	1693.67
455.01	1652.71
455.22	1658.85
455.43	1650.66
455.64	1716.20
455.85	1685.48
456.06	1771.49
456.27	1753.06
456.48	1630.18
456.68	1757.16
456.89	1785.83
457.10	1628.14
457.31	1710.05
457.52	1720.29
457.73	1617.90
457.94	1757.16
458.14	1562.60
458.35	1705.96
458.56	1679.33
458.77	1691.62
458.98	1724.39
459.19	1667.05
459.39	1726.44
459.60	1722.34
459.81	1654.76
460.02	1691.62
460.23	1714.15
460.44	1617.90
460.65	1697.77
460.85	1611.75
461.06	1624.04
461.27	1632.23
461.48	1634.28
461.69	1665.00
461.89	1542.12
462.10	1554.41
462.31	1613.80
462.52	1589.22
462.73	1636.33
462.94	1683.43
463.14	1732.58
463.35	1667.05
463.56	1734.63
463.77	1658.85
463.98	1615.85
464.18	1644.52
464.39	1822.69
464.60	1748.97
464.81	1454.06
465.02	1662.95
465.23	1652.71
465.43	1740.77
465.64	1640.42
465.85	1681.38
466.06	1771.49
466.27	1738.73
466.47	1689.57
466.68	1740.77
466.89	1630.18
467.10	1607.66
467.30	1621.99
467.51	1652.71
467.72	1730.53
467.93	1630.18
468.14	1638.38
468.34	1765.35
468.55	1701.86
468.76	1777.64
468.97	1720.29
469.17	1730.53
469.38	1744.87
469.59	1708.01
469.80	1705.96
470.01	1624.04
470.21	1603.56
470.42	1675.24
470.63	1740.77
470.84	1695.72
471.04	1662.95
471.25	1697.77
471.46	1746.92
471.67	1769.44
471.87	1613.80
472.08	1658.85
472.29	1675.24
472.50	1734.63
472.70	1679.33
472.91	1685.48
473.12	1552.36
473.33	1642.47
473.53	1699.81
473.74	1583.08
473.95	1748.97
474.16	1578.98
474.36	1574.89
474.57	1695.72
474.78	1679.33
474.99	1705.96
475.19	1759.21
475.40	1724.39
475.61	1753.06
475.81	1724.39
476.02	1679.33
476.23	1755.11
476.44	1630.18
476.64	1644.52
476.85	1658.85
477.06	1667.05
477.27	1718.25
477.47	1703.91
477.68	1714.15
477.89	1667.05
478.09	1681.38
478.30	1708.01
478.51	1683.43
478.71	1578.98
478.92	1736.68
479.13	1699.81
479.34	1617.90
479.54	1755.11
479.75	1621.99
479.96	1710.05
480.16	1578.98
480.37	1695.72
480.58	1597.42
480.78	1734.63
480.99	1638.38
481.20	1669.09
481.41	1716.20
481.61	1724.39
481.82	1712.10
482.03	1613.80
482.23	1665.00
482.44	1763.30
482.65	1877.99
482.85	1732.58
483.06	1650.66
483.27	1769.44
483.47	1712.10
483.68	1736.68
483.89	1773.54
484.09	1812.45
484.30	1701.86
484.51	1759.21
484.71	1687.53
484.92	1624.04
485.13	1732.58
485.33	1720.29
485.54	1650.66
485.75	1708.01
485.95	1746.92
486.16	1634.28
486.37	1683.43
486.57	1601.51
486.78	1714.15
486.98	1703.91
487.19	1679.33
487.40	1691.62
487.60	1654.76
487.81	1652.71
488.02	1599.46
488.22	1699.81
488.43	1798.12
488.64	1650.66
488.84	1703.91
489.05	1724.39
489.25	1722.34
489.46	1695.72
489.67	1724.39
489.87	1708.01
490.08	1740.77
490.29	1665.00
490.49	1884.13
490.70	1753.06
490.90	1732.58
491.11	1697.77
491.32	1687.53
491.52	1646.57
491.73	1689.57
491.94	1697.77
492.14	1654.76
492.35	1665.00
492.55	1705.96
492.76	1656.81
492.97	1660.90
493.17	1689.57
493.38	1742.82
493.58	1771.49
493.79	1714.15
494.00	1615.85
494.20	1665.00
494.41	1708.01
494.61	1714.15
494.82	1667.05
495.02	1656.81
495.23	1724.39
495.44	1667.05
495.64	1679.33
495.85	1669.09
496.05	1714.15
496.26	1705.96
496.47	1642.47
496.67	1656.81
496.88	1789.92
497.08	1683.43
497.29	1597.42
497.49	1759.21
497.70	1742.82
497.91	1665.00
498.11	1810.40
498.32	1697.77
498.52	1716.20
498.73	1703.91
498.93	1724.39
499.14	1785.83
499.34	1794.02
499.55	1746.92
499.76	1648.61
499.96	1683.43
500.17	1720.29
500.37	1781.73
500.58	1669.09
500.78	1646.57
500.99	1642.47
501.19	1658.85
501.40	1771.49
501.60	1585.13
501.81	1607.66
502.02	1716.20
502.22	1609.70
502.43	1650.66
502.63	1804.26
502.84	1753.06
503.04	1716.20
503.25	1714.15
503.45	1691.62
503.66	1652.71
503.86	1789.92
504.07	1726.44
504.27	1632.23
504.48	1701.86
504.68	1669.09
504.89	1810.40
505.09	1628.14
505.30	1697.77
505.50	1669.09
505.71	1662.95
505.91	1699.81
506.12	1705.96
506.32	1621.99
506.53	1617.90
506.73	1691.62
506.94	1646.57
507.14	1683.43
507.35	1765.35
507.55	1644.52
507.76	1769.44
507.96	1681.38
508.17	1742.82
508.37	1605.61
508.58	1773.54
508.78	1703.91
508.99	1798.12
509.19	1806.31
509.40	1699.81
509.60	1767.40
509.81	1810.40
510.01	1624.04
510.22	1724.39
510.42	1738.73
510.63	1761.25
510.83	1710.05
511.04	1714.15
511.24	1736.68
511.44	1673.19
511.65	1691.62
511.85	1703.91
512.06	1753.06
512.26	1705.96
512.47	1789.92
512.67	1720.29
512.88	1716.20
513.08	1595.37
513.29	1785.83
513.49	1650.66
513.69	1658.85
513.90	1640.42
514.10	1689.57
514.31	1726.44
514.51	1687.53
514.72	1720.29
514.92	1773.54
515.13	1748.97
515.33	1685.48
515.53	1656.81
515.74	1658.85
515.94	1732.58
516.15	1779.68
516.35	1574.89
516.56	1658.85
516.76	1640.42
516.96	1609.70
517.17	1671.14
517.37	1689.57
517.58	1556.46
517.78	1607.66
517.99	1775.59
518.19	1832.93
518.39	1730.53
518.60	1822.69
518.80	1613.80
519.01	1755.11
519.21	1646.57
519.41	1671.14
519.62	1660.90
519.82	1716.20
520.03	1660.90
520.23	1619.94
520.43	1658.85
520.64	1716.20
520.84	1785.83
521.05	1626.09
521.25	1804.26
521.45	1712.10
521.66	1636.33
521.86	1675.24
522.07	1673.19
522.27	1650.66
522.47	1583.08
522.68	1693.67
522.88	1693.67
523.08	1808.36
523.29	1535.98
523.49	1718.25
523.70	1636.33
523.90	1662.95
524.10	1677.29
524.31	1642.47
524.51	1576.94
524.71	1724.39
524.92	1708.01
525.12	1636.33
525.33	1775.59
525.53	1662.95
525.73	1761.25
525.94	1714.15
526.14	1716.20
526.34	1589.22
526.55	1697.77
526.75	1740.77
526.95	1767.40
527.16	1636.33
527.36	1701.86
527.56	1669.09
527.77	1617.90
527.97	1675.24
528.17	1787.88
528.38	1714.15
528.58	1728.49
528.78	1701.86
528.99	1662.95
529.19	1716.20
529.39	1679.33
529.60	1634.28
529.80	1716.20
530.00	1650.66
530.21	1630.18
530.41	1712.10
530.61	1728.49
530.82	1693.67
531.02	1681.38
531.22	1691.62
531.43	1708.01
531.63	1773.54
531.83	1683.43
532.04	1642.47
532.24	1695.72
532.44	1624.04
532.64	1818.60
532.85	1650.66
533.05	1681.38
533.25	1609.70
533.46	1691.62
533.66	1740.77
533.86	1638.38
534.07	1728.49
534.27	1755.11
534.47	1728.49
534.67	1701.86
534.88	1662.95
535.08	1751.01
535.28	1863.65
535.49	1654.76
535.69	1816.55
535.89	1703.91
536.09	1798.12
536.30	1621.99
536.50	1716.20
536.70	1720.29
536.91	1642.47
537.11	1763.30
537.31	1691.62
537.51	1695.72
537.72	1685.48
537.92	1671.14
538.12	1744.87
538.32	1761.25
538.53	1654.76
538.73	1685.48
538.93	1626.09
539.13	1621.99
539.34	1759.21
539.54	1566.70
539.74	1810.40
539.94	1667.05
540.15	1748.97
540.35	1718.25
540.55	1697.77
540.75	1634.28
540.96	1695.72
541.16	1644.52
541.36	1679.33
541.56	1730.53
541.77	1773.54
541.97	1779.68
542.17	1671.14
542.37	1755.11
542.58	1736.68
542.78	1800.16
542.98	1708.01
543.18	1693.67
543.38	1755.11
543.59	1744.87
543.79	1675.24
543.99	1640.42
544.19	1679.33
544.40	1757.16
544.60	1708.01
544.80	1669.09
545.00	1701.86
545.20	1689.57
545.41	1650.66
545.61	1564.65
545.81	1593.32
546.01	1783.78
546.21	1699.81
546.42	1642.47
546.62	1810.40
546.82	1611.75
547.02	1609.70
547.22	1669.09
547.43	1765.35
547.63	1689.57
547.83	1695.72
548.03	1626.09
548.23	1708.01
548.44	1681.38
548.64	1708.01
548.84	1720.29
549.04	1654.76
549.24	1794.02
549.45	1765.35
549.65	1667.05
549.85	1714.15
550.05	1691.62
550.25	1601.51
550.45	1806.31
550.66	1744.87
550.86	1626.09
551.06	1691.62
551.26	1718.25
551.46	1697.77
551.66	1671.14
551.87	1720.29
552.07	1605.61
552.27	1718.25
552.47	1761.25
552.67	1724.39
552.87	1716.20
553.07	1740.77
553.28	1681.38
553.48	1689.57
553.68	1656.81
553.88	1718.25
554.08	1744.87
554.28	1658.85
554.48	1650.66
554.69	1701.86
554.89	1611.75
555.09	1677.29
555.29	1519.59
555.49	1816.55
555.69	1648.61
555.89	1732.58
556.10	1669.09
556.30	1634.28
556.50	1726.44
556.70	1699.81
556.90	1712.10
557.10	1683.43
557.30	1673.19
557.50	1609.70
557.70	1673.19
557.91	1650.66
558.11	1679.33
558.31	1824.74
558.51	1820.64
558.71	1787.88
558.91	1734.63
559.11	1642.47
559.31	1658.85
559.51	1636.33
559.72	1789.92
559.92	1683.43
560.12	1628.14
560.32	1789.92
560.52	1761.25
560.72	1667.05
560.92	1777.64
561.12	1779.68
561.32	1658.85
561.52	1681.38
561.72	1871.84
561.93	1728.49
562.13	1634.28
562.33	1636.33
562.53	1714.15
562.73	1740.77
562.93	1662.95
563.13	1785.83
563.33	1738.73
563.53	1716.20
563.73	1703.91
563.93	1798.12
564.13	1845.22
564.33	1753.06
564.53	1708.01
564.74	1679.33
564.94	1673.19
565.14	1705.96
565.34	1699.81
565.54	1712.10
565.74	1705.96
565.94	1689.57
566.14	1697.77
566.34	1755.11
566.54	1687.53
566.74	1730.53
566.94	1753.06
567.14	1679.33
567.34	1703.91
567.54	1687.53
567.74	1681.38
567.94	1697.77
568.14	1724.39
568.34	1806.31
568.54	1671.14
568.74	1652.71
568.94	1736.68
569.14	1763.30
569.34	1736.68
569.54	1648.61
569.75	1744.87
569.95	1699.81
570.15	1734.63
570.35	1744.87
570.55	1605.61
570.75	1624.04
570.95	1724.39
571.15	1738.73
571.35	1771.49
571.55	1642.47
571.75	1685.48
571.95	1804.26
572.15	1656.81
572.35	1712.10
572.55	1691.62
572.75	1628.14
572.95	1679.33
573.15	1710.05
573.35	1748.97
573.55	1740.77
573.75	1681.38
573.95	1800.16
574.15	1650.66
574.35	1705.96
574.55	1681.38
574.75	1667.05
574.95	1703.91
575.15	1621.99
575.34	1701.86
575.54	1632.23
575.74	1658.85
575.94	1738.73
576.14	1593.32
576.34	1673.19
576.54	1701.86
576.74	1693.67
576.94	1601.51
577.14	1658.85
577.34	1787.88
577.54	1691.62
577.74	1605.61
577.94	1695.72
578.14	1617.90
578.34	1718.25
578.54	1570.79
578.74	1654.76
578.94	1732.58
579.14	1765.35
579.34	1593.32
579.54	1699.81
579.74	1681.38
579.94	1634.28
580.13	1679.33
580.33	1652.71
580.53	1673.19
580.73	1685.48
580.93	1712.10
581.13	1662.95
581.33	1736.68
581.53	1689.57
581.73	1683.43
581.93	1658.85
582.13	1732.58
582.33	1695.72
582.53	1654.76
582.73	1748.97
582.92	1656.81
583.12	1701.86
583.32	1722.34
583.52	1693.67
583.72	1777.64
583.92	1718.25
584.12	1681.38
584.32	1716.20
584.52	1619.94
584.72	1646.57
584.92	1665.00
585.11	1634.28
585.31	1746.92
585.51	1650.66
585.71	1714.15
585.91	1796.07
586.11	1632.23
586.31	1722.34
586.51	1636.33
586.71	1738.73
586.91	1681.38
587.10	1716.20
587.30	1744.87
587.50	1716.20
587.70	1626.09
587.90	1720.29
588.10	1632.23
588.30	1648.61
588.50	1685.48
588.69	1656.81
588.89	1679.33
589.09	1791.97
589.29	1593.32
589.49	1660.90
589.69	1710.05
589.89	1660.90
590.08	1705.96
590.28	1646.57
590.48	1705.96
590.68	1724.39
590.88	1654.76
591.08	1726.44
591.28	1724.39
591.47	1722.34
591.67	1552.36
591.87	1730.53
592.07	1769.44
592.27	1669.09
592.47	1601.51
592.67	1736.68
592.86	1675.24
593.06	1738.73
593.26	1699.81
593.46	1724.39
593.66	1591.27
593.86	1673.19
594.05	1693.67
594.25	1751.01
594.45	1650.66
594.65	1828.84
594.85	1724.39
595.05	1671.14
595.24	1763.30
595.44	1665.00
595.64	1597.42
595.84	1785.83
596.04	1675.24
