SpectraSuite Data File
++++++++++++++++++++++++++++++++++++
Date: Fri Jun 02 14:47:53 CEST 2017
User: INFO_000
Dark Spectrum Present: No
Reference Spectrum Present: No
Number of Sampled Component Spectra: 1
Spectrometers: USB4H00879
Integration Time (usec): 80000 (USB4H00879)
Spectra Averaged: 1 (USB4H00879)
Boxcar Smoothing: 0 (USB4H00879)
Correct for Electrical Dark: No (USB4H00879)
Strobe/Lamp Enabled: No (USB4H00879)
Correct for Detector Non-linearity: No (USB4H00879)
Correct for Stray Light: No (USB4H00879)
Number of Pixels in Processed Spectrum: 3648
>>>>>Begin Processed Spectral Data<<<<<
345.13	1284.08
345.34	1284.08
345.56	1284.08
345.78	1296.36
345.99	1286.12
346.21	1679.33
346.42	1683.43
346.64	1609.70
346.86	1830.88
347.07	1695.72
347.29	1687.53
347.50	1617.90
347.72	1648.61
347.94	1751.01
348.15	1673.19
348.37	1511.40
348.59	1712.10
348.80	1673.19
349.02	1761.25
349.23	1789.92
349.45	1798.12
349.67	1787.88
349.88	1726.44
350.10	1855.46
350.31	1769.44
350.53	1607.66
350.75	1837.03
350.96	1656.81
351.18	1744.87
351.39	1687.53
351.61	1728.49
351.82	1777.64
352.04	1783.78
352.26	1654.76
352.47	1761.25
352.69	1759.21
352.90	1574.89
353.12	1708.01
353.34	1728.49
353.55	1814.50
353.77	1775.59
353.98	1697.77
354.20	1724.39
354.41	1773.54
354.63	1728.49
354.85	1888.23
355.06	1816.55
355.28	1705.96
355.49	1783.78
355.71	1746.92
355.92	1685.48
356.14	1761.25
356.35	1701.86
356.57	1699.81
356.79	1734.63
357.00	1650.66
357.22	1867.75
357.43	1738.73
357.65	1751.01
357.86	1683.43
358.08	1687.53
358.29	1755.11
358.51	1791.97
358.72	1834.98
358.94	1703.91
359.16	1693.67
359.37	1716.20
359.59	1677.29
359.80	1794.02
360.02	1808.36
360.23	1771.49
360.45	1839.08
360.66	1761.25
360.88	1619.94
361.09	1783.78
361.31	1771.49
361.52	1830.88
361.74	1845.22
361.95	1814.50
362.17	1732.58
362.38	1896.42
362.60	1816.55
362.81	1701.86
363.03	1671.14
363.24	1804.26
363.46	1845.22
363.67	1753.06
363.89	1710.05
364.10	1880.04
364.32	1705.96
364.53	1857.51
364.75	1679.33
364.96	1787.88
365.18	1843.17
365.39	1761.25
365.61	1724.39
365.82	1920.99
366.04	1732.58
366.25	1708.01
366.47	1679.33
366.68	1744.87
366.90	1767.40
367.11	1845.22
367.33	1830.88
367.54	1863.65
367.76	1753.06
367.97	1855.46
368.19	1742.82
368.40	1791.97
368.62	1714.15
368.83	1687.53
369.05	1787.88
369.26	1665.00
369.48	1685.48
369.69	1708.01
369.91	1761.25
370.12	1753.06
370.33	1767.40
370.55	1708.01
370.76	1763.30
370.98	1884.13
371.19	1763.30
371.41	1761.25
371.62	1798.12
371.84	1671.14
372.05	1824.74
372.27	1771.49
372.48	1796.07
372.69	1832.93
372.91	1853.41
373.12	1773.54
373.34	1714.15
373.55	1820.64
373.77	1857.51
373.98	1738.73
374.20	1857.51
374.41	1900.52
374.62	1738.73
374.84	1869.80
375.05	1824.74
375.27	1785.83
375.48	1845.22
375.70	1810.40
375.91	1843.17
376.12	1988.58
376.34	1818.60
376.55	1773.54
376.77	1906.66
376.98	1798.12
377.19	1726.44
377.41	1789.92
377.62	1904.61
377.84	1929.19
378.05	2025.44
378.27	1812.45
378.48	1853.41
378.69	1867.75
378.91	2043.87
379.12	1916.90
379.34	1810.40
379.55	1855.46
379.76	1839.08
379.98	1769.44
380.19	1832.93
380.41	1847.27
380.62	1851.36
380.83	1834.98
381.05	1802.21
381.26	1931.23
381.47	1783.78
381.69	1880.04
381.90	1959.91
382.12	1773.54
382.33	1816.55
382.54	1802.21
382.76	1937.38
382.97	1904.61
383.19	1757.16
383.40	1949.67
383.61	1935.33
383.83	1920.99
384.04	1896.42
384.25	1869.80
384.47	1941.47
384.68	1857.51
384.89	1853.41
385.11	1826.79
385.32	1828.84
385.54	1882.08
385.75	1857.51
385.96	1931.23
386.18	1908.71
386.39	1953.76
386.60	1912.80
386.82	1884.13
387.03	1902.56
387.24	1994.72
387.46	1957.86
387.67	1951.71
387.88	2176.99
388.10	1818.60
388.31	1941.47
388.52	2133.98
388.74	2121.70
388.95	2023.39
389.16	1855.46
389.38	1820.64
389.59	2009.06
389.80	2056.16
390.02	2009.06
390.23	2033.63
390.44	1925.09
390.66	1931.23
390.87	1861.60
391.08	1976.29
391.30	2265.05
391.51	2158.56
391.72	2045.92
391.94	2170.85
392.15	2162.66
392.36	1910.75
392.58	1998.82
392.79	2074.59
393.00	2156.51
393.22	2174.94
393.43	2174.94
393.64	2072.54
393.85	2148.32
394.07	2136.03
394.28	2260.96
394.49	2119.65
394.71	2273.25
394.92	2150.37
395.13	2025.44
395.35	2181.09
395.56	2002.91
395.77	2252.77
395.98	2090.98
396.20	2232.29
396.41	2426.84
396.62	2316.25
396.84	2240.48
397.05	2140.13
397.26	2185.18
397.47	2557.91
397.69	2181.09
397.90	2410.46
398.11	2396.12
398.32	2279.39
398.54	2238.43
398.75	2365.40
398.96	2451.42
399.18	2514.91
399.39	2340.83
399.60	2463.71
399.81	2299.87
400.03	2445.27
400.24	2576.34
400.45	2365.40
400.66	2492.38
400.88	2322.40
401.09	2494.43
401.30	2246.62
401.51	2627.54
401.73	2437.08
401.94	2506.71
402.15	2590.68
402.36	2807.77
402.58	2547.67
402.79	2760.66
403.00	2711.51
403.21	2740.18
403.43	2668.50
403.64	2797.53
403.85	2695.13
404.06	2820.05
404.27	2676.70
404.49	2660.31
404.70	2779.09
404.91	2613.21
405.12	2609.11
405.34	2627.54
405.55	2801.62
405.76	2635.74
405.97	2768.85
406.19	3049.43
406.40	2707.41
406.61	2881.49
406.82	2826.20
407.03	2871.25
407.25	2762.71
407.46	3092.43
407.67	2807.77
407.88	3180.50
408.09	2871.25
408.31	2912.21
408.52	2932.69
408.73	2981.84
408.94	2820.05
409.15	2877.40
409.37	3018.71
409.58	3022.80
409.79	3049.43
410.00	3082.19
410.21	2965.46
410.43	3065.81
410.64	2793.43
410.85	2983.89
411.06	3213.26
411.27	3272.65
411.48	3157.97
411.70	3266.51
411.91	3246.03
412.12	3405.77
412.33	3246.03
412.54	3170.26
412.76	3295.18
412.97	3260.37
413.18	3198.93
413.39	3102.67
413.60	3243.98
413.81	3399.63
414.03	3192.78
414.24	3252.17
414.45	3362.76
414.66	3375.05
414.87	3538.89
415.08	3205.07
415.30	3442.64
415.51	3370.96
415.72	3225.55
415.93	3430.35
416.14	3311.57
416.35	3426.25
416.56	3477.45
416.78	3542.99
416.99	3626.95
417.20	3309.52
417.41	3520.46
417.62	3565.51
417.83	3540.94
418.04	3571.66
418.26	3743.69
418.47	3542.99
418.68	3798.98
418.89	3758.02
419.10	3794.89
419.31	3676.10
419.52	3755.97
419.73	3540.94
419.95	3934.15
420.16	3626.95
420.37	3735.50
420.58	3678.15
420.79	3686.34
421.00	3698.63
421.21	3829.70
421.42	3803.08
421.63	3856.33
421.85	3968.96
422.06	3850.18
422.27	3995.59
422.48	3987.40
422.69	4016.07
422.90	3895.24
423.11	3968.96
423.32	3979.20
423.53	4061.12
423.75	4126.66
423.96	4319.17
424.17	4300.73
424.38	4313.02
424.59	4145.09
424.80	4427.71
425.01	4216.77
425.22	4212.67
425.43	4196.29
425.64	4493.24
425.85	4433.85
426.06	4437.95
426.28	4376.51
426.49	4237.25
426.70	4362.17
426.91	4339.65
427.12	4511.68
427.33	4474.81
427.54	4433.85
427.75	4667.32
427.96	4771.77
428.17	4622.27
428.38	4638.65
428.59	4800.44
428.80	4644.79
429.01	4747.19
429.23	4614.07
429.44	4849.59
429.65	4757.43
429.86	4859.83
430.07	4870.07
430.28	4800.44
430.49	4915.12
430.70	4829.11
430.91	5025.72
431.12	4870.07
431.33	5050.29
431.54	5105.59
431.75	5083.06
431.96	5113.78
432.17	4911.03
432.38	5040.05
432.59	5218.22
432.80	5132.21
433.01	5169.07
433.22	5101.49
433.43	5152.69
433.64	5119.92
433.85	5294.00
434.06	5271.47
434.27	5142.45
434.49	5214.13
434.70	5406.64
434.91	5386.16
435.12	5343.15
435.33	5386.16
435.54	5359.53
435.75	5294.00
435.96	5425.07
436.17	5240.75
436.38	5607.34
436.59	5584.81
436.80	5504.94
437.01	5730.22
437.22	5683.11
437.43	5396.40
437.64	5388.21
437.85	5509.04
438.06	5773.22
438.27	5541.80
438.48	5640.11
438.69	5722.02
438.90	5744.55
439.11	5748.65
439.32	5947.30
439.53	5728.17
439.74	5705.64
439.95	5873.57
440.16	5914.53
440.37	5844.90
440.57	5717.93
440.78	5994.40
440.99	5887.91
441.20	5975.97
441.41	5814.18
441.62	5822.38
441.83	5775.27
442.04	6037.41
442.25	6049.70
442.46	6033.32
442.67	6100.90
442.88	6326.18
443.09	5951.40
443.30	6027.17
443.51	5971.88
443.72	6322.08
443.93	6064.04
444.14	6485.92
444.35	6041.51
444.56	6291.36
444.77	6260.64
444.98	6270.88
445.19	6373.28
445.40	6246.30
445.61	6410.14
445.81	6266.78
446.02	6541.21
446.23	6285.22
446.44	6164.39
446.65	6475.68
446.86	6346.66
447.07	6612.89
447.28	6680.47
447.49	6608.80
447.70	6616.99
447.91	6594.46
448.12	6545.31
448.33	6694.81
448.54	6643.61
448.74	6655.90
448.95	6780.82
449.16	6559.64
449.37	6832.02
449.58	6717.34
449.79	6891.41
450.00	6852.50
450.21	6915.99
450.42	6938.52
450.63	7126.93
450.84	6940.57
451.05	7006.10
451.25	6901.65
451.46	6893.46
451.67	7102.36
451.88	7114.64
452.09	7323.54
452.30	7071.64
452.51	6891.41
452.72	7286.67
452.93	7442.32
453.13	7098.26
453.34	7118.74
453.55	7329.68
453.76	7360.40
453.97	7503.76
454.18	7432.08
454.39	7452.56
454.60	7456.65
454.81	7362.45
455.01	7604.11
455.22	7391.12
455.43	7567.24
455.64	7759.75
455.85	7792.52
456.06	7911.30
456.27	7798.66
456.48	7718.79
456.68	7628.68
456.89	7569.29
457.10	7890.82
457.31	7909.26
457.52	8011.65
457.73	8023.94
457.94	8208.26
458.14	7982.98
458.35	8331.14
458.56	8181.64
458.77	8103.81
458.98	8398.72
459.19	8177.54
459.39	8212.35
459.60	8458.11
459.81	8380.29
460.02	8597.37
460.23	8544.13
460.44	8523.65
460.65	8636.28
460.85	8597.37
461.06	8640.38
461.27	8320.90
461.48	8914.81
461.69	8920.95
461.89	8691.58
462.10	8828.79
462.31	8673.15
462.52	8857.46
462.73	8947.58
462.94	9017.21
463.14	8869.75
463.35	8851.32
463.56	9457.52
463.77	9314.16
463.98	9058.17
464.18	9291.63
464.39	9160.56
464.60	9654.12
464.81	9588.59
465.02	9426.80
465.23	9717.61
465.43	9580.40
465.64	9754.48
465.85	9697.13
466.06	9525.10
466.27	10233.70
466.47	9824.11
466.68	9965.42
466.89	9934.70
467.10	10121.06
467.30	9887.59
467.51	10188.64
467.72	10170.21
467.93	10084.20
468.14	10223.46
468.34	10526.56
468.55	10393.44
468.76	10407.78
468.97	10456.93
469.17	10737.50
469.38	10723.16
469.59	10905.43
469.80	10702.68
470.01	10702.68
470.21	10776.41
470.42	10995.54
470.63	11220.82
470.84	11149.14
471.04	11046.74
471.25	11300.69
471.46	11116.37
471.67	11493.20
471.87	11536.21
472.08	11333.46
472.29	11552.59
472.50	11323.22
472.70	11554.64
472.91	11485.01
473.12	11882.31
473.33	11917.13
473.53	12164.93
473.74	12126.02
473.95	12097.35
474.16	12326.72
474.36	12259.14
474.57	12359.49
474.78	12656.45
474.99	12541.76
475.19	12416.83
475.40	12912.44
475.61	12576.58
475.81	12930.87
476.02	13186.87
476.23	12820.28
476.44	13127.48
476.64	13268.79
476.85	13430.58
477.06	13217.59
477.27	13692.72
477.47	13739.82
477.68	13684.53
477.89	13801.26
478.09	13666.10
478.30	13754.16
478.51	13850.41
478.71	14202.66
478.92	14126.89
479.13	14204.71
479.34	14505.76
479.54	14413.60
479.75	14354.21
479.96	14696.22
480.16	14466.85
480.37	14559.01
480.58	14888.73
480.78	15206.17
480.99	15046.43
481.20	15298.33
481.41	15308.57
481.61	15245.08
481.82	15486.74
482.03	15339.29
482.23	15507.22
482.44	15568.66
482.65	15838.99
482.85	15970.06
483.06	15947.53
483.27	16150.28
483.47	15978.25
483.68	16193.29
483.89	16381.70
484.09	16453.38
484.30	16365.32
484.51	16578.31
484.71	16731.90
484.92	16553.73
485.13	16940.80
485.33	16973.56
485.54	16787.20
485.75	17176.31
485.95	17231.61
486.16	17628.92
486.37	17442.55
486.57	17149.69
486.78	17327.86
486.98	17469.17
487.19	17825.52
487.40	17952.49
487.60	17798.90
487.81	17950.45
488.02	18106.09
488.22	17936.11
488.43	18185.96
488.64	18513.64
488.84	18231.02
489.05	18810.59
489.25	18495.21
489.46	18829.02
489.67	18700.00
489.87	19066.59
490.08	19070.68
490.29	19011.29
490.49	19052.25
490.70	19252.95
490.90	19367.64
491.11	19427.03
491.32	19537.62
491.52	19506.90
491.73	19609.30
491.94	19924.69
492.14	19549.91
492.35	19814.10
492.55	19994.32
492.76	19877.58
492.97	20276.94
493.17	20156.11
493.38	20489.93
493.58	20860.61
493.79	20676.29
494.00	20829.89
494.20	20756.16
494.41	20911.81
494.61	20764.36
494.82	21065.41
495.02	21016.26
495.23	20895.43
495.44	21073.60
495.64	21255.87
495.85	21233.34
496.05	21722.80
496.26	21483.19
496.47	21911.22
496.67	21440.18
496.88	22138.54
497.08	21829.30
497.29	22034.10
497.49	21919.41
497.70	21997.23
497.91	22177.45
498.11	22238.89
498.32	22101.68
498.52	22677.16
498.73	22742.69
498.93	22675.11
499.14	22738.60
499.34	22666.92
499.55	23002.78
499.76	22533.80
499.96	23008.93
500.17	22910.63
500.37	23033.50
500.58	23066.27
500.78	23252.64
500.99	23096.99
501.19	23287.45
501.40	23684.76
501.60	23234.21
501.81	23613.08
502.02	23625.37
502.22	23430.81
502.43	23910.04
502.63	23697.05
502.84	23881.36
503.04	23832.21
503.25	23996.05
503.45	24018.58
503.66	24518.28
503.86	24368.78
504.07	24342.16
504.27	24327.82
504.48	24747.65
504.68	24493.71
504.89	24604.30
505.09	24479.37
505.30	24807.05
505.50	24532.62
505.71	25030.27
505.91	25054.85
506.12	24825.48
506.32	25190.02
506.53	25239.17
506.73	25050.75
506.94	25355.90
507.14	25251.45
507.35	25128.58
507.55	25177.73
507.76	25626.23
507.96	25323.13
508.17	25298.56
508.37	25306.75
508.58	25388.67
508.78	25736.82
508.99	25869.94
509.19	25620.09
509.40	26017.40
509.60	25716.34
509.81	25798.26
510.01	25765.49
510.22	25884.28
510.42	26199.66
510.63	26488.43
510.83	25992.82
511.04	26398.32
511.24	26359.41
511.44	26672.74
511.65	26594.92
511.85	26648.17
512.06	26660.46
512.26	26605.16
512.47	26820.20
512.67	26842.73
512.88	26764.90
513.08	26429.04
513.29	26893.93
513.49	27049.57
513.69	26871.40
513.90	27033.19
514.10	26678.89
514.31	27295.33
514.51	27383.39
514.72	27340.38
514.92	27123.30
515.13	27555.42
515.33	27321.95
515.53	27330.14
515.74	27567.71
515.94	27719.26
516.15	27762.26
516.35	27496.03
516.56	28124.75
516.76	27727.45
516.96	27811.42
517.17	28104.28
517.37	28122.71
517.58	27743.83
517.78	28087.89
517.99	28032.60
518.19	28483.15
518.39	28536.40
518.60	28503.63
518.80	28169.81
519.01	28360.27
519.21	28372.56
519.41	28706.38
519.62	28653.13
519.82	28597.84
520.03	28554.83
520.23	28755.53
520.43	28626.51
520.64	29101.64
520.84	29390.40
521.05	29120.07
521.25	29077.06
521.45	29187.65
521.66	29484.61
521.86	29394.50
522.07	29281.86
522.27	29335.10
522.47	29568.57
522.68	29689.40
522.88	29431.36
523.08	29851.19
523.29	29789.75
523.49	30142.00
523.70	29781.56
523.90	30283.31
524.10	30215.73
524.31	30289.46
524.51	30234.16
524.71	30692.91
524.92	30387.76
525.12	30953.00
525.33	30721.58
525.53	30856.75
525.73	30662.19
525.94	30957.10
526.14	30901.80
526.34	31206.95
526.55	31452.70
526.75	31157.80
526.95	31577.63
527.16	31338.02
527.36	31583.77
527.56	31770.14
527.77	31829.53
527.97	31667.74
528.17	31755.80
528.38	31725.08
528.58	31991.32
528.78	31964.70
528.99	32015.90
529.19	32464.40
529.39	31931.93
529.60	32704.01
529.80	32480.78
530.00	32562.70
530.21	32726.54
530.41	32960.01
530.61	32824.84
530.82	33023.50
531.02	32947.72
531.22	33056.26
531.43	33086.98
531.63	33107.46
531.83	33537.54
532.04	33762.81
532.24	33308.16
532.44	34004.47
532.64	33641.98
532.85	33603.07
533.05	34020.86
533.25	33650.17
533.46	33844.73
533.66	34311.67
533.86	34076.15
534.07	34756.08
534.27	34577.90
534.47	34561.52
534.67	34620.91
534.88	34862.57
535.08	34678.25
535.28	34706.93
535.49	34819.56
535.69	35044.84
535.89	35380.71
536.09	35751.39
536.30	35751.39
536.50	35548.64
536.70	35442.15
536.91	35186.15
537.11	35700.19
537.31	35814.88
537.51	35675.62
537.72	36736.46
537.92	36261.33
538.12	36521.43
538.32	35999.19
538.53	36496.85
538.73	36130.26
538.93	36140.50
539.13	36107.74
539.34	36654.54
539.54	36605.39
539.74	36914.64
539.94	36920.78
540.15	36677.07
540.35	36941.26
540.55	36793.81
540.75	37295.56
540.96	37176.78
541.16	36994.51
541.36	37459.40
541.56	37557.70
541.77	37653.95
541.97	37895.61
542.17	37729.73
542.37	37674.43
542.58	37965.24
542.78	38118.84
542.98	37764.54
543.18	38014.40
543.38	38143.42
543.59	38116.79
543.79	38237.62
543.99	38221.24
544.19	38172.09
544.40	38450.61
544.60	38950.32
544.80	38243.77
545.00	38802.86
545.20	38639.03
545.41	38630.83
545.61	38655.41
545.81	39306.66
546.01	38903.21
546.21	38815.15
546.42	39030.19
546.62	39243.18
546.82	39208.36
547.02	39284.14
547.22	39665.06
547.43	39214.51
547.63	39288.23
547.83	39255.46
548.03	39431.59
548.23	39820.70
548.44	39613.86
548.64	39470.50
548.84	39628.20
549.04	39660.96
549.24	39990.69
549.45	39878.05
549.65	40045.98
549.85	39761.31
550.05	40109.47
550.25	40277.40
550.45	40859.02
550.66	40627.60
550.86	39972.25
551.06	40420.76
551.26	40592.79
551.46	40547.73
551.66	40371.61
551.87	40582.55
552.07	40895.89
552.27	40785.30
552.47	40680.85
552.67	40805.78
552.87	41072.01
553.07	41104.78
553.28	41211.28
553.48	41285.00
553.68	41000.33
553.88	40908.18
554.08	41241.99
554.28	41211.28
554.48	41151.88
554.69	40996.24
554.89	41196.94
555.09	41551.24
555.29	41313.67
555.49	41270.67
555.69	41125.26
555.89	41448.84
556.10	41751.94
556.30	41635.20
556.50	41942.40
556.70	41465.22
556.90	41670.02
557.10	41735.56
557.30	41633.16
557.50	42050.94
557.70	42282.36
557.91	42184.06
558.11	41928.06
558.31	42495.35
558.51	41866.63
558.71	41827.71
558.91	42220.92
559.11	42227.07
559.31	42251.64
559.51	42253.69
559.72	42055.04
559.92	42792.31
560.12	42073.47
560.32	42392.95
560.52	42229.12
560.72	42702.20
560.92	42489.21
561.12	42808.69
561.32	42878.32
561.52	42378.62
561.72	43513.19
561.93	42235.26
562.13	42407.29
562.33	42734.96
562.53	43294.06
562.73	42927.47
562.93	43001.20
563.13	42939.76
563.33	42892.66
563.53	43097.45
563.73	43242.86
563.93	43013.49
564.13	43294.06
564.33	43335.02
564.53	43097.45
564.74	43507.05
564.94	43388.27
565.14	43795.81
565.34	43361.64
565.54	43427.18
565.74	43558.25
565.94	43771.24
566.14	43578.73
566.34	43509.10
566.54	43980.13
566.74	43228.52
566.94	43793.76
567.14	43887.97
567.34	43509.10
567.54	43799.91
567.74	43605.35
567.94	43859.30
568.14	44133.73
568.34	44203.36
568.54	43816.29
568.74	43765.09
568.94	43883.87
569.14	44326.24
569.34	44494.17
569.54	44117.34
569.75	43933.03
569.95	44342.62
570.15	44674.39
570.35	44363.10
570.55	44412.25
570.75	44641.62
570.95	44727.64
571.15	44414.30
571.35	44633.43
571.55	44922.19
571.75	44787.03
571.95	44774.74
572.15	44307.80
572.35	44899.67
572.55	44717.40
572.75	44844.37
572.95	45151.57
573.15	44827.99
573.35	45000.02
573.55	45167.95
573.75	44932.43
573.95	45329.74
574.15	45137.23
574.35	45542.73
574.55	45124.94
574.75	45288.78
574.95	45446.47
575.15	45116.75
575.34	45526.35
575.54	45708.61
575.74	45966.66
575.94	45479.24
576.14	45739.33
576.34	45655.37
576.54	46120.26
576.74	45577.54
576.94	45722.95
577.14	45940.04
577.34	45989.19
577.54	45610.31
577.74	46056.77
577.94	46128.45
578.14	45937.99
578.34	46130.50
578.54	45673.80
578.74	46052.67
578.94	46363.96
579.14	46267.71
579.34	45905.22
579.54	46503.23
579.74	47136.05
579.94	46574.91
580.13	46617.91
580.33	46587.19
580.53	46800.18
580.73	46931.25
580.93	47109.43
581.13	46810.42
581.33	47478.06
581.53	47045.94
581.73	46998.83
581.93	47068.47
582.13	47267.12
582.33	47240.50
582.53	47451.44
582.73	46972.21
582.92	47371.57
583.12	47334.70
583.32	47574.31
583.52	47246.64
583.72	47947.04
583.92	47629.61
584.12	47246.64
584.32	47705.38
584.52	47904.04
584.72	47394.09
584.92	47895.85
585.11	48110.88
585.31	48067.87
585.51	47867.17
585.71	48264.48
585.91	48557.34
586.11	47854.89
586.31	47899.94
586.51	48178.46
586.71	48213.28
586.91	48411.93
587.10	48764.18
587.30	48645.40
587.50	48784.66
587.70	48833.81
587.90	48880.92
588.10	49007.89
588.30	48528.67
588.50	48823.58
