SpectraSuite Data File
++++++++++++++++++++++++++++++++++++
Date: Fri Jun 02 14:47:54 CEST 2017
User: INFO_000
Dark Spectrum Present: No
Reference Spectrum Present: No
Number of Sampled Component Spectra: 1
Spectrometers: USB4H00879
Integration Time (usec): 80000 (USB4H00879)
Spectra Averaged: 1 (USB4H00879)
Boxcar Smoothing: 0 (USB4H00879)
Correct for Electrical Dark: No (USB4H00879)
Strobe/Lamp Enabled: No (USB4H00879)
Correct for Detector Non-linearity: No (USB4H00879)
Correct for Stray Light: No (USB4H00879)
Number of Pixels in Processed Spectrum: 3648
>>>>>Begin Processed Spectral Data<<<<<
345.13	1251.31
345.34	1251.31
345.56	1251.31
345.78	1316.84
345.99	1245.16
346.21	1746.92
346.42	1683.43
346.64	1685.48
346.86	1822.69
347.07	1658.85
347.29	1630.18
347.50	1601.51
347.72	1689.57
347.94	1798.12
348.15	1550.31
348.37	1560.55
348.59	1734.63
348.80	1646.57
349.02	1818.60
349.23	1787.88
349.45	1687.53
349.67	1759.21
349.88	1710.05
350.10	1939.43
350.31	1837.03
350.53	1771.49
350.75	1912.80
350.96	1677.29
351.18	1796.07
351.39	1724.39
351.61	1751.01
351.82	1898.47
352.04	1869.80
352.26	1728.49
352.47	1871.84
352.69	1869.80
352.90	1660.90
353.12	1814.50
353.34	1824.74
353.55	1890.28
353.77	1841.12
353.98	1804.26
354.20	1732.58
354.41	1906.66
354.63	1820.64
354.85	2050.02
355.06	1896.42
355.28	1726.44
355.49	1802.21
355.71	1867.75
355.92	1781.73
356.14	1808.36
356.35	1761.25
356.57	1810.40
356.79	1822.69
357.00	1816.55
357.22	1908.71
357.43	1732.58
357.65	1861.60
357.86	1810.40
358.08	1847.27
358.29	1865.70
358.51	1955.81
358.72	1904.61
358.94	1826.79
359.16	1867.75
359.37	1851.36
359.59	1875.94
359.80	1900.52
360.02	1837.03
360.23	1918.95
360.45	1902.56
360.66	1853.41
360.88	1748.97
361.09	1863.65
361.31	1892.32
361.52	1763.30
361.74	1908.71
361.95	2099.17
362.17	1904.61
362.38	2072.54
362.60	1916.90
362.81	1937.38
363.03	1777.64
363.24	1849.32
363.46	2066.40
363.67	1980.39
363.89	1898.47
364.10	1943.52
364.32	1857.51
364.53	1966.05
364.75	1810.40
364.96	1894.37
365.18	1931.23
365.39	1970.15
365.61	1920.99
365.82	2027.49
366.04	2021.35
366.25	1884.13
366.47	2078.69
366.68	1886.18
366.90	1837.03
367.11	2033.63
367.33	2056.16
367.54	2050.02
367.76	1982.43
367.97	2095.07
368.19	1916.90
368.40	1994.72
368.62	1920.99
368.83	1904.61
369.05	1916.90
369.26	1923.04
369.48	1953.76
369.69	1976.29
369.91	2060.26
370.12	1947.62
370.33	1945.57
370.55	1941.47
370.76	1886.18
370.98	2076.64
371.19	1968.10
371.41	1968.10
371.62	2033.63
371.84	1953.76
372.05	2064.35
372.27	1996.77
372.48	2074.59
372.69	2015.20
372.91	2115.55
373.12	2072.54
373.34	1916.90
373.55	2004.96
373.77	2109.41
373.98	2138.08
374.20	2117.60
374.41	2146.27
374.62	2099.17
374.84	2146.27
375.05	2191.33
375.27	2166.75
375.48	2060.26
375.70	2156.51
375.91	2195.42
376.12	2242.53
376.34	2068.45
376.55	2080.74
376.77	2158.56
376.98	2047.97
377.19	2121.70
377.41	2146.27
377.62	2080.74
377.84	2279.39
378.05	2285.53
378.27	2115.55
378.48	2312.16
378.69	2398.17
378.91	2328.54
379.12	2158.56
379.34	2168.80
379.55	2256.86
379.76	2269.15
379.98	2121.70
380.19	2158.56
380.41	2203.61
380.62	2263.01
380.83	2254.81
381.05	2148.32
381.26	2424.80
381.47	2121.70
381.69	2213.85
381.90	2392.03
382.12	2285.53
382.33	2293.72
382.54	2193.37
382.76	2265.05
382.97	2293.72
383.19	2224.09
383.40	2381.79
383.61	2310.11
383.83	2303.96
384.04	2295.77
384.25	2432.99
384.47	2375.64
384.68	2363.36
384.89	2248.67
385.11	2283.49
385.32	2314.20
385.54	2285.53
385.75	2324.44
385.96	2406.36
386.18	2412.51
386.39	2338.78
386.60	2355.16
386.82	2408.41
387.03	2320.35
387.24	2484.19
387.46	2463.71
387.67	2465.75
387.88	2467.80
388.10	2559.96
388.31	2451.42
388.52	2641.88
388.74	2490.33
388.95	2461.66
389.16	2412.51
389.38	2502.62
389.59	2543.58
389.80	2559.96
390.02	2590.68
390.23	2693.08
390.44	2545.63
390.66	2559.96
390.87	2465.75
391.08	2645.98
391.30	2617.30
391.51	2592.73
391.72	2572.25
391.94	2570.20
392.15	2650.07
392.36	2654.17
392.58	2572.25
392.79	2635.74
393.00	2750.42
393.22	2721.75
393.43	2682.84
393.64	2707.41
393.85	2768.85
394.07	2676.70
394.28	2617.30
394.49	2648.02
394.71	2674.65
394.92	2756.57
395.13	2678.74
395.35	2725.85
395.56	2650.07
395.77	2795.48
395.98	2723.80
396.20	2805.72
396.41	2861.01
396.62	2848.72
396.84	2699.22
397.05	2840.53
397.26	2881.49
397.47	2936.79
397.69	2830.29
397.90	2971.60
398.11	2889.68
398.32	2836.44
398.54	2973.65
398.75	2815.96
398.96	2992.08
399.18	3102.67
399.39	3014.61
399.60	2990.03
399.81	2936.79
400.03	2783.19
400.24	3248.08
400.45	2842.58
400.66	3039.19
400.88	2947.03
401.09	3104.72
401.30	3082.19
401.51	3141.58
401.73	3102.67
401.94	3112.91
402.15	3125.20
402.36	3102.67
402.58	3049.43
402.79	3129.30
403.00	3155.92
403.21	3274.70
403.43	3205.07
403.64	3198.93
403.85	3041.23
404.06	3188.69
404.27	3123.15
404.49	3274.70
404.70	3108.82
404.91	3186.64
405.12	3332.05
405.34	3149.78
405.55	3428.30
405.76	3307.47
405.97	3180.50
406.19	3518.41
406.40	3299.28
406.61	3409.87
406.82	3360.72
407.03	3215.31
407.25	3297.23
407.46	3452.88
407.67	3434.44
407.88	3407.82
408.09	3227.60
408.31	3375.05
408.52	3338.19
408.73	3350.48
408.94	3309.52
409.15	3405.77
409.37	3512.27
409.58	3538.89
409.79	3606.47
410.00	3493.83
410.21	3403.72
410.43	3456.97
410.64	3364.81
410.85	3459.02
411.06	3538.89
411.27	3469.26
411.48	3493.83
411.70	3528.65
411.91	3487.69
412.12	3688.39
412.33	3532.75
412.54	3506.12
412.76	3694.54
412.97	3692.49
413.18	3540.94
413.39	3479.50
413.60	3712.97
413.81	3643.34
414.03	3516.36
414.24	3598.28
414.45	3725.26
414.66	3710.92
414.87	3663.82
415.08	3590.09
415.30	3776.45
415.51	3811.27
415.72	3610.57
415.93	3704.78
416.14	3725.26
416.35	3809.22
416.56	3805.13
416.78	3837.89
416.99	3811.27
417.20	3815.37
417.41	3772.36
417.62	3915.72
417.83	3882.95
418.04	3876.80
418.26	4009.92
418.47	3819.46
418.68	3952.58
418.89	3848.13
419.10	4069.31
419.31	3942.34
419.52	4087.75
419.73	4024.26
419.95	4007.87
420.16	3915.72
420.37	3975.11
420.58	4001.73
420.79	3928.00
421.00	4081.60
421.21	4081.60
421.42	3991.49
421.63	4212.67
421.85	4042.69
422.06	4257.73
422.27	4122.56
422.48	4110.27
422.69	4247.49
422.90	4218.82
423.11	4286.40
423.32	4220.86
423.53	4431.80
423.75	4310.97
423.96	4390.84
424.17	4425.66
424.38	4585.40
424.59	4341.69
424.80	4646.84
425.01	4396.99
425.22	4368.32
425.43	4396.99
425.64	4589.50
425.85	4501.44
426.06	4521.92
426.28	4554.68
426.49	4493.24
426.70	4425.66
426.91	4618.17
427.12	4638.65
427.33	4581.31
427.54	4548.54
427.75	4786.10
427.96	4800.44
428.17	4562.87
428.38	4818.87
428.59	4779.96
428.80	4825.01
429.01	4822.97
429.23	4839.35
429.44	5064.63
429.65	4960.18
429.86	4847.54
430.07	4878.26
430.28	4861.88
430.49	4956.08
430.70	5107.63
430.91	4990.90
431.12	4937.65
431.33	5181.36
431.54	5052.34
431.75	5011.38
431.96	5015.48
432.17	5117.87
432.38	5228.46
432.59	5287.86
432.80	5150.64
433.01	5250.99
433.22	5205.94
433.43	5164.98
433.64	5359.53
433.85	5304.24
434.06	5359.53
434.27	5271.47
434.49	5441.45
434.70	5533.61
434.91	5275.57
435.12	5423.02
435.33	5320.62
435.54	5466.03
435.75	5152.69
435.96	5384.11
436.17	5316.53
436.38	5586.86
436.59	5615.53
436.80	5451.69
437.01	5691.31
437.22	5738.41
437.43	5666.73
437.64	5550.00
437.85	5652.39
438.06	5623.72
438.27	5601.19
438.48	5590.95
438.69	5719.98
438.90	5728.17
439.11	5633.96
439.32	5801.90
439.53	5666.73
439.74	5810.09
439.95	5857.19
440.16	5812.14
440.37	5777.32
440.57	5722.02
440.78	5910.44
440.99	6059.94
441.20	5957.54
441.41	5787.56
441.62	5937.06
441.83	5896.10
442.04	5947.30
442.25	5930.92
442.46	5982.12
442.67	6174.63
442.88	6467.49
443.09	5926.82
443.30	5980.07
443.51	6211.49
443.72	6401.95
443.93	6143.91
444.14	6410.14
444.35	5990.31
444.56	6242.21
444.77	6391.71
444.98	6195.11
445.19	6172.58
445.40	6340.51
445.61	6172.58
445.81	6352.80
446.02	6596.51
446.23	6422.43
446.44	6215.59
446.65	6508.44
446.86	6412.19
447.07	6553.50
447.28	6549.40
447.49	6672.28
447.70	6557.60
447.91	6643.61
448.12	6619.04
448.33	6797.21
448.54	6774.68
448.74	6582.17
448.95	6719.39
449.16	6498.20
449.37	6979.48
449.58	6860.70
449.79	7075.73
450.00	6582.17
450.21	6821.78
450.42	7008.15
450.63	6973.33
450.84	6926.23
451.05	6961.05
451.25	6842.26
451.46	6756.25
451.67	7106.45
451.88	7214.99
452.09	7065.49
452.30	7059.35
452.51	7094.16
452.72	7309.20
452.93	7344.02
453.13	7049.11
453.34	7182.23
453.55	7217.04
453.76	7442.32
453.97	7636.88
454.18	7405.46
454.39	7368.59
454.60	7602.06
454.81	7524.24
455.01	7671.69
455.22	7288.72
455.43	7571.34
455.64	7772.04
455.85	7833.48
456.06	7782.28
456.27	7778.19
456.48	7622.54
456.68	7974.79
456.89	7856.01
457.10	7884.68
457.31	7874.44
457.52	7866.25
457.73	8015.75
457.94	7925.64
458.14	8023.94
458.35	8439.68
458.56	8144.77
458.77	8060.80
458.98	8216.45
459.19	8191.88
459.39	8222.59
459.60	8314.75
459.81	8320.90
460.02	8529.79
460.23	8386.43
460.44	8650.62
460.65	8626.04
460.85	8818.55
461.06	8699.77
461.27	8468.35
461.48	8976.25
461.69	8888.18
461.89	8591.23
462.10	9023.35
462.31	8699.77
462.52	8814.46
462.73	8976.25
462.94	9072.50
463.14	8990.58
463.35	8826.75
463.56	9650.03
463.77	9211.76
463.98	9125.75
464.18	9381.74
464.39	9457.52
464.60	9521.01
464.81	9359.22
465.02	9416.56
465.23	9611.12
465.43	9502.58
465.64	9717.61
465.85	9770.86
466.06	9549.68
466.27	9897.83
466.47	9957.22
466.68	9981.80
466.89	9867.11
467.10	10047.33
467.30	9924.46
467.51	10129.25
467.72	10495.84
467.93	10225.51
468.14	10219.36
468.34	10395.49
468.55	10098.53
468.76	10487.65
468.97	10377.06
469.17	10626.91
469.38	10727.26
469.59	10778.46
469.80	10497.89
470.01	10563.42
470.21	10753.88
470.42	10919.77
470.63	11169.62
470.84	11013.98
471.04	11128.66
471.25	11159.38
471.46	11083.61
471.67	11614.03
471.87	11093.85
472.08	11448.15
472.29	11501.39
472.50	11294.55
472.70	11560.78
472.91	11482.96
473.12	11663.18
473.33	11771.72
473.53	11976.52
473.74	12042.06
473.95	11919.18
474.16	12308.29
474.36	12232.52
474.57	12449.60
474.78	12633.92
474.99	12478.27
475.19	12377.92
475.40	12674.88
475.61	12801.85
475.81	12939.07
476.02	13012.79
476.23	12808.00
476.44	13223.73
476.64	13434.68
476.85	13356.85
477.06	13274.93
477.27	13440.82
477.47	13668.14
477.68	13754.16
477.89	13700.91
478.09	13739.82
478.30	13737.77
478.51	13918.00
478.71	13950.76
478.92	14196.52
479.13	14286.63
479.34	14473.00
479.54	14255.91
479.75	14458.66
479.96	14690.08
480.16	14565.15
480.37	14481.19
480.58	14944.03
480.78	15216.41
480.99	15132.44
481.20	15253.27
481.41	15316.76
481.61	15539.99
481.82	15521.56
482.03	15580.95
482.23	15206.17
482.44	15769.36
482.65	15978.25
482.85	16252.68
483.06	15802.13
483.27	16137.99
483.47	15972.11
483.68	16092.94
483.89	16156.43
484.09	16244.49
484.30	16623.36
484.51	16531.20
484.71	16916.22
484.92	16635.65
485.13	16824.06
485.33	17139.45
485.54	17057.53
485.75	17229.56
485.95	17184.51
486.16	17569.52
486.37	17563.38
486.57	17495.80
486.78	17626.87
486.98	17542.90
487.19	17671.92
487.40	17880.82
487.60	17891.06
487.81	18081.52
488.02	18056.94
488.22	17952.49
488.43	18667.24
488.64	18335.46
488.84	18362.09
489.05	18671.33
489.25	18624.23
489.46	18747.11
489.67	18786.02
489.87	19136.22
490.08	18990.81
490.29	19193.56
490.49	19424.98
490.70	19259.10
490.90	19404.50
491.11	19205.85
491.32	19451.61
491.52	19740.37
491.73	19646.16
491.94	19869.39
492.14	19670.74
492.35	20057.81
492.55	20182.73
492.76	20070.09
492.97	20436.68
493.17	20426.44
493.38	20399.82
493.58	20639.43
493.79	20543.17
494.00	20369.10
494.20	20633.29
494.41	20653.76
494.61	20811.46
494.82	21329.59
495.02	20979.39
495.23	21049.02
495.44	21024.45
495.64	21280.44
495.85	21321.40
496.05	21819.06
496.26	21364.41
496.47	21610.17
496.67	21528.25
496.88	22042.29
497.08	21665.46
497.29	21864.11
497.49	22064.82
497.70	21884.59
497.91	22171.31
498.11	22136.49
498.32	22306.48
498.52	22421.16
498.73	22394.54
498.93	22488.74
499.14	22515.37
499.34	22662.82
499.55	22728.36
499.76	22879.91
499.96	22744.74
500.17	22843.04
500.37	23008.93
500.58	23025.31
500.78	22851.24
500.99	23410.33
501.19	23555.74
501.40	23281.31
501.60	23160.48
501.81	23664.28
502.02	23660.18
502.22	23226.01
502.43	23852.69
502.63	23942.80
502.84	23963.28
503.04	23858.84
503.25	23664.28
503.45	23899.80
503.66	24159.89
503.86	24043.15
504.07	24204.94
504.27	24037.01
504.48	24532.62
504.68	24340.11
504.89	24761.99
505.09	24698.50
505.30	24487.56
505.50	24700.55
505.71	24954.50
505.91	24977.03
506.12	25026.18
506.32	24884.87
506.53	24938.12
506.73	24938.12
506.94	25357.95
507.14	25110.14
507.35	25003.65
507.55	25511.55
507.76	25226.88
507.96	25110.14
508.17	25669.24
508.37	25568.89
508.58	25620.09
508.78	26039.92
508.99	25792.12
509.19	25851.51
509.40	26019.44
509.60	25912.95
509.81	26273.39
510.01	26029.68
510.22	26115.70
510.42	26035.83
510.63	26332.78
510.83	26136.18
511.04	26222.19
511.24	26576.49
511.44	26459.76
511.65	26646.12
511.85	26222.19
512.06	26664.55
512.26	26769.00
512.47	26642.03
512.67	26744.42
512.88	26775.14
513.08	26639.98
513.29	27188.83
513.49	27012.71
513.69	26932.84
513.90	26871.40
514.10	26957.41
514.31	27125.35
514.51	27280.99
514.72	27156.07
514.92	27457.12
515.13	27471.45
515.33	27373.15
515.53	27629.15
515.74	27367.01
515.94	27795.03
516.15	27778.65
516.35	27702.87
516.56	27960.92
516.76	27493.98
516.96	27784.79
517.17	28057.17
517.37	28210.77
517.58	28032.60
517.78	28225.11
517.99	28239.44
518.19	28302.93
518.39	28362.32
518.60	28718.67
518.80	28421.71
519.01	28356.18
519.21	28395.09
519.41	28687.95
519.62	28657.23
519.82	28816.97
520.03	28970.57
520.23	28751.43
520.43	29048.39
520.64	29210.18
520.84	29240.90
521.05	29314.62
521.25	29296.19
521.45	29562.43
521.66	29713.98
521.86	29324.86
522.07	29726.27
522.27	29517.37
522.47	29816.38
522.68	29976.12
522.88	29859.38
523.08	29920.82
523.29	30254.64
523.49	30211.64
523.70	29978.17
523.90	30225.97
524.10	30045.75
524.31	30477.87
524.51	30651.95
524.71	30596.65
524.92	30684.72
525.12	30856.75
525.33	30635.56
525.53	30844.46
525.73	30883.37
525.94	31022.63
526.14	30946.86
526.34	31020.58
526.55	31288.87
526.75	31141.41
526.95	31374.88
527.16	31135.27
527.36	31424.03
527.56	31524.38
527.77	31823.39
527.97	31663.64
528.17	31710.75
528.38	31843.87
528.58	32120.34
528.78	32278.04
528.99	32028.18
529.19	32263.70
529.39	32013.85
529.60	32622.09
529.80	32460.30
530.00	32431.63
530.21	32720.40
530.41	32880.14
530.61	32876.04
530.82	32830.99
531.02	32996.87
531.22	32982.54
531.43	32833.04
531.63	33189.38
531.83	33414.66
532.04	33539.58
532.24	33259.01
532.44	33773.05
532.64	33734.14
532.85	34018.81
533.05	33697.28
533.25	34192.89
533.46	33809.92
533.66	33883.64
533.86	34446.83
534.07	34145.78
534.27	34299.38
534.47	34512.37
534.67	34661.87
534.88	34330.10
535.08	34860.52
535.28	34686.45
535.49	34711.02
535.69	35233.25
535.89	35161.58
536.09	35145.19
536.30	35337.70
536.50	35257.83
536.70	35347.94
536.91	35540.45
537.11	35349.99
537.31	35626.46
537.51	35737.05
537.72	35988.95
537.92	36265.43
538.12	36111.83
538.32	36240.86
538.53	36445.65
538.73	35968.48
538.93	36249.05
539.13	36169.18
539.34	36396.50
539.54	36546.00
539.74	36881.87
539.94	36840.91
540.15	36906.44
540.35	36943.31
540.55	36619.73
540.75	37182.92
540.96	36969.93
541.16	37066.19
541.36	37129.67
541.56	37494.21
541.77	37825.98
541.97	37389.77
542.17	37649.86
542.37	37846.46
542.58	37602.75
542.78	37758.40
542.98	37699.01
543.18	37731.78
543.38	38170.04
543.59	38176.19
543.79	37713.34
543.99	38043.07
544.19	38231.48
544.40	38626.74
544.60	38456.76
544.80	38315.45
545.00	38344.12
545.20	38751.66
545.41	38540.72
545.61	38663.60
545.81	38811.06
546.01	38929.84
546.21	38690.23
546.42	39232.94
546.62	39331.24
546.82	39228.84
547.02	39456.17
547.22	39177.64
547.43	39065.00
547.63	38993.32
547.83	39443.88
548.03	39058.86
548.23	39593.38
548.44	39411.11
548.64	39753.12
548.84	39826.85
549.04	39591.33
549.24	39902.62
549.45	40064.41
549.65	39792.03
549.85	39929.25
550.05	40142.24
550.25	39632.29
550.45	40400.28
550.66	40326.55
550.86	40183.19
551.06	40539.54
551.26	40697.24
551.46	40908.18
551.66	40498.58
551.87	40623.51
552.07	40687.00
552.27	40777.11
552.47	40424.86
552.67	40969.61
552.87	40738.19
553.07	40994.19
553.28	40924.56
553.48	41076.11
553.68	40879.50
553.88	41241.99
554.08	40928.66
554.28	40910.22
554.48	40965.52
554.69	41418.12
554.89	41383.30
555.09	41635.20
555.29	41344.39
555.49	41614.72
555.69	41422.22
555.89	41487.75
556.10	41805.19
556.30	41659.78
556.50	41809.28
556.70	41747.84
556.90	42198.40
557.10	42122.62
557.30	41790.85
557.50	41827.71
557.70	42366.33
557.91	42524.02
558.11	41987.46
558.31	42204.54
558.51	41698.69
558.71	42476.92
558.91	42642.81
559.11	42206.59
559.31	42149.24
559.51	42218.88
559.72	42169.72
559.92	42351.99
560.12	42380.67
560.32	42474.87
560.52	42679.67
560.72	42769.78
560.92	42532.22
561.12	42861.94
561.32	42939.76
561.52	42669.43
561.72	43017.58
561.93	42362.23
562.13	43169.13
562.33	42593.65
562.53	43328.87
562.73	43062.64
562.93	42581.37
563.13	43103.60
563.33	43079.02
563.53	43279.72
563.73	43060.59
563.93	43322.73
564.13	43631.97
564.33	43042.16
564.53	43289.96
564.74	43609.45
564.94	43357.55
565.14	43488.62
565.34	43115.89
565.54	43515.24
565.74	43527.53
565.94	43836.77
566.14	43750.76
566.34	43877.73
566.54	44010.85
566.74	43595.11
566.94	44328.28
567.14	44035.42
567.34	43744.61
567.54	44260.70
567.74	43660.65
567.94	43824.48
568.14	43924.83
568.34	43906.40
568.54	43861.35
568.74	44504.41
568.94	43914.59
569.14	44580.18
569.34	44283.23
569.54	44141.92
569.75	43953.51
569.95	44356.96
570.15	44662.10
570.35	44150.11
570.55	44545.37
570.75	44381.53
570.95	44197.21
571.15	44733.78
571.35	44737.88
571.55	44715.35
571.75	44178.78
571.95	44590.42
572.15	44645.72
572.35	45069.65
572.55	44770.64
572.75	44750.17
572.95	44846.42
573.15	45247.82
573.35	44918.10
573.55	44965.20
573.75	44840.28
573.95	44909.91
574.15	44717.40
574.35	45374.80
574.55	45102.42
574.75	45151.57
574.95	45098.32
575.15	45155.66
575.34	45221.20
575.54	45344.08
575.74	45634.89
575.94	45487.43
576.14	45253.97
576.34	45665.61
576.54	45458.76
576.74	45794.63
576.94	45421.90
577.14	45909.32
577.34	45663.56
577.54	45632.84
577.74	45677.90
577.94	45770.05
578.14	45612.36
578.34	46144.83
578.54	45634.89
578.74	45899.08
578.94	46290.24
579.14	46126.40
579.34	46011.71
579.54	45872.45
579.74	46425.40
579.94	46251.33
580.13	46497.08
580.33	46824.76
580.53	46785.85
580.73	46302.53
580.93	46437.69
581.13	46746.93
581.33	46531.90
581.53	46603.58
581.73	46779.70
581.93	47109.43
582.13	46925.11
582.33	47336.75
582.53	46925.11
582.73	46906.68
582.92	47224.11
583.12	47441.20
583.32	47459.63
583.52	46949.68
583.72	47404.33
583.92	47240.50
584.12	47340.85
584.32	47842.60
584.52	47516.97
584.72	47664.42
584.92	47600.94
585.11	48174.37
585.31	47492.40
585.51	47686.95
585.71	47693.10
585.91	48162.08
586.11	48055.59
586.31	47754.54
586.51	47979.81
586.71	48196.90
586.91	48401.69
587.10	48456.99
587.30	47930.66
587.50	48446.75
587.70	48278.82
587.90	48729.37
588.10	48356.64
588.30	48028.96
588.50	48829.72
