SpectraSuite Data File
++++++++++++++++++++++++++++++++++++
Date: Fri Jun 02 14:47:59 CEST 2017
User: INFO_000
Dark Spectrum Present: No
Reference Spectrum Present: No
Number of Sampled Component Spectra: 1
Spectrometers: USB4H00879
Integration Time (usec): 80000 (USB4H00879)
Spectra Averaged: 1 (USB4H00879)
Boxcar Smoothing: 0 (USB4H00879)
Correct for Electrical Dark: No (USB4H00879)
Strobe/Lamp Enabled: No (USB4H00879)
Correct for Detector Non-linearity: No (USB4H00879)
Correct for Stray Light: No (USB4H00879)
Number of Pixels in Processed Spectrum: 3648
>>>>>Begin Processed Spectral Data<<<<<
345.13	1228.78
345.34	1228.78
345.56	1228.78
345.78	1304.56
345.99	1251.31
346.21	1693.67
346.42	1660.90
346.64	1603.56
346.86	1865.70
347.07	1554.41
347.29	1673.19
347.50	1535.98
347.72	1636.33
347.94	1816.55
348.15	1593.32
348.37	1650.66
348.59	1691.62
348.80	1605.61
349.02	1820.64
349.23	1847.27
349.45	1785.83
349.67	1925.09
349.88	1820.64
350.10	1933.28
350.31	1796.07
350.53	1802.21
350.75	1970.15
350.96	1822.69
351.18	1779.68
351.39	1875.94
351.61	1742.82
351.82	1906.66
352.04	1937.38
352.26	1753.06
352.47	1837.03
352.69	1925.09
352.90	1777.64
353.12	1830.88
353.34	1880.04
353.55	1929.19
353.77	1890.28
353.98	1894.37
354.20	1822.69
354.41	1871.84
354.63	1941.47
354.85	1998.82
355.06	1900.52
355.28	1785.83
355.49	1966.05
355.71	1816.55
355.92	1906.66
356.14	1945.57
356.35	1849.32
356.57	1867.75
356.79	1951.71
357.00	1853.41
357.22	1894.37
357.43	1779.68
357.65	1927.14
357.86	1822.69
358.08	1894.37
358.29	1968.10
358.51	1976.29
358.72	1957.86
358.94	1859.56
359.16	1943.52
359.37	1992.67
359.59	1961.95
359.80	2027.49
360.02	1931.23
360.23	1976.29
360.45	2035.68
360.66	1877.99
360.88	1892.32
361.09	1902.56
361.31	2009.06
361.52	1943.52
361.74	2043.87
361.95	2127.84
362.17	1918.95
362.38	2097.12
362.60	2115.55
362.81	1945.57
363.03	1912.80
363.24	2019.30
363.46	1970.15
363.67	2019.30
363.89	1994.72
364.10	1945.57
364.32	2000.87
364.53	2070.50
364.75	1880.04
364.96	2140.13
365.18	2017.25
365.39	2011.11
365.61	1855.46
365.82	2082.78
366.04	2033.63
366.25	1955.81
366.47	2039.78
366.68	1996.77
366.90	2002.91
367.11	2054.11
367.33	2101.22
367.54	2136.03
367.76	2011.11
367.97	2125.79
368.19	1976.29
368.40	2007.01
368.62	2101.22
368.83	2056.16
369.05	2078.69
369.26	1959.91
369.48	2019.30
369.69	1978.34
369.91	2035.68
370.12	1978.34
370.33	2039.78
370.55	2011.11
370.76	1970.15
370.98	2025.44
371.19	2054.11
371.41	1961.95
371.62	2025.44
371.84	1957.86
372.05	2185.18
372.27	2007.01
372.48	2082.78
372.69	2064.35
372.91	2123.74
373.12	2133.98
373.34	2056.16
373.55	2117.60
373.77	2142.18
373.98	2107.36
374.20	2140.13
374.41	2248.67
374.62	2105.31
374.84	2076.64
375.05	2172.89
375.27	2197.47
375.48	2140.13
375.70	2111.46
375.91	2222.05
376.12	2258.91
376.34	2138.08
376.55	2088.93
376.77	2150.37
376.98	2070.50
377.19	2170.85
377.41	2183.13
377.62	2217.95
377.84	2236.38
378.05	2318.30
378.27	2242.53
378.48	2271.20
378.69	2375.64
378.91	2316.25
379.12	2224.09
379.34	2205.66
379.55	2342.88
379.76	2359.26
379.98	2263.01
380.19	2238.43
380.41	2189.28
380.62	2275.29
380.83	2226.14
381.05	2211.81
381.26	2338.78
381.47	2279.39
381.69	2260.96
381.90	2369.50
382.12	2260.96
382.33	2322.40
382.54	2162.66
382.76	2342.88
382.97	2314.20
383.19	2291.68
383.40	2318.30
383.61	2293.72
383.83	2328.54
384.04	2303.96
384.25	2338.78
384.47	2412.51
384.68	2389.98
384.89	2236.38
385.11	2379.74
385.32	2371.55
385.54	2279.39
385.75	2346.97
385.96	2398.17
386.18	2398.17
386.39	2392.03
386.60	2441.18
386.82	2385.88
387.03	2486.23
387.24	2502.62
387.46	2463.71
387.67	2535.39
387.88	2547.67
388.10	2443.23
388.31	2428.89
388.52	2615.26
388.74	2543.58
388.95	2531.29
389.16	2461.66
389.38	2404.32
389.59	2580.44
389.80	2580.44
390.02	2541.53
390.23	2621.40
390.44	2602.97
390.66	2578.39
390.87	2551.77
391.08	2531.29
391.30	2623.45
391.51	2672.60
391.72	2691.03
391.94	2668.50
392.15	2545.63
392.36	2580.44
392.58	2672.60
392.79	2662.36
393.00	2631.64
393.22	2736.09
393.43	2740.18
393.64	2738.13
393.85	2834.39
394.07	2680.79
394.28	2674.65
394.49	2650.07
394.71	2852.82
394.92	2832.34
395.13	2686.94
395.35	2686.94
395.56	2805.72
395.77	2775.00
395.98	2836.44
396.20	2953.17
396.41	2861.01
396.62	2867.16
396.84	2822.10
397.05	2807.77
397.26	2912.21
397.47	2922.45
397.69	2916.31
397.90	3020.75
398.11	2932.69
398.32	2852.82
398.54	2899.92
398.75	2881.49
398.96	2981.84
399.18	2975.70
399.39	2944.98
399.60	3102.67
399.81	3061.71
400.03	2897.88
400.24	3346.38
400.45	2973.65
400.66	3047.38
400.88	3086.29
401.09	3129.30
401.30	3041.23
401.51	3190.74
401.73	3055.57
401.94	3080.14
402.15	3065.81
402.36	3096.53
402.58	3213.26
402.79	3147.73
403.00	3186.64
403.21	3117.01
403.43	3207.12
403.64	3323.85
403.85	3125.20
404.06	3194.83
404.27	3108.82
404.49	3225.55
404.70	3200.98
404.91	3258.32
405.12	3397.58
405.34	3186.64
405.55	3344.33
405.76	3215.31
405.97	3166.16
406.19	3260.37
406.40	3229.65
406.61	3379.15
406.82	3305.42
407.03	3233.74
407.25	3293.13
407.46	3393.48
407.67	3356.62
407.88	3407.82
408.09	3342.28
408.31	3350.48
408.52	3407.82
408.73	3377.10
408.94	3299.28
409.15	3416.01
409.37	3409.87
409.58	3409.87
409.79	3436.49
410.00	3514.31
410.21	3348.43
410.43	3389.39
410.64	3375.05
410.85	3516.36
411.06	3512.27
411.27	3540.94
411.48	3534.79
411.70	3559.37
411.91	3508.17
412.12	3547.08
412.33	3477.45
412.54	3473.36
412.76	3649.48
412.97	3547.08
413.18	3532.75
413.39	3495.88
413.60	3702.73
413.81	3655.62
414.03	3536.84
414.24	3608.52
414.45	3833.80
414.66	3514.31
414.87	3704.78
415.08	3651.53
415.30	3649.48
415.51	3678.15
415.72	3612.62
415.93	3686.34
416.14	3776.45
416.35	3819.46
416.56	3753.93
416.78	3778.50
416.99	3903.43
417.20	3696.58
417.41	3891.14
417.62	3930.05
417.83	3835.85
418.04	3868.61
418.26	3921.86
418.47	3893.19
418.68	4046.79
418.89	3944.39
419.10	4005.83
419.31	4011.97
419.52	3960.77
419.73	3997.64
419.95	4059.07
420.16	3917.76
420.37	4009.92
420.58	3794.89
420.79	3917.76
421.00	4054.98
421.21	4089.79
421.42	4018.11
421.63	4229.06
421.85	4005.83
422.06	4104.13
422.27	4173.76
422.48	4046.79
422.69	4337.60
422.90	4251.58
423.11	4181.95
423.32	4403.13
423.53	4427.71
423.75	4470.72
423.96	4505.53
424.17	4280.25
424.38	4523.96
424.59	4458.43
424.80	4603.83
425.01	4405.18
425.22	4427.71
425.43	4419.52
425.64	4624.31
425.85	4648.89
426.06	4523.96
426.28	4618.17
426.49	4399.04
426.70	4642.75
426.91	4468.67
427.12	4630.46
427.33	4577.21
427.54	4607.93
427.75	4728.76
427.96	4908.98
428.17	4575.16
428.38	4818.87
428.59	4870.07
428.80	4876.21
429.01	4859.83
429.23	4732.86
429.44	5062.58
429.65	4992.95
429.86	4931.51
430.07	4802.49
430.28	4847.54
430.49	5052.34
430.70	5011.38
430.91	5072.82
431.12	5054.39
431.33	5210.03
431.54	5169.07
431.75	5220.27
431.96	5076.91
432.17	5068.72
432.38	5154.74
432.59	5365.68
432.80	5142.45
433.01	5263.28
433.22	5214.13
433.43	5093.30
433.64	5443.50
433.85	5207.98
434.06	5455.79
434.27	5373.87
434.49	5384.11
434.70	5420.97
434.91	5398.45
435.12	5556.14
435.33	5416.88
435.54	5490.60
435.75	5332.91
435.96	5408.69
436.17	5382.06
436.38	5533.61
436.59	5685.16
436.80	5529.52
437.01	5875.62
437.22	5728.17
437.43	5638.06
437.64	5357.49
437.85	5740.46
438.06	5685.16
438.27	5427.12
438.48	5552.04
438.69	5726.12
438.90	5795.75
439.11	5801.90
439.32	5908.39
439.53	5801.90
439.74	5851.05
439.95	5957.54
440.16	5844.90
440.37	5834.66
440.57	5769.13
440.78	5902.25
440.99	5975.97
441.20	5873.57
441.41	5793.70
441.62	5930.92
441.83	5967.78
442.04	6053.80
442.25	6059.94
442.46	6049.70
442.67	6170.53
442.88	6557.60
443.09	5941.16
443.30	6066.08
443.51	6061.99
443.72	6240.16
443.93	6051.75
444.14	6291.36
444.35	6074.28
444.56	6303.65
444.77	6217.63
444.98	6201.25
445.19	6238.11
445.40	6211.49
445.61	6416.29
445.81	6293.41
446.02	6490.01
446.23	6354.85
446.44	6320.03
446.65	6465.44
446.86	6557.60
447.07	6356.90
447.28	6623.13
447.49	6619.04
447.70	6490.01
447.91	6406.05
448.12	6438.81
448.33	6721.43
448.54	6631.32
448.74	6649.75
448.95	6651.80
449.16	6530.97
449.37	6948.76
449.58	6569.88
449.79	6891.41
450.00	6711.19
450.21	6733.72
450.42	6973.33
450.63	7067.54
450.84	6834.07
451.05	6950.81
451.25	6895.51
451.46	6889.37
451.67	7192.47
451.88	7227.28
452.09	7128.98
452.30	6944.66
452.51	7071.64
452.72	7237.52
452.93	7516.05
453.13	7106.45
453.34	7118.74
453.55	7194.51
453.76	7380.88
453.97	7614.35
454.18	7325.58
454.39	7421.84
454.60	7520.14
454.81	7387.02
455.01	7411.60
455.22	7366.54
455.43	7507.85
455.64	7841.67
455.85	7901.06
456.06	7931.78
456.27	7833.48
456.48	7782.28
456.68	7890.82
456.89	7729.03
457.10	8028.04
457.31	8105.86
457.52	7894.92
457.73	8124.29
457.94	8249.22
458.14	7980.93
458.35	8275.84
458.56	8054.66
458.77	8179.59
458.98	8206.21
459.19	8243.07
459.39	8529.79
459.60	8509.31
459.81	8275.84
460.02	8497.02
460.23	8349.57
460.44	8744.83
460.65	8763.26
460.85	8753.02
461.06	8769.40
461.27	8697.72
461.48	8890.23
461.69	9054.07
461.89	8730.49
462.10	9064.31
462.31	8736.63
462.52	8859.51
462.73	8970.10
462.94	9183.09
463.14	9246.58
463.35	8978.30
463.56	9496.43
463.77	9293.68
463.98	9164.66
464.18	9320.31
464.39	9410.42
464.60	9635.69
464.81	9580.40
465.02	9461.62
465.23	9848.68
465.43	9688.94
465.64	9836.39
465.85	9764.72
466.06	9822.06
466.27	10110.82
466.47	10096.49
466.68	9957.22
466.89	9822.06
467.10	10157.92
467.30	10065.77
467.51	10078.05
467.72	10583.90
467.93	10110.82
468.14	10450.78
468.34	10395.49
468.55	10401.63
468.76	10579.81
468.97	10487.65
469.17	10942.30
469.38	10800.99
469.59	10911.58
469.80	10825.56
470.01	10895.19
470.21	10774.36
470.42	11034.46
470.63	11165.53
470.84	10948.44
471.04	11276.12
471.25	11358.03
471.46	11493.20
471.67	11454.29
471.87	11511.63
472.08	11562.83
472.29	11976.52
472.50	11306.84
472.70	11700.05
472.91	11540.30
473.12	11931.47
473.33	12160.84
473.53	12060.49
473.74	12021.58
473.95	12142.41
474.16	12470.08
474.36	12451.65
474.57	12564.29
474.78	12670.78
474.99	12543.81
475.19	12459.84
475.40	12709.69
475.61	12797.76
475.81	12824.38
476.02	13047.61
476.23	12904.25
476.44	12949.31
476.64	13410.10
476.85	13483.83
477.06	13285.17
477.27	13571.89
477.47	13623.09
477.68	13543.22
477.89	13700.91
478.09	13690.67
478.30	13821.74
478.51	13788.97
478.71	13864.75
478.92	14165.80
479.13	14167.85
479.34	14167.85
479.54	14327.59
479.75	14393.12
479.96	14606.11
480.16	14614.30
480.37	14718.75
480.58	14847.77
480.78	14802.72
480.99	15148.82
481.20	15030.04
481.41	15224.60
481.61	15132.44
481.82	15292.18
482.03	15140.63
482.23	15146.78
482.44	15838.99
482.65	15736.59
482.85	15765.26
483.06	15654.67
483.27	15949.58
483.47	16031.50
483.68	15904.53
483.89	15896.33
484.09	16099.08
484.30	16322.31
484.51	16520.96
484.71	16498.44
484.92	16576.26
485.13	16723.71
485.33	16682.75
485.54	16885.50
485.75	17092.35
485.95	17137.40
486.16	17069.82
486.37	17374.97
486.57	17219.32
486.78	17518.32
486.98	17188.60
487.19	17641.20
487.40	17753.84
487.60	17532.66
487.81	17962.73
488.02	17929.97
488.22	17776.37
488.43	18210.54
488.64	18122.48
488.84	18171.63
489.05	18456.29
489.25	18384.62
489.46	18702.05
489.67	18550.50
489.87	18630.37
490.08	18726.63
490.29	18822.88
490.49	18990.81
490.70	19054.30
490.90	19099.36
491.11	18984.67
491.32	19267.29
491.52	19085.02
491.73	19554.01
491.94	19580.63
492.14	19467.99
492.35	20004.56
492.55	19678.93
492.76	19637.97
492.97	20186.83
493.17	20149.96
493.38	20180.68
493.58	19988.18
493.79	20348.62
494.00	20594.37
494.20	20518.60
494.41	20453.06
494.61	20807.36
494.82	20760.26
495.02	20793.03
495.23	20821.70
495.44	20905.66
495.64	21067.45
495.85	21362.36
496.05	21173.95
496.26	21219.00
496.47	21825.20
496.67	21522.10
496.88	21702.32
497.08	21405.37
497.29	21675.70
497.49	22066.86
497.70	21974.70
497.91	22099.63
498.11	22097.58
498.32	22374.06
498.52	22329.00
498.73	22466.22
498.93	22591.14
499.14	22683.30
499.34	22566.57
499.55	23021.22
499.76	22873.76
499.96	23154.33
500.17	22924.96
500.37	23021.22
500.58	23180.96
500.78	23072.42
500.99	22996.64
501.19	23492.25
501.40	23678.61
501.60	23500.44
501.81	23651.99
502.02	23684.76
502.22	23727.77
502.43	23672.47
502.63	23545.50
502.84	24190.61
503.04	23989.91
503.25	24145.55
503.45	24147.60
503.66	24362.64
503.86	24211.09
504.07	24788.61
504.27	24424.08
504.48	24641.16
504.68	24647.30
504.89	24915.59
505.09	25073.28
505.30	25007.75
505.50	24919.68
505.71	25161.34
505.91	25026.18
506.12	25294.46
506.32	25060.99
506.53	25357.95
506.73	25491.07
506.94	25341.57
507.14	25321.09
507.35	25732.73
507.55	25400.96
507.76	25636.47
507.96	25396.86
508.17	25714.30
508.37	25452.16
508.58	26037.87
508.78	26007.16
508.99	26445.42
509.19	26054.26
509.40	26310.25
509.60	26377.84
509.81	26605.16
510.01	26224.24
510.22	26338.93
510.42	26662.51
510.63	26476.14
510.83	26625.64
511.04	26717.80
511.24	27084.39
511.44	26771.05
511.65	26873.45
511.85	26738.28
512.06	27037.28
512.26	26801.77
512.47	26912.36
512.67	27129.44
512.88	27078.24
513.08	26965.60
513.29	27205.22
513.49	26990.18
513.69	27121.25
513.90	27324.00
514.10	27455.07
514.31	27504.22
514.51	27645.53
514.72	27778.65
514.92	27457.12
515.13	27420.25
515.33	27840.09
515.53	27885.14
515.74	27596.38
515.94	27842.14
516.15	27821.66
516.35	27975.25
516.56	28235.35
516.76	27774.55
516.96	28030.55
517.17	28266.06
517.37	28155.47
517.58	28313.17
517.78	28221.01
517.99	28397.13
518.19	28524.11
518.39	28438.09
518.60	28587.60
518.80	28536.40
519.01	29077.06
519.21	28667.47
519.41	28989.00
519.62	28689.99
519.82	29232.71
520.03	28724.81
520.23	28773.96
520.43	29109.83
520.64	29222.47
520.84	29374.02
521.05	29253.19
521.25	29652.54
521.45	29341.25
521.66	29648.44
521.86	29503.04
522.07	29341.25
522.27	29539.90
522.47	29539.90
522.68	29797.95
522.88	29808.19
523.08	30111.28
523.29	29685.31
523.49	29912.63
523.70	30113.33
523.90	30449.20
524.10	30049.85
524.31	30373.42
524.51	30250.55
524.71	30748.20
524.92	30537.26
525.12	30615.08
525.33	30504.49
525.53	30539.31
525.73	30879.27
525.94	30680.62
526.14	30930.47
526.34	30740.01
526.55	31122.98
526.75	31393.31
526.95	31399.46
527.16	31307.30
527.36	30893.61
527.56	31876.63
527.77	31591.97
527.97	31372.83
528.17	31333.92
528.38	31608.35
528.58	31684.12
528.78	32036.38
528.99	31823.39
529.19	31960.60
529.39	31997.46
529.60	32144.92
529.80	32171.54
530.00	32304.66
530.21	32572.94
530.41	32716.30
530.61	32292.37
530.82	32558.61
531.02	32525.84
531.22	32646.67
531.43	32712.20
531.63	33039.88
531.83	32923.15
532.04	33676.80
532.24	33152.52
532.44	33508.86
532.64	33760.76
532.85	33682.94
533.05	33582.59
533.25	33205.77
533.46	33648.13
533.66	33754.62
533.86	33828.35
534.07	34010.62
534.27	34221.56
534.47	34149.88
534.67	34342.39
534.88	34115.06
535.08	34215.41
535.28	34366.96
535.49	34592.24
535.69	34653.68
535.89	34856.43
536.09	34858.48
536.30	35194.34
536.50	34919.92
536.70	35118.57
536.91	34936.30
537.11	35196.39
537.31	35198.44
537.51	35360.23
537.72	35659.23
537.92	35857.88
538.12	35933.66
538.32	35468.77
538.53	36203.99
538.73	35495.39
538.93	35778.01
539.13	36199.90
539.34	36306.39
539.54	35866.08
539.74	36814.29
539.94	36187.61
540.15	36365.78
540.35	36548.05
540.55	36431.32
540.75	36392.40
540.96	36896.20
541.16	36810.19
541.36	37029.32
541.56	36951.50
541.77	37250.50
541.97	37131.72
542.17	37201.35
542.37	37516.74
542.58	37101.00
542.78	37111.24
542.98	37385.67
543.18	37553.60
543.38	37793.22
543.59	37789.12
543.79	37402.05
543.99	37647.81
544.19	37903.81
544.40	37664.19
544.60	38143.42
544.80	37848.51
545.00	38170.04
545.20	38561.20
545.41	38186.43
545.61	38282.68
545.81	38514.10
546.01	38337.98
546.21	38579.64
546.42	38591.92
546.62	38862.26
546.82	38802.86
547.02	38923.69
547.22	39126.44
547.43	39134.63
547.63	39206.31
547.83	39331.24
548.03	39022.00
548.23	39654.82
548.44	39421.35
548.64	39515.56
548.84	39583.14
549.04	39617.96
549.24	39972.25
549.45	39949.73
549.65	39650.72
549.85	39591.33
550.05	40205.72
550.25	39847.33
550.45	40646.04
550.66	40240.54
550.86	40136.09
551.06	40279.45
551.26	40455.57
551.46	39781.79
551.66	40359.32
551.87	40402.33
552.07	40680.85
552.27	40977.81
552.47	40957.33
552.67	40942.99
552.87	40687.00
553.07	40785.30
553.28	41225.61
553.48	41264.52
553.68	40928.66
553.88	41473.42
554.08	41489.80
554.28	41454.98
554.48	41125.26
554.69	41426.31
554.89	41424.26
555.09	41465.22
555.29	41338.25
555.49	41727.36
555.69	41586.05
555.89	41684.36
556.10	41817.47
556.30	41680.26
556.50	42120.57
556.70	41710.98
556.90	41764.23
557.10	41983.36
557.30	41944.45
557.50	42530.17
557.70	42472.82
557.91	42595.70
558.11	42243.45
558.31	42859.89
558.51	42036.61
558.71	42689.91
558.91	42493.30
559.11	41885.06
559.31	42560.89
559.51	42390.91
559.72	42542.45
559.92	42603.89
560.12	42546.55
560.32	42950.00
560.52	42868.08
560.72	42759.54
560.92	43175.28
561.12	42808.69
561.32	43451.75
561.52	42720.63
561.72	43591.01
561.93	42829.17
562.13	43427.18
562.33	42952.05
562.53	44025.18
562.73	43341.16
562.93	43672.93
563.13	43461.99
563.33	43455.85
563.53	43568.49
563.73	43433.32
563.93	43631.97
564.13	44178.78
564.33	43734.37
564.53	43724.13
564.74	43990.37
564.94	43474.28
565.14	43988.32
565.34	43840.87
565.54	43988.32
565.74	44115.29
565.94	44301.66
566.14	44146.01
566.34	44387.67
566.54	44442.97
566.74	43826.53
566.94	44684.63
567.14	44569.94
567.34	43830.63
567.54	44369.24
567.74	44285.28
567.94	44133.73
568.14	44266.84
568.34	44741.97
568.54	44709.21
568.74	44948.82
568.94	44666.20
569.14	44887.38
569.34	44791.12
569.54	45069.65
569.75	44971.35
569.95	44705.11
570.15	45139.28
570.35	45151.57
570.55	45028.69
570.75	45374.80
570.95	45428.04
571.15	44975.44
571.35	45208.91
571.55	45002.07
571.75	45253.97
571.95	45221.20
572.15	45272.40
572.35	45307.21
572.55	45583.69
572.75	45227.34
572.95	45188.43
573.15	45518.15
573.35	45671.75
573.55	45188.43
573.75	45503.82
573.95	45733.19
574.15	45573.45
574.35	45823.30
574.55	45516.11
574.75	45532.49
574.95	45884.74
575.15	45589.83
575.34	45647.18
575.54	46378.30
575.74	45976.90
575.94	45866.31
576.14	45739.33
576.34	46288.19
576.54	46067.01
576.74	46056.77
576.94	46144.83
577.14	46320.96
577.34	46484.79
577.54	45851.97
577.74	46019.91
577.94	46187.84
578.14	46245.18
578.34	46456.12
578.54	45878.60
578.74	46191.94
578.94	46830.90
579.14	46320.96
579.34	46529.85
579.54	46378.30
579.74	46568.76
579.94	46957.88
580.13	46996.79
580.33	46601.53
580.53	46798.13
580.73	47174.96
580.93	46839.09
581.13	46822.71
581.33	47146.29
581.53	46812.47
581.73	47209.78
581.93	47097.14
582.13	47031.60
582.33	47832.36
582.53	47248.69
582.73	47330.61
582.92	47080.75
583.12	47500.59
583.32	47291.69
583.52	47203.63
583.72	47365.42
583.92	46863.67
584.12	47553.83
584.32	47627.56
584.52	47482.16
584.72	47416.62
584.92	47760.68
585.11	48307.49
585.31	47641.90
585.51	47846.69
585.71	47594.79
585.91	48373.02
586.11	47689.00
586.31	47971.62
586.51	48209.18
586.71	47971.62
586.91	47990.05
587.10	47766.82
587.30	48004.39
587.50	48143.65
587.70	48530.72
587.90	48428.32
588.10	48260.38
588.30	48010.53
588.50	48379.17
