SpectraSuite Data File
++++++++++++++++++++++++++++++++++++
Date: Fri Jun 02 14:48:01 CEST 2017
User: INFO_000
Dark Spectrum Present: No
Reference Spectrum Present: No
Number of Sampled Component Spectra: 1
Spectrometers: USB4H00879
Integration Time (usec): 80000 (USB4H00879)
Spectra Averaged: 1 (USB4H00879)
Boxcar Smoothing: 0 (USB4H00879)
Correct for Electrical Dark: No (USB4H00879)
Strobe/Lamp Enabled: No (USB4H00879)
Correct for Detector Non-linearity: No (USB4H00879)
Correct for Stray Light: No (USB4H00879)
Number of Pixels in Processed Spectrum: 3648
>>>>>Begin Processed Spectral Data<<<<<
345.13	1284.08
345.34	1284.08
345.56	1284.08
345.78	1329.13
345.99	1310.70
346.21	1681.38
346.42	1658.85
346.64	1683.43
346.86	1810.40
347.07	1685.48
347.29	1710.05
347.50	1568.74
347.72	1720.29
347.94	1761.25
348.15	1605.61
348.37	1624.04
348.59	1728.49
348.80	1644.52
349.02	1839.08
349.23	1853.41
349.45	1822.69
349.67	1892.32
349.88	1859.56
350.10	1984.48
350.31	1855.46
350.53	1775.59
350.75	1992.67
350.96	1746.92
351.18	1861.60
351.39	1802.21
351.61	1783.78
351.82	2004.96
352.04	1798.12
352.26	1865.70
352.47	1822.69
352.69	1918.95
352.90	1765.35
353.12	1892.32
353.34	1818.60
353.55	1927.14
353.77	1892.32
353.98	1841.12
354.20	1798.12
354.41	1945.57
354.63	1949.67
354.85	2064.35
355.06	1855.46
355.28	1794.02
355.49	1939.43
355.71	1959.91
355.92	1867.75
356.14	1937.38
356.35	1841.12
356.57	1859.56
356.79	1923.04
357.00	1945.57
357.22	2009.06
357.43	1839.08
357.65	1998.82
357.86	1859.56
358.08	1939.43
358.29	2017.25
358.51	2056.16
358.72	1959.91
358.94	1957.86
359.16	1953.76
359.37	1941.47
359.59	1970.15
359.80	1996.77
360.02	2035.68
360.23	1943.52
360.45	2039.78
360.66	2023.39
360.88	1894.37
361.09	1937.38
361.31	1951.71
361.52	1863.65
361.74	1976.29
361.95	2029.54
362.17	1910.75
362.38	2070.50
362.60	1984.48
362.81	2002.91
363.03	1968.10
363.24	2033.63
363.46	2111.46
363.67	2113.50
363.89	2023.39
364.10	1957.86
364.32	1978.34
364.53	1959.91
364.75	1951.71
364.96	2086.88
365.18	2019.30
365.39	2107.36
365.61	1964.00
365.82	2185.18
366.04	2033.63
366.25	1986.53
366.47	2095.07
366.68	2070.50
366.90	1841.12
367.11	2078.69
367.33	2080.74
367.54	2011.11
367.76	2015.20
367.97	2078.69
368.19	1982.43
368.40	2119.65
368.62	2011.11
368.83	2015.20
369.05	2060.26
369.26	1947.62
369.48	1976.29
369.69	1957.86
369.91	2084.83
370.12	2037.73
370.33	2082.78
370.55	1929.19
370.76	1998.82
370.98	2154.46
371.19	2093.02
371.41	2072.54
371.62	1988.58
371.84	1925.09
372.05	2220.00
372.27	2027.49
372.48	2158.56
372.69	2138.08
372.91	2199.52
373.12	2199.52
373.34	2156.51
373.55	2113.50
373.77	2285.53
373.98	2125.79
374.20	2144.22
374.41	2217.95
374.62	2045.92
374.84	2179.04
375.05	2158.56
375.27	2093.02
375.48	2258.91
375.70	2144.22
375.91	2242.53
376.12	2260.96
376.34	2224.09
376.55	2211.81
376.77	2271.20
376.98	2070.50
377.19	2246.62
377.41	2125.79
377.62	2193.37
377.84	2185.18
378.05	2377.69
378.27	2172.89
378.48	2359.26
378.69	2353.12
378.91	2295.77
379.12	2303.96
379.34	2193.37
379.55	2211.81
379.76	2281.44
379.98	2213.85
380.19	2273.25
380.41	2320.35
380.62	2224.09
380.83	2287.58
381.05	2220.00
381.26	2310.11
381.47	2269.15
381.69	2351.07
381.90	2408.41
382.12	2340.83
382.33	2316.25
382.54	2357.21
382.76	2381.79
382.97	2338.78
383.19	2295.77
383.40	2396.12
383.61	2238.43
383.83	2265.05
384.04	2314.20
384.25	2404.32
384.47	2457.56
384.68	2441.18
384.89	2373.60
385.11	2359.26
385.32	2371.55
385.54	2392.03
385.75	2381.79
385.96	2412.51
386.18	2373.60
386.39	2428.89
386.60	2432.99
386.82	2351.07
387.03	2410.46
387.24	2527.19
387.46	2508.76
387.67	2478.04
387.88	2559.96
388.10	2500.57
388.31	2533.34
388.52	2643.93
388.74	2564.06
388.95	2500.57
389.16	2580.44
389.38	2541.53
389.59	2629.59
389.80	2602.97
390.02	2586.58
390.23	2721.75
390.44	2508.76
390.66	2473.95
390.87	2512.86
391.08	2625.50
391.30	2697.17
391.51	2611.16
391.72	2660.31
391.94	2668.50
392.15	2668.50
392.36	2643.93
392.58	2613.21
392.79	2592.73
393.00	2758.61
393.22	2740.18
393.43	2811.86
393.64	2942.93
393.85	2756.57
394.07	2793.43
394.28	2781.14
394.49	2854.87
394.71	2779.09
394.92	2885.59
395.13	2822.10
395.35	2742.23
395.56	2756.57
395.77	2740.18
395.98	2916.31
396.20	2873.30
396.41	2951.12
396.62	3014.61
396.84	2830.29
397.05	2887.64
397.26	2985.94
397.47	2951.12
397.69	2807.77
397.90	3047.38
398.11	2955.22
398.32	2936.79
398.54	2901.97
398.75	2983.89
398.96	2887.64
399.18	3151.82
399.39	2987.99
399.60	3108.82
399.81	2971.60
400.03	2932.69
400.24	3358.67
400.45	3028.95
400.66	3160.02
400.88	3047.38
401.09	3219.41
401.30	3137.49
401.51	3227.60
401.73	3151.82
401.94	3123.15
402.15	3188.69
402.36	3172.30
402.58	3297.23
402.79	3129.30
403.00	3260.37
403.21	3184.59
403.43	3319.76
403.64	3379.15
403.85	3178.45
404.06	3215.31
404.27	3207.12
404.49	3342.28
404.70	3190.74
404.91	3393.48
405.12	3289.04
405.34	3330.00
405.55	3264.46
405.76	3233.74
405.97	3254.22
406.19	3530.70
406.40	3282.89
406.61	3454.92
406.82	3440.59
407.03	3489.74
407.25	3381.20
407.46	3469.26
407.67	3516.36
407.88	3493.83
408.09	3432.40
408.31	3313.61
408.52	3499.98
408.73	3461.07
408.94	3432.40
409.15	3491.79
409.37	3542.99
409.58	3491.79
409.79	3581.90
410.00	3565.51
410.21	3497.93
410.43	3528.65
410.64	3508.17
410.85	3669.96
411.06	3502.03
411.27	3729.35
411.48	3618.76
411.70	3631.05
411.91	3678.15
412.12	3807.17
412.33	3774.41
412.54	3667.91
412.76	3755.97
412.97	3698.63
413.18	3542.99
413.39	3721.16
413.60	3776.45
413.81	3788.74
414.03	3792.84
414.24	3858.37
414.45	3803.08
414.66	3667.91
414.87	3846.09
415.08	3626.95
415.30	3809.22
415.51	3876.80
415.72	3817.41
415.93	3719.11
416.14	3825.61
416.35	3887.04
416.56	3874.76
416.78	3846.09
416.99	3925.96
417.20	3889.09
417.41	4067.27
417.62	4034.50
417.83	3979.20
418.04	3878.85
418.26	4034.50
418.47	3987.40
418.68	4145.09
418.89	4079.55
419.10	4235.20
419.31	4138.94
419.52	4061.12
419.73	4054.98
419.95	4149.18
420.16	3995.59
420.37	4063.17
420.58	4157.38
420.79	3880.90
421.00	4140.99
421.21	4177.86
421.42	4278.21
421.63	4181.95
421.85	4259.78
422.06	4415.42
422.27	4257.73
422.48	4243.39
422.69	4257.73
422.90	4319.17
423.11	4419.52
423.32	4466.62
423.53	4517.82
423.75	4411.32
423.96	4483.00
424.17	4470.72
424.38	4511.68
424.59	4530.11
424.80	4734.90
425.01	4523.96
425.22	4542.39
425.43	4501.44
425.64	4769.72
425.85	4745.14
426.06	4657.08
426.28	4630.46
426.49	4542.39
426.70	4822.97
426.91	4624.31
427.12	4759.48
427.33	4767.67
427.54	4822.97
427.75	4843.45
427.96	4921.27
428.17	4861.88
428.38	4818.87
428.59	4933.56
428.80	4853.69
429.01	4900.79
429.23	4896.69
429.44	5216.18
429.65	5025.72
429.86	4911.03
430.07	4984.76
430.28	4968.37
430.49	5056.43
430.70	5234.61
430.91	5185.46
431.12	5197.74
431.33	5201.84
431.54	5216.18
431.75	5087.15
431.96	5138.35
432.17	5302.19
432.38	5253.04
432.59	5517.23
432.80	5326.77
433.01	5355.44
433.22	5457.84
433.43	5380.01
433.64	5427.12
433.85	5400.49
434.06	5439.40
434.27	5394.35
434.49	5394.35
434.70	5664.68
434.91	5605.29
435.12	5736.36
435.33	5593.00
435.54	5767.08
435.75	5500.84
435.96	5519.28
436.17	5564.33
436.38	5771.18
436.59	5654.44
436.80	5707.69
437.01	5906.34
437.22	5924.77
437.43	5771.18
437.64	5611.43
437.85	5920.68
438.06	5896.10
438.27	5889.96
438.48	5822.38
438.69	5973.92
438.90	6002.60
439.11	5967.78
439.32	6104.99
439.53	5955.49
439.74	6109.09
439.95	5980.07
440.16	5963.68
440.37	6113.19
440.57	5984.16
440.78	6047.65
440.99	6088.61
441.20	6094.76
441.41	6092.71
441.62	6274.98
441.83	6066.08
442.04	6238.11
442.25	6176.67
442.46	6291.36
442.67	6365.09
442.88	6758.30
443.09	6279.07
443.30	6309.79
443.51	6438.81
443.72	6430.62
443.93	6344.61
444.14	6719.39
444.35	6453.15
444.56	6604.70
444.77	6563.74
444.98	6621.08
445.19	6676.38
445.40	6674.33
445.61	6412.19
445.81	6686.62
446.02	6657.95
446.23	6606.75
446.44	6578.08
446.65	6866.84
446.86	6639.51
447.07	6858.65
447.28	7094.16
447.49	6920.09
447.70	6819.74
447.91	6881.18
448.12	6879.13
448.33	6786.97
448.54	6703.00
448.74	7014.29
448.95	6940.57
449.16	6950.81
449.37	7237.52
449.58	7028.63
449.79	7163.79
450.00	7022.48
450.21	7069.59
450.42	7303.06
450.63	7376.78
450.84	7217.04
451.05	7247.76
451.25	7251.86
451.46	7157.65
451.67	7442.32
451.88	7405.46
452.09	7208.85
452.30	7255.95
452.51	7288.72
452.72	7354.26
452.93	7720.84
453.13	7456.65
453.34	7524.24
453.55	7423.89
453.76	7497.61
453.97	8099.72
454.18	7606.16
454.39	7876.49
454.60	7610.25
454.81	7632.78
455.01	7735.18
455.22	7649.16
455.43	7913.35
455.64	7813.00
455.85	8204.16
456.06	8140.68
456.27	8056.71
456.48	7964.55
456.68	8007.56
456.89	8234.88
457.10	8138.63
457.31	8298.37
457.52	8085.38
457.73	8263.55
457.94	8519.55
458.14	8230.79
458.35	8619.90
458.56	8429.44
458.77	8449.92
458.98	8501.12
459.19	8447.87
459.39	8718.20
459.60	8796.03
459.81	8652.67
460.02	8894.33
460.23	8712.06
460.44	9133.94
460.65	8953.72
460.85	9097.08
461.06	9045.88
461.27	8793.98
461.48	9111.41
461.69	9111.41
461.89	8927.10
462.10	9256.82
462.31	9166.71
462.52	9377.65
462.73	9086.84
462.94	9506.67
463.14	9332.59
463.35	9250.67
463.56	9777.00
463.77	9734.00
463.98	9514.86
464.18	9637.74
464.39	9723.76
464.60	9830.25
464.81	9721.71
465.02	9817.96
465.23	9989.99
465.43	9934.70
465.64	10100.58
465.85	9992.04
466.06	9906.02
466.27	10360.67
466.47	10137.45
466.68	10329.95
466.89	10420.06
467.10	10487.65
467.30	10293.09
467.51	10567.52
467.72	10782.56
467.93	10301.28
468.14	10573.66
468.34	10878.81
468.55	10768.22
468.76	10854.23
468.97	10735.45
469.17	11073.37
469.38	11245.40
469.59	11276.12
469.80	10911.58
470.01	11151.19
470.21	11317.08
470.42	11372.37
470.63	11505.49
470.84	11380.56
471.04	11620.17
471.25	11534.16
471.46	11831.12
471.67	12105.54
471.87	11870.03
472.08	12074.82
472.29	12001.10
472.50	11841.36
472.70	11941.71
472.91	11956.04
473.12	12496.71
473.33	12433.22
473.53	12566.34
473.74	12554.05
473.95	12646.21
474.16	12728.13
474.36	12721.98
474.57	12826.43
474.78	12922.68
474.99	12951.35
475.19	13051.70
475.40	13182.77
475.61	13223.73
475.81	13408.05
476.02	13766.45
476.23	13571.89
476.44	13659.95
476.64	13823.79
476.85	14034.73
477.06	13975.34
477.27	14280.49
477.47	14249.77
477.68	14149.42
477.89	14626.59
478.09	14354.21
478.30	14436.13
478.51	14620.45
478.71	14569.25
478.92	14743.33
479.13	15013.66
479.34	14919.45
479.54	14909.21
479.75	15032.09
479.96	15101.72
480.16	15288.09
480.37	15580.95
480.58	15413.01
480.78	15652.63
480.99	15709.97
481.20	15658.77
481.41	15953.68
481.61	15970.06
481.82	16070.41
482.03	16203.53
482.23	15998.73
482.44	16549.64
482.65	16416.52
482.85	16803.58
483.06	16856.83
483.27	16697.09
483.47	16834.30
483.68	16873.21
483.89	17104.64
484.09	17141.50
484.30	17073.92
484.51	17170.17
484.71	17430.26
484.92	17247.99
485.13	17594.10
485.33	17729.27
485.54	17407.73
485.75	18089.71
485.95	18026.22
486.16	17999.60
486.37	18128.62
486.57	18075.37
486.78	18302.70
486.98	18382.57
487.19	18491.11
487.40	18792.16
487.60	19173.08
487.81	18925.28
488.02	18700.00
488.22	18730.72
488.43	19140.32
488.64	19072.73
488.84	19304.15
489.05	19392.22
489.25	19234.52
489.46	19398.36
489.67	19537.62
489.87	19742.42
490.08	19840.72
490.29	19881.68
490.49	20209.36
490.70	19922.64
490.90	20313.80
491.11	20018.89
491.32	20502.22
491.52	20457.16
491.73	20383.43
491.94	20555.46
492.14	20883.14
492.35	20745.92
492.55	20592.33
492.76	20786.88
492.97	20903.62
493.17	21161.66
493.38	21159.61
493.58	21638.84
493.79	21436.09
494.00	21532.34
494.20	21384.89
494.41	21583.54
494.61	21905.07
494.82	21722.80
495.02	21853.87
495.23	22253.23
495.44	21882.55
495.64	22261.42
495.85	22091.44
496.05	22302.38
496.26	22630.05
496.47	22400.68
496.67	22423.21
496.88	22970.02
497.08	22650.53
497.29	22836.90
497.49	23111.33
497.70	22687.40
497.91	23076.51
498.11	23166.62
498.32	23142.05
498.52	23322.27
498.73	23692.95
498.93	23334.56
499.14	23721.62
499.34	23533.21
499.55	23815.83
499.76	23895.70
499.96	23760.53
500.17	23996.05
500.37	24063.63
500.58	23994.00
500.78	24323.72
500.99	23969.43
501.19	24422.03
501.40	24438.41
501.60	24381.07
501.81	24682.12
502.02	24704.65
502.22	24323.72
502.43	24819.33
502.63	24882.82
502.84	24913.54
503.04	24737.41
503.25	25050.75
503.45	24983.17
503.66	25079.43
503.86	25144.96
504.07	25333.37
504.27	25130.62
504.48	25767.54
504.68	25570.94
504.89	25757.30
505.09	25491.07
505.30	25654.90
505.50	25794.17
505.71	25747.06
505.91	25878.13
506.12	25974.39
506.32	26060.40
506.53	26023.54
506.73	26166.90
506.94	26074.74
507.14	26478.19
507.35	26404.46
507.55	26519.15
507.76	26605.16
507.96	26449.52
508.17	26439.28
508.37	26576.49
508.58	26463.85
508.78	26607.21
508.99	27164.26
509.19	26893.93
509.40	27074.15
509.60	27127.39
509.81	27256.42
510.01	27162.21
510.22	26869.35
510.42	27235.94
510.63	27170.40
510.83	27074.15
511.04	27557.47
511.24	27805.27
511.44	27534.94
511.65	27666.01
511.85	27676.25
512.06	27725.40
512.26	28003.92
512.47	27821.66
512.67	27997.78
512.88	27991.64
513.08	27565.66
513.29	28339.79
513.49	27997.78
513.69	28255.82
513.90	28565.07
514.10	28515.92
514.31	28409.42
514.51	28497.49
514.72	28364.37
514.92	28128.85
515.13	28274.26
515.33	28689.99
515.53	28915.27
515.74	28585.55
515.94	28962.37
516.15	28948.04
516.35	28714.57
516.56	29032.00
516.76	28808.78
516.96	29034.05
517.17	28986.95
517.37	29025.86
517.58	29378.11
517.78	29492.80
517.99	29371.97
518.19	29587.00
518.39	29478.46
518.60	29662.78
518.80	29523.52
519.01	29797.95
519.21	29855.29
519.41	29595.20
519.62	29740.60
519.82	29871.67
520.03	29810.23
520.23	29974.07
520.43	29910.58
520.64	30371.38
520.84	30727.72
521.05	30273.07
521.25	30811.69
521.45	30795.31
521.66	30692.91
521.86	30543.41
522.07	30236.21
522.27	30430.77
522.47	30940.71
522.68	31002.15
522.88	30852.65
523.08	31385.12
523.29	31215.14
523.49	31413.79
523.70	31436.32
523.90	31614.49
524.10	31202.85
524.31	31608.35
524.51	31764.00
524.71	32030.23
524.92	31854.11
525.12	32013.85
525.33	31927.83
525.53	32298.52
525.73	32337.43
525.94	32249.36
526.14	32448.02
526.34	32450.06
526.55	32927.24
526.75	32437.78
526.95	32933.39
527.16	32779.79
527.36	32663.05
527.56	32767.50
527.77	33041.93
527.97	32902.67
528.17	33216.01
528.38	33426.95
528.58	33308.16
528.78	33844.73
528.99	33318.40
529.19	33633.79
529.39	33648.13
529.60	34022.90
529.80	33916.41
530.00	34088.44
530.21	33967.61
530.41	34270.71
530.61	34016.76
530.82	34475.51
531.02	34418.16
531.22	34719.21
531.43	34536.94
531.63	34534.90
531.83	35063.27
532.04	34932.20
532.24	34678.25
532.44	35040.75
532.64	35204.58
532.85	35378.66
533.05	35085.80
533.25	35395.04
533.46	35464.67
533.66	35581.41
533.86	35214.82
534.07	36294.10
534.27	35597.79
534.47	36314.58
534.67	36191.70
534.88	36236.76
535.08	36199.90
535.28	36328.92
535.49	36163.03
535.69	36865.49
535.89	36593.11
536.09	36879.82
536.30	36894.16
536.50	36978.12
536.70	37096.91
536.91	36986.32
537.11	37232.07
537.31	37273.03
537.51	37569.99
537.72	37809.60
537.92	38041.02
538.12	37920.19
538.32	37535.17
538.53	37926.33
538.73	38045.12
538.93	38391.22
539.13	37932.48
539.34	37965.24
539.54	37840.32
539.74	38469.04
539.94	38561.20
540.15	38227.38
540.35	38479.28
540.55	38329.78
540.75	38806.96
540.96	38587.83
541.16	38714.80
541.36	38909.36
541.56	39011.76
541.77	39513.51
541.97	39159.21
542.17	39609.76
542.37	39032.24
542.58	39828.90
542.78	39427.49
542.98	39269.80
543.18	39957.92
543.38	39908.77
543.59	40072.60
543.79	39722.40
543.99	39515.56
544.19	39746.98
544.40	39894.43
544.60	40322.46
544.80	40058.27
545.00	40127.90
545.20	40527.25
545.41	40136.09
545.61	40390.04
545.81	40629.65
546.01	40770.96
546.21	40687.00
546.42	41035.15
546.62	40836.50
546.82	40463.77
547.02	40879.50
547.22	40881.55
547.43	40693.14
547.63	41280.91
547.83	41166.22
548.03	40740.24
548.23	40936.85
548.44	41391.50
548.64	41735.56
548.84	41178.51
549.04	41465.22
549.24	41502.09
549.45	41690.50
549.65	41276.81
549.85	41743.75
550.05	41872.77
550.25	41647.49
550.45	42397.05
550.66	42016.13
550.86	41602.44
551.06	41905.54
551.26	42116.48
551.46	42175.87
551.66	42446.20
551.87	42120.57
552.07	42456.44
552.27	42495.35
552.47	42616.18
552.67	42382.71
552.87	42253.69
553.07	42726.77
553.28	42853.75
553.48	43191.66
553.68	43003.25
553.88	43038.06
554.08	42861.94
554.28	42888.56
554.48	43111.79
554.69	42737.01
554.89	42722.68
555.09	43165.04
555.29	43005.30
555.49	43408.75
555.69	43025.78
555.89	43406.70
556.10	43142.51
556.30	43029.87
556.50	43378.03
556.70	43507.05
556.90	43500.90
557.10	43869.54
557.30	43220.33
557.50	43902.31
557.70	43961.70
557.91	44062.05
558.11	44049.76
558.31	43920.74
558.51	43855.20
558.71	44064.10
558.91	44445.02
559.11	43726.18
559.31	43722.08
559.51	44287.32
559.72	44272.99
559.92	44389.72
560.12	44045.66
560.32	44481.88
560.52	44127.58
560.72	44168.54
560.92	44002.66
561.12	44365.15
561.32	45032.78
561.52	44442.97
561.72	44729.69
561.93	44498.26
562.13	44873.04
562.33	44340.57
562.53	45229.39
562.73	44193.12
562.93	44774.74
563.13	44604.76
563.33	44860.76
563.53	45327.69
563.73	44645.72
563.93	45032.78
564.13	45448.52
564.33	44897.62
564.53	44860.76
564.74	45507.91
564.94	45086.03
565.14	45081.94
565.34	45213.01
565.54	45671.75
565.74	45299.02
565.94	45880.64
566.14	45542.73
566.34	45241.68
566.54	45925.70
566.74	45548.87
566.94	45495.63
567.14	45628.74
567.34	45415.76
567.54	45831.49
567.74	45593.93
567.94	45399.37
568.14	45655.37
568.34	46122.30
568.54	45657.42
568.74	46169.41
568.94	45569.35
569.14	46191.94
569.34	45837.64
569.54	46038.34
569.75	45880.64
569.95	46095.68
570.15	46329.15
570.35	46269.76
570.55	46257.47
570.75	46013.76
570.95	46140.74
571.15	46454.08
571.35	46372.16
571.55	46826.81
571.75	46630.20
571.95	46763.32
572.15	46949.68
572.35	47023.41
572.55	46669.11
572.75	47058.23
572.95	46376.25
573.15	47093.04
573.35	46810.42
573.55	46959.92
573.75	47027.51
573.95	46925.11
574.15	46386.49
574.35	47338.80
574.55	47174.96
574.75	46818.61
574.95	47535.40
575.15	47131.95
575.34	47408.43
575.54	47512.88
575.74	47830.31
575.94	47453.48
576.14	47224.11
576.34	47676.71
576.54	47805.73
576.74	47963.43
576.94	47365.42
577.14	48110.88
577.34	48037.16
577.54	47596.84
577.74	48047.39
577.94	47795.49
578.14	48407.84
578.34	47891.75
578.54	47803.69
578.74	48262.43
578.94	48624.92
579.14	47799.59
579.34	48092.45
579.54	48176.42
579.74	48583.96
579.94	48796.95
580.13	48344.35
580.33	48741.66
580.53	48895.25
580.73	48792.86
580.93	48495.90
581.13	48612.63
581.33	49116.43
581.53	48850.20
581.73	48950.55
581.93	49515.79
582.13	49237.26
582.33	49591.56
582.53	49147.15
582.73	49218.83
582.92	49245.46
583.12	49589.52
583.32	49098.00
583.52	49177.87
583.72	49429.77
583.92	49446.16
584.12	49435.92
584.32	49878.28
584.52	49620.23
584.72	49931.53
584.92	50058.50
585.11	50296.06
585.31	49904.90
585.51	50093.32
585.71	50111.75
585.91	50330.88
586.11	49974.53
586.31	50488.57
586.51	50431.23
586.71	50234.63
586.91	50541.82
587.10	50392.32
587.30	50455.81
587.50	50560.25
587.70	50525.44
587.90	50492.67
588.10	50586.88
588.30	50494.72
588.50	50797.82
