SpectraSuite Data File
++++++++++++++++++++++++++++++++++++
Date: Fri Jun 02 14:47:56 CEST 2017
User: INFO_000
Dark Spectrum Present: No
Reference Spectrum Present: No
Number of Sampled Component Spectra: 1
Spectrometers: USB4H00879
Integration Time (usec): 80000 (USB4H00879)
Spectra Averaged: 1 (USB4H00879)
Boxcar Smoothing: 0 (USB4H00879)
Correct for Electrical Dark: No (USB4H00879)
Strobe/Lamp Enabled: No (USB4H00879)
Correct for Detector Non-linearity: No (USB4H00879)
Correct for Stray Light: No (USB4H00879)
Number of Pixels in Processed Spectrum: 3648
>>>>>Begin Processed Spectral Data<<<<<
345.13	1257.45
345.34	1257.45
345.56	1257.45
345.78	1273.84
345.99	1236.97
346.21	1839.08
346.42	1681.38
346.64	1687.53
346.86	1796.07
347.07	1669.09
347.29	1662.95
347.50	1605.61
347.72	1701.86
347.94	1832.93
348.15	1636.33
348.37	1576.94
348.59	1716.20
348.80	1673.19
349.02	1740.77
349.23	1877.99
349.45	1824.74
349.67	1865.70
349.88	1757.16
350.10	1984.48
350.31	1871.84
350.53	1730.53
350.75	2015.20
350.96	1798.12
351.18	1830.88
351.39	1839.08
351.61	1810.40
351.82	1863.65
352.04	1933.28
352.26	1773.54
352.47	1841.12
352.69	1918.95
352.90	1710.05
353.12	1839.08
353.34	1882.08
353.55	1951.71
353.77	1822.69
353.98	1839.08
354.20	1894.37
354.41	1994.72
354.63	1900.52
354.85	1968.10
355.06	1931.23
355.28	1757.16
355.49	1925.09
355.71	1828.84
355.92	1859.56
356.14	1892.32
356.35	1849.32
356.57	1869.80
356.79	1867.75
357.00	1837.03
357.22	1982.43
357.43	1855.46
357.65	1966.05
357.86	1806.31
358.08	1861.60
358.29	1943.52
358.51	1992.67
358.72	1943.52
358.94	1937.38
359.16	1877.99
359.37	1959.91
359.59	1943.52
359.80	1927.14
360.02	1931.23
360.23	1871.84
360.45	2052.06
360.66	1853.41
360.88	1884.13
361.09	1843.17
361.31	2025.44
361.52	1925.09
361.74	2078.69
361.95	2021.35
362.17	1937.38
362.38	2068.45
362.60	2080.74
362.81	1888.23
363.03	1978.34
363.24	1894.37
363.46	2099.17
363.67	2050.02
363.89	2047.97
364.10	1978.34
364.32	1949.67
364.53	1988.58
364.75	1964.00
364.96	2088.93
365.18	2021.35
365.39	1925.09
365.61	2000.87
365.82	2127.84
366.04	1978.34
366.25	1951.71
366.47	2086.88
366.68	1990.63
366.90	2047.97
367.11	2068.45
367.33	2131.94
367.54	2099.17
367.76	2047.97
367.97	2023.39
368.19	2033.63
368.40	2117.60
368.62	1964.00
368.83	1939.43
369.05	2082.78
369.26	1990.63
369.48	1925.09
369.69	2013.15
369.91	2093.02
370.12	2045.92
370.33	2222.05
370.55	1896.42
370.76	2033.63
370.98	2136.03
371.19	2002.91
371.41	1974.24
371.62	2019.30
371.84	2041.82
372.05	2189.28
372.27	2068.45
372.48	2011.11
372.69	2060.26
372.91	2093.02
373.12	2113.50
373.34	2074.59
373.55	2131.94
373.77	2140.13
373.98	2103.26
374.20	2191.33
374.41	2238.43
374.62	2183.13
374.84	2115.55
375.05	2158.56
375.27	2054.11
375.48	2174.94
375.70	2181.09
375.91	2213.85
376.12	2285.53
376.34	2097.12
376.55	2162.66
376.77	2183.13
376.98	2162.66
377.19	2131.94
377.41	2097.12
377.62	2125.79
377.84	2199.52
378.05	2400.22
378.27	2123.74
378.48	2252.77
378.69	2271.20
378.91	2234.33
379.12	2181.09
379.34	2189.28
379.55	2267.10
379.76	2273.25
379.98	2127.84
380.19	2250.72
380.41	2250.72
380.62	2308.06
380.83	2240.48
381.05	2240.48
381.26	2424.80
381.47	2295.77
381.69	2281.44
381.90	2408.41
382.12	2344.92
382.33	2250.72
382.54	2273.25
382.76	2359.26
382.97	2367.45
383.19	2230.24
383.40	2279.39
383.61	2336.73
383.83	2256.86
384.04	2291.68
384.25	2387.93
384.47	2408.41
384.68	2371.55
384.89	2351.07
385.11	2326.49
385.32	2400.22
385.54	2297.82
385.75	2285.53
385.96	2412.51
386.18	2410.46
386.39	2426.84
386.60	2336.73
386.82	2465.75
387.03	2379.74
387.24	2502.62
387.46	2424.80
387.67	2443.23
387.88	2451.42
388.10	2512.86
388.31	2535.39
388.52	2498.52
388.74	2494.43
388.95	2475.99
389.16	2506.71
389.38	2447.32
389.59	2570.20
389.80	2514.91
390.02	2590.68
390.23	2639.83
390.44	2562.01
390.66	2582.49
390.87	2555.86
391.08	2525.15
391.30	2684.89
391.51	2697.17
391.72	2660.31
391.94	2680.79
392.15	2617.30
392.36	2600.92
392.58	2615.26
392.79	2660.31
393.00	2697.17
393.22	2658.26
393.43	2789.33
393.64	2797.53
393.85	2736.09
394.07	2611.16
394.28	2754.52
394.49	2713.56
394.71	2746.33
394.92	2824.15
395.13	2570.20
395.35	2707.41
395.56	2666.46
395.77	2719.70
395.98	2881.49
396.20	2752.47
396.41	2828.24
396.62	2795.48
396.84	2742.23
397.05	2813.91
397.26	2879.44
397.47	3035.09
397.69	2744.28
397.90	3057.62
398.11	2867.16
398.32	2834.39
398.54	2877.40
398.75	2838.48
398.96	2811.86
399.18	2985.94
399.39	2887.64
399.60	2897.88
399.81	2904.02
400.03	2897.88
400.24	3172.30
400.45	2879.44
400.66	3076.05
400.88	2942.93
401.09	3129.30
401.30	3076.05
401.51	3131.34
401.73	3092.43
401.94	3059.67
402.15	3069.91
402.36	3018.71
402.58	3166.16
402.79	3076.05
403.00	3092.43
403.21	3172.30
403.43	3106.77
403.64	3260.37
403.85	3098.58
404.06	3188.69
404.27	3117.01
404.49	3205.07
404.70	3137.49
404.91	3243.98
405.12	3186.64
405.34	3274.70
405.55	3387.34
405.76	3125.20
405.97	3264.46
406.19	3420.11
406.40	3291.09
406.61	3295.18
406.82	3332.05
407.03	3264.46
407.25	3321.81
407.46	3442.64
407.67	3440.59
407.88	3430.35
408.09	3241.93
408.31	3295.18
408.52	3366.86
408.73	3266.51
408.94	3262.41
409.15	3403.72
409.37	3442.64
409.58	3471.31
409.79	3518.41
410.00	3559.37
410.21	3385.29
410.43	3403.72
410.64	3397.58
410.85	3403.72
411.06	3510.22
411.27	3585.99
411.48	3620.81
411.70	3391.44
411.91	3606.47
412.12	3669.96
412.33	3655.62
412.54	3596.23
412.76	3735.50
412.97	3680.20
413.18	3542.99
413.39	3510.22
413.60	3702.73
413.81	3635.14
414.03	3637.19
414.24	3659.72
414.45	3798.98
414.66	3581.90
414.87	3745.73
415.08	3633.10
415.30	3801.03
415.51	3721.16
415.72	3680.20
415.93	3780.55
416.14	3872.71
416.35	3776.45
416.56	3913.67
416.78	3803.08
416.99	3878.85
417.20	3864.52
417.41	3928.00
417.62	3870.66
417.83	3913.67
418.04	3948.48
418.26	3981.25
418.47	3932.10
418.68	3991.49
418.89	4057.03
419.10	4145.09
419.31	4093.89
419.52	4020.16
419.73	4087.75
419.95	4079.55
420.16	3973.06
420.37	3985.35
420.58	4106.18
420.79	3932.10
421.00	4104.13
421.21	4067.27
421.42	3934.15
421.63	4177.86
421.85	4128.70
422.06	4227.01
422.27	4075.46
422.48	4214.72
422.69	4276.16
422.90	4112.32
423.11	4231.10
423.32	4319.17
423.53	4362.17
423.75	4259.78
423.96	4433.85
424.17	4278.21
424.38	4501.44
424.59	4403.13
424.80	4628.41
425.01	4353.98
425.22	4325.31
425.43	4384.70
425.64	4640.70
425.85	4444.09
426.06	4503.48
426.28	4452.28
426.49	4399.04
426.70	4544.44
426.91	4493.24
427.12	4667.32
427.33	4661.18
427.54	4403.13
427.75	4693.94
427.96	4587.45
428.17	4607.93
428.38	4810.68
428.59	4730.81
428.80	4638.65
429.01	4698.04
429.23	4630.46
429.44	4990.90
429.65	4939.70
429.86	4915.12
430.07	4931.51
430.28	4808.63
430.49	4900.79
430.70	5011.38
430.91	4923.32
431.12	4982.71
431.33	5021.62
431.54	5023.67
431.75	5095.35
431.96	5058.48
432.17	4954.04
432.38	5070.77
432.59	5294.00
432.80	5064.63
433.01	5330.86
433.22	5298.10
433.43	5296.05
433.64	5220.27
433.85	5244.85
434.06	5253.04
434.27	5162.93
434.49	5316.53
434.70	5433.26
434.91	5322.67
435.12	5246.90
435.33	5265.33
435.54	5496.75
435.75	5369.77
435.96	5435.31
436.17	5322.67
436.38	5576.62
436.59	5545.90
436.80	5519.28
437.01	5699.50
437.22	5711.78
437.43	5654.44
437.64	5461.93
437.85	5640.11
438.06	5703.59
438.27	5633.96
438.48	5631.91
438.69	5758.89
438.90	5889.96
439.11	5648.30
439.32	5961.64
439.53	5836.71
439.74	5795.75
439.95	5924.77
440.16	5892.01
440.37	5988.26
440.57	5793.70
440.78	5965.73
440.99	6025.12
441.20	6043.56
441.41	5844.90
441.62	5998.50
441.83	5818.28
442.04	6127.52
442.25	6344.61
442.46	6023.08
442.67	6035.36
442.88	6434.72
443.09	6014.88
443.30	6322.08
443.51	6223.78
443.72	6305.70
443.93	6182.82
444.14	6395.81
444.35	6156.19
444.56	6297.50
444.77	6379.42
444.98	6389.66
445.19	6477.73
445.40	6344.61
445.61	6428.57
445.81	6576.03
446.02	6659.99
446.23	6530.97
446.44	6459.29
446.65	6424.48
446.86	6522.78
447.07	6680.47
447.28	6823.83
447.49	6606.75
447.70	6666.14
447.91	6705.05
448.12	6619.04
448.33	6850.46
448.54	6756.25
448.74	6817.69
448.95	6725.53
449.16	6621.08
449.37	7075.73
449.58	6780.82
449.79	7118.74
450.00	6801.30
450.21	6965.14
450.42	7112.60
450.63	7063.44
450.84	6952.85
451.05	7061.40
451.25	7071.64
451.46	7096.21
451.67	7171.99
451.88	7327.63
452.09	7221.14
452.30	7051.16
452.51	7309.20
452.72	7409.55
452.93	7487.37
453.13	7059.35
453.34	7356.30
453.55	7288.72
453.76	7382.93
453.97	7733.13
454.18	7540.62
454.39	7538.57
454.60	7532.43
454.81	7528.33
455.01	7673.74
455.22	7532.43
455.43	7688.07
455.64	7825.29
455.85	7817.10
456.06	7995.27
456.27	7757.71
456.48	7681.93
456.68	7739.27
456.89	7767.95
457.10	8007.56
457.31	7798.66
457.52	7974.79
457.73	7862.15
457.94	8095.62
458.14	7856.01
458.35	8302.47
458.56	7980.93
458.77	8052.61
458.98	8191.88
459.19	8042.37
459.39	8402.82
459.60	8478.59
459.81	8345.47
460.02	8480.64
460.23	8400.77
460.44	8636.28
460.65	8542.08
460.85	8468.35
461.06	8615.80
461.27	8531.84
461.48	8802.17
461.69	9000.82
461.89	8363.90
462.10	8775.55
462.31	8445.82
462.52	8652.67
462.73	8642.43
462.94	8961.91
463.14	8988.53
463.35	9015.16
463.56	9232.24
463.77	9117.56
463.98	8974.20
464.18	9258.87
464.39	9293.68
464.60	9508.72
464.81	9375.60
465.02	9351.03
465.23	9432.94
465.43	9486.19
465.64	9541.49
465.85	9512.81
466.06	9584.49
466.27	9725.80
466.47	9897.83
466.68	9787.24
466.89	9629.55
467.10	9867.11
467.30	9604.97
467.51	10051.43
467.72	10100.58
467.93	10063.72
468.14	10299.23
468.34	10321.76
468.55	10305.38
468.76	10303.33
468.97	10323.81
469.17	10483.55
469.38	10762.08
469.59	10684.25
469.80	10532.70
470.01	10655.58
470.21	10676.06
470.42	10864.47
470.63	10915.67
470.84	10897.24
471.04	11116.37
471.25	11181.91
471.46	11210.58
471.67	11349.84
471.87	11147.09
472.08	11464.53
472.29	11710.29
472.50	11349.84
472.70	11562.83
472.91	11536.21
473.12	11949.90
473.33	11851.60
473.53	11919.18
473.74	12001.10
473.95	12234.57
474.16	12205.89
474.36	12414.79
474.57	12476.23
474.78	12408.64
474.99	12298.05
475.19	12484.42
475.40	12838.72
475.61	12838.72
475.81	12951.35
476.02	12934.97
476.23	13086.52
476.44	13305.65
476.64	13197.11
476.85	13500.21
477.06	13242.17
477.27	13786.93
477.47	13659.95
477.68	13926.19
477.89	13907.76
478.09	13862.70
478.30	13979.43
478.51	14313.25
478.71	14219.05
478.92	14432.04
479.13	14520.10
479.34	14518.05
479.54	14679.84
479.75	14688.03
479.96	14858.01
480.16	14886.68
480.37	14966.56
480.58	15027.99
480.78	15290.13
480.99	15230.74
481.20	15327.00
481.41	15585.04
481.61	15752.98
481.82	15714.06
482.03	15585.04
482.23	15679.25
482.44	16123.66
482.65	16060.17
482.85	16113.42
483.06	16322.31
483.27	16191.24
483.47	16537.35
483.68	16480.00
483.89	16500.48
484.09	16602.88
484.30	16758.53
484.51	17090.30
484.71	16994.04
484.92	16998.14
485.13	17137.40
485.33	17280.76
485.54	17262.33
485.75	17323.77
485.95	17622.77
486.16	17737.46
486.37	17712.88
486.57	17913.58
486.78	17815.28
486.98	17780.46
487.19	17958.64
487.40	18417.38
487.60	18132.72
487.81	18368.23
488.02	18226.92
488.22	18329.32
488.43	18558.69
488.64	18652.90
488.84	18681.57
489.05	19097.31
489.25	18935.52
489.46	19105.50
489.67	18816.74
489.87	19195.61
490.08	19308.25
490.29	19435.22
490.49	19343.06
490.70	19715.80
490.90	19541.72
491.11	19599.06
491.32	19654.36
491.52	19783.38
491.73	20027.09
491.94	19898.06
492.14	19961.55
492.35	20092.62
492.55	20311.75
492.76	20467.40
492.97	20268.75
493.17	20313.80
493.38	20393.67
493.58	20776.64
493.79	20721.35
494.00	20774.60
494.20	20756.16
494.41	21143.23
494.61	20864.71
494.82	21276.35
495.02	21092.03
495.23	21278.40
495.44	21212.86
495.64	21497.53
495.85	21350.07
496.05	21339.83
496.26	21434.04
496.47	21513.91
496.67	21796.53
496.88	21718.71
497.08	21724.85
497.29	21853.87
497.49	21694.13
497.70	21862.07
497.91	22163.12
498.11	22023.86
498.32	22142.64
498.52	22404.78
498.73	22347.44
498.93	22320.81
499.14	22750.88
499.34	22886.05
499.55	22492.84
499.76	22412.97
499.96	22949.54
500.17	22732.45
500.37	22861.48
500.58	23156.38
500.78	23004.83
500.99	22906.53
501.19	23432.86
501.40	23123.62
501.60	22812.32
501.81	23058.08
502.02	23053.98
502.22	23244.45
502.43	23596.70
502.63	23680.66
502.84	23410.33
503.04	23469.72
503.25	23502.49
503.45	23576.22
503.66	23938.71
503.86	23889.56
504.07	24125.07
504.27	24129.17
504.48	24340.11
504.68	23994.00
504.89	24397.45
505.09	24024.72
505.30	24293.01
505.50	24448.65
505.71	24288.91
505.91	24632.97
506.12	24260.24
506.32	24632.97
506.53	24387.21
506.73	24542.86
506.94	24686.22
507.14	24647.30
507.35	24729.22
507.55	24979.07
507.76	25210.50
507.96	24819.33
508.17	24876.68
508.37	25433.72
508.58	25351.81
508.78	25261.69
508.99	25251.45
509.19	25456.25
509.40	25314.94
509.60	25556.60
509.81	25884.28
510.01	25552.51
510.22	25521.79
510.42	26074.74
510.63	25902.71
510.83	25679.48
511.04	25738.87
511.24	26132.08
511.44	26023.54
511.65	26154.61
511.85	25941.62
512.06	25968.24
512.26	26244.72
512.47	26267.25
512.67	26513.00
512.88	26746.47
513.08	26308.21
513.29	26586.73
513.49	26623.59
513.69	26490.48
513.90	26809.96
514.10	26969.70
514.31	26881.64
514.51	26818.15
514.72	26797.67
514.92	27233.89
515.13	27297.38
515.33	27108.96
515.53	27027.04
515.74	27293.28
515.94	27321.95
516.15	27551.32
516.35	27506.27
516.56	27881.05
516.76	27655.77
516.96	27614.81
517.17	28132.95
517.37	27899.48
517.58	27917.91
517.78	27911.77
517.99	27926.10
518.19	28364.37
518.39	28626.51
518.60	28485.20
518.80	28126.80
519.01	28681.80
519.21	28702.28
519.41	28921.41
519.62	28673.61
519.82	28558.92
520.03	28849.74
520.23	28970.57
520.43	28937.80
520.64	29398.59
520.84	28857.93
521.05	29392.45
521.25	29556.28
521.45	29771.32
521.66	29756.99
521.86	29736.51
522.07	29904.44
522.27	29998.65
522.47	29845.05
522.68	30039.61
522.88	30000.69
523.08	30381.62
523.29	30217.78
523.49	30344.75
523.70	30461.49
523.90	30803.50
524.10	30459.44
524.31	30850.60
524.51	30535.21
524.71	30973.48
524.92	30869.03
525.12	31346.21
525.33	30989.86
525.53	31211.04
525.73	31661.60
525.94	31446.56
526.14	31573.53
526.34	31557.15
526.55	31591.97
526.75	31598.11
526.95	32292.37
527.16	31835.67
527.36	31938.07
527.56	32288.28
527.77	32374.29
527.97	32196.12
528.17	32509.46
528.38	32656.91
528.58	32667.15
528.78	32433.68
528.99	32978.44
529.19	33299.97
529.39	32581.13
529.60	33060.36
529.80	33244.68
530.00	33091.08
530.21	33357.32
530.41	33390.08
530.61	33613.31
530.82	33363.46
531.02	33635.84
531.22	33959.42
531.43	33506.82
531.63	34074.10
531.83	33900.03
532.04	34246.13
532.24	34174.45
532.44	34915.82
532.64	34674.16
532.85	34833.90
533.05	34383.35
533.25	34874.86
533.46	34405.88
533.66	34827.76
533.86	34989.55
534.07	35329.51
534.27	35020.27
534.47	35184.10
534.67	35589.60
534.88	35345.89
535.08	35517.92
535.28	35790.30
535.49	35669.47
535.69	35722.72
535.89	36167.13
536.09	36087.26
536.30	36070.87
536.50	36201.94
536.70	36240.86
536.91	36251.09
537.11	36220.38
537.31	36402.64
537.51	36333.01
537.72	36865.49
537.92	36607.44
538.12	36814.29
538.32	36713.94
538.53	37144.01
538.73	36672.98
538.93	36902.35
539.13	36896.20
539.34	37111.24
539.54	36877.77
539.74	37553.60
539.94	37049.80
540.15	37047.75
540.35	37623.23
540.55	37819.84
540.75	37311.94
540.96	38112.70
541.16	37973.44
541.36	37305.80
541.56	37785.02
541.77	38041.02
541.97	37809.60
542.17	38161.85
542.37	37963.20
542.58	38034.88
542.78	37965.24
542.98	37840.32
543.18	38524.34
543.38	38671.79
543.59	38348.21
543.79	38288.82
543.99	38075.84
544.19	38413.75
544.40	38624.69
544.60	38714.80
544.80	38184.38
545.00	38493.62
545.20	38716.85
545.41	38503.86
545.61	38403.51
545.81	38743.47
546.01	38768.05
546.21	38884.78
546.42	38528.44
546.62	39155.11
546.82	38643.12
547.02	39071.15
547.22	39022.00
547.43	39003.56
547.63	39177.64
547.83	39425.45
548.03	39171.50
548.23	39556.52
548.44	39855.52
548.64	39437.73
548.84	39636.39
549.04	39361.96
549.24	39603.62
549.45	39828.90
549.65	39693.73
549.85	39437.73
550.05	39663.01
550.25	39255.46
550.45	40060.32
550.66	39824.80
550.86	39654.82
551.06	40373.66
551.26	40199.58
551.46	39710.11
551.66	39976.35
551.87	39859.62
552.07	40045.98
552.27	40203.67
552.47	40369.56
552.67	40224.15
552.87	40107.42
553.07	40476.05
553.28	40494.49
553.48	40377.75
553.68	40086.94
553.88	40912.27
554.08	40570.26
554.28	40605.08
554.48	40242.59
554.69	40719.76
554.89	40433.05
555.09	40572.31
555.29	40517.01
555.49	40926.61
555.69	40777.11
555.89	40725.91
556.10	41123.21
556.30	40641.94
556.50	40922.51
556.70	41031.05
556.90	41196.94
557.10	41137.55
557.30	40965.52
557.50	41352.58
557.70	41428.36
557.91	41366.92
558.11	41696.64
558.31	41035.15
558.51	41121.16
558.71	41653.64
558.91	41246.09
559.11	41352.58
559.31	41127.31
559.51	41309.58
559.72	41325.96
559.92	41760.13
560.12	41510.28
560.32	41745.80
560.52	41973.12
560.72	41756.03
560.92	42085.76
561.12	41794.95
561.32	41995.65
561.52	41715.08
561.72	42268.03
561.93	41866.63
562.13	42341.75
562.33	41723.27
562.53	42435.96
562.73	42091.90
562.93	42257.79
563.13	42308.99
563.33	42014.08
563.53	42476.92
563.73	41936.26
563.93	42587.51
564.13	42890.61
564.33	42775.92
564.53	42483.06
564.74	42980.72
564.94	42390.91
565.14	42845.55
565.34	42454.39
565.54	42626.42
565.74	42884.47
565.94	43113.84
566.14	43003.25
566.34	43081.07
566.54	43421.03
566.74	42505.59
566.94	43580.78
567.14	43636.07
567.34	42923.38
567.54	43480.42
567.74	43423.08
567.94	43392.36
568.14	43804.00
568.34	43849.06
568.54	43818.34
568.74	44096.86
568.94	43328.87
569.14	44244.32
569.34	43820.39
569.54	44004.70
569.75	43763.04
569.95	43873.63
570.15	44195.17
570.35	44109.15
570.55	43840.87
570.75	44135.77
570.95	44551.51
571.15	44705.11
571.35	44465.50
571.55	44393.82
571.75	44557.66
571.95	45090.13
572.15	44746.07
572.35	44813.65
572.55	44352.86
572.75	44862.80
572.95	44602.71
573.15	44893.52
573.35	44920.15
573.55	45262.16
573.75	45323.60
573.95	45557.06
574.15	45251.92
574.35	45669.70
574.55	45024.59
574.75	45063.50
574.95	45729.09
575.15	45368.65
575.34	45768.01
575.54	45929.80
575.74	46183.74
575.94	46013.76
576.14	45964.61
576.34	46300.48
576.54	45808.96
576.74	46351.68
576.94	46013.76
577.14	46572.86
577.34	46544.19
577.54	46064.96
577.74	46591.29
577.94	46556.47
578.14	46554.43
578.34	46986.55
578.54	46490.94
578.74	46738.74
578.94	46986.55
579.14	46468.41
579.34	46798.13
579.54	47232.30
579.74	47263.02
579.94	47109.43
580.13	47424.81
580.33	47623.47
580.53	47457.58
580.73	47672.62
580.93	47500.59
581.13	47701.29
581.33	47990.05
581.53	47938.85
581.73	47736.10
581.93	48102.69
582.13	47805.73
582.33	48043.30
582.53	47871.27
582.73	48520.48
582.92	48180.51
583.12	48477.47
583.32	48211.23
583.52	48010.53
583.72	48620.83
583.92	48665.88
584.12	48444.70
584.32	48667.93
584.52	48563.48
584.72	48831.77
584.92	49063.19
585.11	49218.83
585.31	49055.00
585.51	48956.69
585.71	49241.36
585.91	49351.95
586.11	49161.49
586.31	49216.78
586.51	49163.54
586.71	49566.99
586.91	49585.42
587.10	49411.34
587.30	49540.36
587.50	49556.75
587.70	49337.62
587.90	49773.83
588.10	49816.84
588.30	49919.24
588.50	50158.85
