SpectraSuite Data File
++++++++++++++++++++++++++++++++++++
Date: Fri Jun 02 14:53:33 CEST 2017
User: INFO_000
Dark Spectrum Present: No
Reference Spectrum Present: No
Number of Sampled Component Spectra: 1
Spectrometers: USB4H00879
Integration Time (usec): 80000 (USB4H00879)
Spectra Averaged: 1 (USB4H00879)
Boxcar Smoothing: 0 (USB4H00879)
Correct for Electrical Dark: No (USB4H00879)
Strobe/Lamp Enabled: No (USB4H00879)
Correct for Detector Non-linearity: No (USB4H00879)
Correct for Stray Light: No (USB4H00879)
Number of Pixels in Processed Spectrum: 3648
>>>>>Begin Processed Spectral Data<<<<<
345.13	1286.12
345.34	1286.12
345.56	1286.12
345.78	1255.40
345.99	1212.40
346.21	1701.86
346.42	1665.00
346.64	1628.14
346.86	1791.97
347.07	1564.65
347.29	1748.97
347.50	1611.75
347.72	1656.81
347.94	1718.25
348.15	1607.66
348.37	1679.33
348.59	1724.39
348.80	1652.71
349.02	1763.30
349.23	1759.21
349.45	1816.55
349.67	1843.17
349.88	1783.78
350.10	1935.33
350.31	1824.74
350.53	1806.31
350.75	1912.80
350.96	1759.21
351.18	1834.98
351.39	1802.21
351.61	1804.26
351.82	1863.65
352.04	1875.94
352.26	1873.89
352.47	1912.80
352.69	1896.42
352.90	1775.59
353.12	1933.28
353.34	1855.46
353.55	1861.60
353.77	1892.32
353.98	1918.95
354.20	1855.46
354.41	1959.91
354.63	1982.43
354.85	2050.02
355.06	1941.47
355.28	1812.45
355.49	1918.95
355.71	1892.32
355.92	1841.12
356.14	1916.90
356.35	1847.27
356.57	1806.31
356.79	1937.38
357.00	1859.56
357.22	1968.10
357.43	1853.41
357.65	2021.35
357.86	1923.04
358.08	1888.23
358.29	1929.19
358.51	1992.67
358.72	1970.15
358.94	1898.47
359.16	1808.36
359.37	1910.75
359.59	1947.62
359.80	1949.67
360.02	1959.91
360.23	1949.67
360.45	1994.72
360.66	1982.43
360.88	1894.37
361.09	2009.06
361.31	1974.24
361.52	2004.96
361.74	2088.93
361.95	2070.50
362.17	1984.48
362.38	2138.08
362.60	2066.40
362.81	2019.30
363.03	1906.66
363.24	2007.01
363.46	2113.50
363.67	1980.39
363.89	1949.67
364.10	2017.25
364.32	2025.44
364.53	2080.74
364.75	1929.19
364.96	1992.67
365.18	2041.82
365.39	2058.21
365.61	1933.28
365.82	2058.21
366.04	2031.58
366.25	2039.78
366.47	2060.26
366.68	2084.83
366.90	2011.11
367.11	2138.08
367.33	2095.07
367.54	2115.55
367.76	2007.01
367.97	2142.18
368.19	1992.67
368.40	2140.13
368.62	1961.95
368.83	2013.15
369.05	2138.08
369.26	1964.00
369.48	1941.47
369.69	2039.78
369.91	2158.56
370.12	1994.72
370.33	2031.58
370.55	2023.39
370.76	2023.39
370.98	2084.83
371.19	2031.58
371.41	2064.35
371.62	2088.93
371.84	2041.82
372.05	2199.52
372.27	1972.19
372.48	2097.12
372.69	2162.66
372.91	2099.17
373.12	2176.99
373.34	2023.39
373.55	2125.79
373.77	2172.89
373.98	2191.33
374.20	2191.33
374.41	2154.46
374.62	2183.13
374.84	2121.70
375.05	2150.37
375.27	2174.94
375.48	2158.56
375.70	2203.61
375.91	2254.81
376.12	2265.05
376.34	2211.81
376.55	2115.55
376.77	2121.70
376.98	2138.08
377.19	2125.79
377.41	2240.48
377.62	2170.85
377.84	2226.14
378.05	2392.03
378.27	2162.66
378.48	2297.82
378.69	2349.02
378.91	2246.62
379.12	2246.62
379.34	2189.28
379.55	2260.96
379.76	2279.39
379.98	2238.43
380.19	2263.01
380.41	2326.49
380.62	2293.72
380.83	2265.05
381.05	2150.37
381.26	2471.90
381.47	2146.27
381.69	2375.64
381.90	2453.47
382.12	2342.88
382.33	2285.53
382.54	2207.71
382.76	2226.14
382.97	2271.20
383.19	2277.34
383.40	2422.75
383.61	2291.68
383.83	2201.57
384.04	2314.20
384.25	2361.31
384.47	2492.38
384.68	2324.44
384.89	2359.26
385.11	2324.44
385.32	2338.78
385.54	2383.84
385.75	2428.89
385.96	2441.18
386.18	2416.60
386.39	2328.54
386.60	2381.79
386.82	2461.66
387.03	2400.22
387.24	2525.15
387.46	2445.27
387.67	2494.43
387.88	2516.95
388.10	2598.87
388.31	2426.84
388.52	2607.06
388.74	2531.29
388.95	2441.18
389.16	2412.51
389.38	2525.15
389.59	2684.89
389.80	2602.97
390.02	2525.15
390.23	2539.48
390.44	2480.09
390.66	2498.52
390.87	2465.75
391.08	2629.59
391.30	2609.11
391.51	2660.31
391.72	2662.36
391.94	2723.80
392.15	2635.74
392.36	2643.93
392.58	2596.82
392.79	2693.08
393.00	2715.61
393.22	2719.70
393.43	2752.47
393.64	2897.88
393.85	2936.79
394.07	2637.78
394.28	2674.65
394.49	2799.57
394.71	2854.87
394.92	2936.79
395.13	2693.08
395.35	2734.04
395.56	2785.24
395.77	2813.91
395.98	2766.81
396.20	2873.30
396.41	2879.44
396.62	2885.59
396.84	2678.74
397.05	2824.15
397.26	2932.69
397.47	3008.47
397.69	2793.43
397.90	3057.62
398.11	2867.16
398.32	2957.27
398.54	2832.34
398.75	2875.35
398.96	2895.83
399.18	3033.04
399.39	2959.31
399.60	3065.81
399.81	2916.31
400.03	2973.65
400.24	3266.51
400.45	2963.41
400.66	3065.81
400.88	3157.97
401.09	3248.08
401.30	3018.71
401.51	3178.45
401.73	3106.77
401.94	3119.06
402.15	3188.69
402.36	3172.30
402.58	3049.43
402.79	3190.74
403.00	3276.75
403.21	3207.12
403.43	3278.80
403.64	3262.41
403.85	3127.25
404.06	3319.76
404.27	3067.86
404.49	3305.42
404.70	3104.72
404.91	3405.77
405.12	3164.11
405.34	3264.46
405.55	3471.31
405.76	3209.17
405.97	3196.88
406.19	3407.82
406.40	3354.57
406.61	3340.24
406.82	3299.28
407.03	3405.77
407.25	3217.36
407.46	3420.11
407.67	3428.30
407.88	3461.07
408.09	3444.68
408.31	3338.19
408.52	3411.92
408.73	3301.33
408.94	3385.29
409.15	3434.44
409.37	3567.56
409.58	3573.71
409.79	3530.70
410.00	3542.99
410.21	3442.64
410.43	3504.07
410.64	3547.08
410.85	3563.47
411.06	3473.36
411.27	3510.22
411.48	3516.36
411.70	3477.45
411.91	3706.82
412.12	3649.48
412.33	3538.89
412.54	3620.81
412.76	3721.16
412.97	3641.29
413.18	3565.51
413.39	3610.57
413.60	3665.86
413.81	3751.88
414.03	3696.58
414.24	3555.27
414.45	3784.65
414.66	3649.48
414.87	3733.45
415.08	3680.20
415.30	3780.55
415.51	3798.98
415.72	3844.04
415.93	3667.91
416.14	3770.31
416.35	3805.13
416.56	3856.33
416.78	3991.49
416.99	3905.48
417.20	3841.99
417.41	3989.44
417.62	3932.10
417.83	3964.87
418.04	3862.47
418.26	3919.81
418.47	3981.25
418.68	4032.45
418.89	3991.49
419.10	4243.39
419.31	4009.92
419.52	4114.37
419.73	4081.60
419.95	4097.99
420.16	3956.68
420.37	4065.22
420.58	4059.07
420.79	3837.89
421.00	3997.64
421.21	4089.79
421.42	4136.90
421.63	4163.52
421.85	4155.33
422.06	4292.54
422.27	4208.58
422.48	4265.92
422.69	4210.62
422.90	4227.01
423.11	4442.04
423.32	4396.99
423.53	4462.52
423.75	4313.02
423.96	4601.79
424.17	4478.91
424.38	4448.19
424.59	4493.24
424.80	4657.08
425.01	4435.90
425.22	4472.76
425.43	4394.94
425.64	4638.65
425.85	4753.34
426.06	4491.20
426.28	4440.00
426.49	4552.63
426.70	4507.58
426.91	4511.68
427.12	4741.05
427.33	4636.60
427.54	4505.53
427.75	4796.34
427.96	4966.32
428.17	4691.90
428.38	4767.67
428.59	4960.18
428.80	4773.82
429.01	4917.17
429.23	4853.69
429.44	4962.23
429.65	4945.84
429.86	4980.66
430.07	4970.42
430.28	4941.75
430.49	4921.27
430.70	5040.05
430.91	5048.24
431.12	5083.06
431.33	5220.27
431.54	5279.66
431.75	5238.70
431.96	5109.68
432.17	5142.45
432.38	5121.97
432.59	5386.16
432.80	5238.70
433.01	5392.30
433.22	5343.15
433.43	5248.94
433.64	5318.57
433.85	5224.37
434.06	5357.49
434.27	5304.24
434.49	5191.60
434.70	5433.26
434.91	5509.04
435.12	5609.39
435.33	5521.32
435.54	5478.32
435.75	5373.87
435.96	5513.13
436.17	5470.12
436.38	5578.67
436.59	5713.83
436.80	5601.19
437.01	5760.94
437.22	5814.18
437.43	5679.02
437.64	5498.80
437.85	5771.18
438.06	5838.76
438.27	5621.67
438.48	5795.75
438.69	5838.76
438.90	5846.95
439.11	5652.39
439.32	5865.38
439.53	5834.66
439.74	5754.79
439.95	5980.07
440.16	5932.97
440.37	5810.09
440.57	5797.80
440.78	6166.43
440.99	6188.96
441.20	6051.75
441.41	5889.96
441.62	5947.30
441.83	5875.62
442.04	6229.92
442.25	6051.75
442.46	6148.00
442.67	6377.37
442.88	6418.33
443.09	6039.46
443.30	6205.35
443.51	6262.69
443.72	6555.55
443.93	6102.95
444.14	6490.01
444.35	6301.60
444.56	6473.63
444.77	6293.41
444.98	6336.42
445.19	6457.25
445.40	6473.63
445.61	6420.38
445.81	6500.25
446.02	6598.56
446.23	6547.36
446.44	6463.39
446.65	6645.66
446.86	6553.50
447.07	6582.17
447.28	6684.57
447.49	6727.58
447.70	6659.99
447.91	6786.97
448.12	6805.40
448.33	6733.72
448.54	7004.05
448.74	6684.57
448.95	6911.89
449.16	6653.85
449.37	6969.24
449.58	6926.23
449.79	7024.53
450.00	6795.16
450.21	6961.05
450.42	7073.68
450.63	7096.21
450.84	7081.88
451.05	7098.26
451.25	7114.64
451.46	6961.05
451.67	7409.55
451.88	7354.26
452.09	7389.07
452.30	7258.00
452.51	7221.14
452.72	7477.13
452.93	7606.16
453.13	7241.62
453.34	7425.93
453.55	7462.80
453.76	7303.06
453.97	7757.71
454.18	7696.27
454.39	7550.86
454.60	7505.81
454.81	7579.53
455.01	7630.73
455.22	7403.41
455.43	7628.68
455.64	7995.27
455.85	8144.77
456.06	8073.09
456.27	7915.40
456.48	7905.16
456.68	7989.13
456.89	7958.41
457.10	8173.44
457.31	8019.85
457.52	8112.00
457.73	8005.51
457.94	8415.10
458.14	8077.19
458.35	8480.64
458.56	8212.35
458.77	8376.19
458.98	8396.67
459.19	8433.54
459.39	8650.62
459.60	8662.91
459.81	8423.30
460.02	8771.45
460.23	8685.44
460.44	8767.35
460.65	8816.51
460.85	8929.14
461.06	8798.07
461.27	8855.42
461.48	9021.30
461.69	9209.72
461.89	8953.72
462.10	9009.01
462.31	8771.45
462.52	9039.73
462.73	8982.39
462.94	9234.29
463.14	9248.63
463.35	9246.58
463.56	9840.49
463.77	9498.48
463.98	9248.63
464.18	9596.78
464.39	9613.17
464.60	9860.97
464.81	9697.13
465.02	9492.34
465.23	9768.81
465.43	9922.41
465.64	10096.49
465.85	9951.08
466.06	9598.83
466.27	10239.84
466.47	10157.92
466.68	10225.51
466.89	10090.34
467.10	10129.25
467.30	10123.11
467.51	10432.35
467.72	10628.96
467.93	10223.46
468.14	10432.35
468.34	10790.75
468.55	10661.73
468.76	10794.84
468.97	10571.61
469.17	10891.10
469.38	10841.95
469.59	11001.69
469.80	10964.82
470.01	10882.91
470.21	11079.51
470.42	11300.69
470.63	11220.82
470.84	11224.92
471.04	11442.00
471.25	11550.54
471.46	11493.20
471.67	11925.32
471.87	11501.39
472.08	11775.82
472.29	11906.89
472.50	11536.21
472.70	11622.22
472.91	11794.25
473.12	12056.39
473.33	12203.85
473.53	12336.96
473.74	11947.85
473.95	12388.16
474.16	12736.32
474.36	12539.71
474.57	12617.54
474.78	12818.24
474.99	12527.42
475.19	12689.21
475.40	12953.40
475.61	12996.41
475.81	13186.87
476.02	13252.41
476.23	13205.30
476.44	13375.28
476.64	13711.15
476.85	13727.53
477.06	13643.57
477.27	13666.10
477.47	13870.89
477.68	13999.91
477.89	13936.43
478.09	14028.59
478.30	13991.72
478.51	14255.91
478.71	14483.24
478.92	14315.30
479.13	14602.02
479.34	14692.13
479.54	14657.31
479.75	14810.91
479.96	15030.04
480.16	14858.01
480.37	14810.91
480.58	15048.47
480.78	15482.64
480.99	15267.61
481.20	15404.82
481.41	15382.29
481.61	15370.01
481.82	15746.83
482.03	15658.77
482.23	15554.32
482.44	16045.84
482.65	16031.50
482.85	16168.71
483.06	16301.83
483.27	16230.15
483.47	16051.98
483.68	16197.38
483.89	16473.86
484.09	16803.58
484.30	16822.02
484.51	16762.62
484.71	16920.32
484.92	16920.32
485.13	17116.92
485.33	17190.65
485.54	17264.38
485.75	17469.17
485.95	17368.82
486.16	17342.20
486.37	17678.07
486.57	17473.27
486.78	17682.16
486.98	17891.06
487.19	17909.49
487.40	17993.45
487.60	18056.94
487.81	18446.05
488.02	18216.68
488.22	18026.22
488.43	18636.52
488.64	18374.38
488.84	18736.87
489.05	18726.63
489.25	18722.53
489.46	19173.08
489.67	18904.80
489.87	19238.62
490.08	19355.35
490.29	19203.80
490.49	19615.44
490.70	19441.37
490.90	19893.97
491.11	19574.49
491.32	19756.75
491.52	19482.33
491.73	19572.44
491.94	19769.04
492.14	19734.23
492.35	20352.71
492.55	20254.41
492.76	20649.67
492.97	20297.42
493.17	20160.20
493.38	20420.30
493.58	20307.66
493.79	20866.75
494.00	20778.69
494.20	20856.51
494.41	20909.76
494.61	20999.87
494.82	21124.80
495.02	21126.85
495.23	21307.07
495.44	21343.93
495.64	21597.88
495.85	21581.49
496.05	21757.62
496.26	21542.58
496.47	21841.59
496.67	21653.17
496.88	21997.23
497.08	21784.24
497.29	22208.17
497.49	21935.79
497.70	22458.03
497.91	22372.01
498.11	22431.40
498.32	22320.81
498.52	22451.88
498.73	23000.74
498.93	22718.12
499.14	22857.38
499.34	22623.91
499.55	23099.04
499.76	23041.70
499.96	23158.43
500.17	22849.19
500.37	23031.46
500.58	23215.77
500.78	23408.28
500.99	23189.15
501.19	23799.44
501.40	23926.42
501.60	23582.36
501.81	23742.10
502.02	23907.99
502.22	23574.17
502.43	23944.85
502.63	24168.08
502.84	24221.33
503.04	23778.97
503.25	24102.54
503.45	24153.74
503.66	24340.11
503.86	24534.67
504.07	24501.90
504.27	24243.85
504.48	24759.94
504.68	24559.24
504.89	24630.92
505.09	24694.41
505.30	24991.36
505.50	25036.42
505.71	25075.33
505.91	25048.71
506.12	25228.93
506.32	25116.29
506.53	25196.16
506.73	25615.99
506.94	25677.43
507.14	25443.96
507.35	25333.37
507.55	25714.30
507.76	25613.95
507.96	25601.66
508.17	25683.58
508.37	25726.58
508.58	25671.29
508.78	25822.84
508.99	26281.58
509.19	25931.38
509.40	26158.70
509.60	26232.43
509.81	26283.63
510.01	26048.11
510.22	26312.30
510.42	26336.88
510.63	26719.85
510.83	26488.43
511.04	26261.10
511.24	26676.84
511.44	26734.18
511.65	26758.76
511.85	26410.60
512.06	27057.76
512.26	26928.74
512.47	27227.74
512.67	26771.05
512.88	27274.85
513.08	27000.42
513.29	27518.56
513.49	27102.82
513.69	27334.24
513.90	27348.57
514.10	27319.90
514.31	27555.42
514.51	27668.06
514.72	27467.36
514.92	27618.91
515.13	27735.64
515.33	27840.09
515.53	27795.03
515.74	27852.38
515.94	27989.59
516.15	28255.82
516.35	27969.11
516.56	27952.73
516.76	28040.79
516.96	28458.57
517.17	28495.44
517.37	28227.15
517.58	28309.07
517.78	28362.32
517.99	28558.92
518.19	28933.70
518.39	28601.93
518.60	28851.78
518.80	28702.28
519.01	28941.89
519.21	29107.78
519.41	29085.25
519.62	29218.37
519.82	29310.53
520.03	29290.05
520.23	29406.78
520.43	29505.09
520.64	29494.85
520.84	29920.82
521.05	29486.65
521.25	29972.02
521.45	29972.02
521.66	29949.50
521.86	30004.79
522.07	29994.55
522.27	30064.18
522.47	30379.57
522.68	30428.72
522.88	30146.10
523.08	30799.40
523.29	30305.84
523.49	30828.07
523.70	30594.61
523.90	30811.69
524.10	30694.96
524.31	31059.49
524.51	30793.26
524.71	31247.91
524.92	31186.47
525.12	31243.81
525.33	31260.20
525.53	31368.74
525.73	31454.75
525.94	31417.89
526.14	31594.01
526.34	31800.86
526.55	31772.19
526.75	31798.81
526.95	32259.60
527.16	31874.59
527.36	32017.94
527.56	32527.89
527.77	32357.91
527.97	32611.85
528.17	32572.94
528.38	32957.96
528.58	32876.04
528.78	33095.18
528.99	32767.50
529.19	32988.68
529.39	32603.66
529.60	33472.00
529.80	32931.34
530.00	33232.39
530.21	33809.92
530.41	33791.48
530.61	33807.87
530.82	33883.64
531.02	33529.34
531.22	33615.36
531.43	34029.05
531.63	34293.24
531.83	34371.06
532.04	34502.13
532.24	34174.45
532.44	34665.97
532.64	34586.10
532.85	34594.29
533.05	34850.28
533.25	34739.69
533.46	34717.17
533.66	35331.56
533.86	34776.56
534.07	35476.96
534.27	35356.13
534.47	35438.05
534.67	35884.51
534.88	35456.48
535.08	35626.46
535.28	35904.99
535.49	35892.70
535.69	36400.60
535.89	36019.67
536.09	36535.76
536.30	36652.50
536.50	36408.79
536.70	37084.62
536.91	36605.39
537.11	36656.59
537.31	37055.95
537.51	36640.21
537.72	37352.90
537.92	36994.51
538.12	37332.42
538.32	37074.38
538.53	37223.88
538.73	37197.26
538.93	37426.63
539.13	37440.96
539.34	37651.91
539.54	37506.50
539.74	37852.61
539.94	37569.99
540.15	37483.97
540.35	37905.85
540.55	38182.33
540.75	37909.95
540.96	38518.20
541.16	38430.13
541.36	38170.04
541.56	38194.62
541.77	38464.95
541.97	38309.30
542.17	38458.81
542.37	38884.78
542.58	39089.58
542.78	38350.26
542.98	38464.95
543.18	39122.35
543.38	39097.77
543.59	39226.79
543.79	39112.11
543.99	39128.49
544.19	39435.69
544.40	39560.61
544.60	39548.32
544.80	39536.04
545.00	39679.39
545.20	39767.46
545.41	39615.91
545.61	39820.70
545.81	39976.35
546.01	39933.34
546.21	39884.19
546.42	39812.51
546.62	40420.76
546.82	40050.08
547.02	39984.54
547.22	40431.00
547.43	40224.15
547.63	40455.57
547.83	40318.36
548.03	39892.38
548.23	41096.59
548.44	40682.90
548.64	40146.33
548.84	40672.66
549.04	40611.22
549.24	41096.59
549.45	41256.33
549.65	40656.28
549.85	40957.33
550.05	40873.36
550.25	40818.07
550.45	41270.67
550.66	41323.91
550.86	40891.79
551.06	41452.94
551.26	41201.04
551.46	41502.09
551.66	41188.75
551.87	41567.62
552.07	41524.61
552.27	41461.13
552.47	41864.58
552.67	41856.39
552.87	41942.40
553.07	41487.75
553.28	42048.89
553.48	42124.67
553.68	41923.97
553.88	42061.18
554.08	41831.81
554.28	41803.14
554.48	42003.84
554.69	42081.66
554.89	42247.55
555.09	42169.72
555.29	41819.52
555.49	42128.77
555.69	42476.92
555.89	42452.34
556.10	42743.16
556.30	42151.29
556.50	42376.57
556.70	42481.02
556.90	42548.60
557.10	42349.95
557.30	42374.52
557.50	42669.43
557.70	42315.13
557.91	42610.04
558.11	42710.39
558.31	42849.65
558.51	42714.48
558.71	43019.63
558.91	43222.38
559.11	42923.38
559.31	42876.27
559.51	42753.40
559.72	42849.65
559.92	43138.41
560.12	42833.27
560.32	42827.12
560.52	43142.51
560.72	43193.71
560.92	43437.42
561.12	42661.24
561.32	43472.23
561.52	43156.85
561.72	43603.30
561.93	43662.69
562.13	43572.58
562.33	43101.55
562.53	43955.55
562.73	43226.48
562.93	43505.00
563.13	43752.80
563.33	43500.90
563.53	43644.26
563.73	43507.05
563.93	43345.26
564.13	44213.60
564.33	43937.12
564.53	43994.46
564.74	43930.98
564.94	43539.82
565.14	43787.62
565.34	43607.40
565.54	43902.31
565.74	43830.63
565.94	43941.22
566.14	43953.51
566.34	43717.99
566.54	44037.47
566.74	43906.40
566.94	44217.69
567.14	44299.61
567.34	44139.87
567.54	44189.02
567.74	44481.88
567.94	44193.12
568.14	44445.02
568.34	44901.71
568.54	44324.19
568.74	44094.82
568.94	44391.77
569.14	44750.17
569.34	44438.87
569.54	44307.80
569.75	44080.48
569.95	44463.45
570.15	45188.43
570.35	44801.36
570.55	44780.88
570.75	44948.82
570.95	44805.46
571.15	44361.05
571.35	44490.07
571.55	44623.19
571.75	45077.84
571.95	44739.93
572.15	44748.12
572.35	45311.31
572.55	45229.39
572.75	44948.82
572.95	44877.14
573.15	45436.23
573.35	45104.46
573.55	45233.49
573.75	45028.69
573.95	45221.20
574.15	45333.84
574.35	45423.95
574.55	45374.80
574.75	45442.38
574.95	45120.85
575.15	45262.16
575.34	45681.99
575.54	45659.46
575.74	45905.22
575.94	45749.57
576.14	45524.30
576.34	46157.12
576.54	46046.53
576.74	45907.27
576.94	46099.78
577.14	45980.99
577.34	46368.06
577.54	45778.25
577.74	46486.84
577.94	46024.00
578.14	45903.17
578.34	46339.39
578.54	45907.27
578.74	46193.98
578.94	46282.05
579.14	46085.44
579.34	46208.32
579.54	46318.91
579.74	46912.82
579.94	46634.30
580.13	46548.28
580.33	46957.88
580.53	46601.53
580.73	47287.60
580.93	46535.99
581.13	47068.47
581.33	46826.81
581.53	46912.82
581.73	47240.50
581.93	47445.29
582.13	46988.60
582.33	47201.58
582.53	47310.13
582.73	47179.06
582.92	47129.90
583.12	47551.79
583.32	47453.48
583.52	47430.96
583.72	47768.87
583.92	47527.21
584.12	47719.72
584.32	48127.27
584.52	47977.76
584.72	47777.06
584.92	47910.18
585.11	48170.27
585.31	48020.77
585.51	48239.90
585.71	47709.48
585.91	48205.09
586.11	48026.92
586.31	48012.58
586.51	47850.79
586.71	48211.23
586.91	48295.20
587.10	48444.70
587.30	48878.87
587.50	48553.24
587.70	48272.67
587.90	48553.24
588.10	48655.64
588.30	48639.26
588.50	48866.58
