SpectraSuite Data File
++++++++++++++++++++++++++++++++++++
Date: Fri Jun 02 14:53:28 CEST 2017
User: INFO_000
Dark Spectrum Present: No
Reference Spectrum Present: No
Number of Sampled Component Spectra: 1
Spectrometers: USB4H00879
Integration Time (usec): 80000 (USB4H00879)
Spectra Averaged: 1 (USB4H00879)
Boxcar Smoothing: 0 (USB4H00879)
Correct for Electrical Dark: No (USB4H00879)
Strobe/Lamp Enabled: No (USB4H00879)
Correct for Detector Non-linearity: No (USB4H00879)
Correct for Stray Light: No (USB4H00879)
Number of Pixels in Processed Spectrum: 3648
>>>>>Begin Processed Spectral Data<<<<<
345.13	1312.75
345.34	1312.75
345.56	1312.75
345.78	1277.93
345.99	1284.08
346.21	1783.78
346.42	1771.49
346.64	1691.62
346.86	1775.59
347.07	1665.00
347.29	1767.40
347.50	1570.79
347.72	1599.46
347.94	1734.63
348.15	1634.28
348.37	1669.09
348.59	1675.24
348.80	1695.72
349.02	1744.87
349.23	1777.64
349.45	1691.62
349.67	1779.68
349.88	1779.68
350.10	1920.99
350.31	1757.16
350.53	1761.25
350.75	1937.38
350.96	1638.38
351.18	1777.64
351.39	1810.40
351.61	1755.11
351.82	1744.87
352.04	1877.99
352.26	1724.39
352.47	1830.88
352.69	1843.17
352.90	1689.57
353.12	1767.40
353.34	1765.35
353.55	1837.03
353.77	1822.69
353.98	1710.05
354.20	1660.90
354.41	1783.78
354.63	1802.21
354.85	1920.99
355.06	1830.88
355.28	1740.77
355.49	1855.46
355.71	1839.08
355.92	1728.49
356.14	1851.36
356.35	1705.96
356.57	1744.87
356.79	1910.75
357.00	1720.29
357.22	1908.71
357.43	1714.15
357.65	1765.35
357.86	1654.76
358.08	1742.82
358.29	1806.31
358.51	1900.52
358.72	1810.40
358.94	1796.07
359.16	1763.30
359.37	1814.50
359.59	1822.69
359.80	1931.23
360.02	1841.12
360.23	1839.08
360.45	1916.90
360.66	1830.88
360.88	1658.85
361.09	1802.21
361.31	1824.74
361.52	1751.01
361.74	1961.95
361.95	1941.47
362.17	1732.58
362.38	1914.85
362.60	1986.53
362.81	1867.75
363.03	1806.31
363.24	1751.01
363.46	2019.30
363.67	1918.95
363.89	1820.64
364.10	1832.93
364.32	1808.36
364.53	1908.71
364.75	1761.25
364.96	1861.60
365.18	1939.43
365.39	1884.13
365.61	1861.60
365.82	2002.91
366.04	1882.08
366.25	1773.54
366.47	1974.24
366.68	1947.62
366.90	1847.27
367.11	1847.27
367.33	1851.36
367.54	2019.30
367.76	1943.52
367.97	1998.82
368.19	1863.65
368.40	1978.34
368.62	1888.23
368.83	1716.20
369.05	1925.09
369.26	1761.25
369.48	1863.65
369.69	1865.70
369.91	1851.36
370.12	1816.55
370.33	1939.43
370.55	1804.26
370.76	1861.60
370.98	1929.19
371.19	1953.76
371.41	1839.08
371.62	1937.38
371.84	1886.18
372.05	1996.77
372.27	1839.08
372.48	1912.80
372.69	1912.80
372.91	2037.73
373.12	1970.15
373.34	1925.09
373.55	1941.47
373.77	1990.63
373.98	1886.18
374.20	2109.41
374.41	2140.13
374.62	1939.43
374.84	2052.06
375.05	1984.48
375.27	1990.63
375.48	2084.83
375.70	1988.58
375.91	2017.25
376.12	2222.05
376.34	1929.19
376.55	1961.95
376.77	1990.63
376.98	2076.64
377.19	1929.19
377.41	2015.20
377.62	2084.83
377.84	2183.13
378.05	2281.44
378.27	2064.35
378.48	2125.79
378.69	2211.81
378.91	2183.13
379.12	2121.70
379.34	2117.60
379.55	2168.80
379.76	2166.75
379.98	2052.06
380.19	2191.33
380.41	2152.42
380.62	2136.03
380.83	2142.18
381.05	2060.26
381.26	2306.01
381.47	2056.16
381.69	2068.45
381.90	2285.53
382.12	2189.28
382.33	2101.22
382.54	2142.18
382.76	2170.85
382.97	2211.81
383.19	2086.88
383.40	2367.45
383.61	2174.94
383.83	2242.53
384.04	2258.91
384.25	2269.15
384.47	2224.09
384.68	2207.71
384.89	2252.77
385.11	2199.52
385.32	2236.38
385.54	2271.20
385.75	2238.43
385.96	2361.31
386.18	2252.77
386.39	2336.73
386.60	2301.92
386.82	2287.58
387.03	2308.06
387.24	2396.12
387.46	2336.73
387.67	2392.03
387.88	2410.46
388.10	2375.64
388.31	2389.98
388.52	2519.00
388.74	2439.13
388.95	2346.97
389.16	2443.23
389.38	2402.27
389.59	2447.32
389.80	2572.25
390.02	2521.05
390.23	2533.34
390.44	2451.42
390.66	2451.42
390.87	2420.70
391.08	2510.81
391.30	2623.45
391.51	2627.54
391.72	2582.49
391.94	2541.53
392.15	2566.10
392.36	2535.39
392.58	2635.74
392.79	2576.34
393.00	2684.89
393.22	2703.32
393.43	2754.52
393.64	2834.39
393.85	2664.41
394.07	2783.19
394.28	2660.31
394.49	2738.13
394.71	2723.80
394.92	2844.63
395.13	2621.40
395.35	2717.65
395.56	2678.74
395.77	2744.28
395.98	2910.16
396.20	2695.13
396.41	2770.90
396.62	2910.16
396.84	2777.05
397.05	2815.96
397.26	2936.79
397.47	2985.94
397.69	2967.51
397.90	3024.85
398.11	2985.94
398.32	2887.64
398.54	2867.16
398.75	2889.68
398.96	3039.19
399.18	3071.95
399.39	3051.47
399.60	3016.66
399.81	2955.22
400.03	2981.84
400.24	3286.99
400.45	3002.32
400.66	3074.00
400.88	3061.71
401.09	3110.86
401.30	3057.62
401.51	3082.19
401.73	3135.44
401.94	3129.30
402.15	3168.21
402.36	3106.77
402.58	3057.62
402.79	3254.22
403.00	3252.17
403.21	3270.61
403.43	3241.93
403.64	3368.91
403.85	3155.92
404.06	3227.60
404.27	3010.51
404.49	3303.37
404.70	3209.17
404.91	3305.42
405.12	3266.51
405.34	3131.34
405.55	3489.74
405.76	3147.73
405.97	3184.59
406.19	3366.86
406.40	3237.84
406.61	3387.34
406.82	3375.05
407.03	3483.59
407.25	3258.32
407.46	3440.59
407.67	3399.63
407.88	3442.64
408.09	3385.29
408.31	3424.20
408.52	3553.23
408.73	3389.39
408.94	3397.58
409.15	3473.36
409.37	3542.99
409.58	3653.58
409.79	3502.03
410.00	3549.13
410.21	3434.44
410.43	3495.88
410.64	3401.68
410.85	3542.99
411.06	3583.95
411.27	3600.33
411.48	3585.99
411.70	3518.41
411.91	3637.19
412.12	3649.48
412.33	3555.27
412.54	3581.90
412.76	3796.93
412.97	3735.50
413.18	3477.45
413.39	3626.95
413.60	3688.39
413.81	3696.58
414.03	3606.47
414.24	3661.77
414.45	3901.38
414.66	3655.62
414.87	3792.84
415.08	3813.32
415.30	3629.00
415.51	3764.17
415.72	3762.12
415.93	3731.40
416.14	3878.85
416.35	3835.85
416.56	3805.13
416.78	3796.93
416.99	3940.29
417.20	3938.24
417.41	3952.58
417.62	3954.63
417.83	4061.12
418.04	4063.17
418.26	3989.44
418.47	3928.00
418.68	4026.31
418.89	3850.18
419.10	4202.43
419.31	4054.98
419.52	4018.11
419.73	3878.85
419.95	4196.29
420.16	4052.93
420.37	4059.07
420.58	4138.94
420.79	3944.39
421.00	4085.70
421.21	4202.43
421.42	4265.92
421.63	4147.14
421.85	4204.48
422.06	4161.47
422.27	4192.19
422.48	4102.08
422.69	4108.23
422.90	4421.56
423.11	4388.80
423.32	4210.62
423.53	4468.67
423.75	4437.95
423.96	4640.70
424.17	4480.96
424.38	4513.72
424.59	4605.88
424.80	4663.22
425.01	4501.44
425.22	4485.05
425.43	4476.86
425.64	4753.34
425.85	4646.84
426.06	4622.27
426.28	4587.45
426.49	4499.39
426.70	4642.75
426.91	4728.76
427.12	4741.05
427.33	4763.58
427.54	4675.51
427.75	4745.14
427.96	4779.96
428.17	4757.43
428.38	4698.04
428.59	4913.08
428.80	4925.36
429.01	4878.26
429.23	4753.34
429.44	5130.16
429.65	5035.96
429.86	5015.48
430.07	4865.97
430.28	4968.37
430.49	5048.24
430.70	5130.16
430.91	5142.45
431.12	5035.96
431.33	5306.29
431.54	5070.77
431.75	5302.19
431.96	5160.88
432.17	5201.84
432.38	5107.63
432.59	5414.83
432.80	5296.05
433.01	5328.81
433.22	5197.74
433.43	5388.21
433.64	5316.53
433.85	5181.36
434.06	5429.17
434.27	5423.02
434.49	5584.81
434.70	5484.46
434.91	5502.89
435.12	5500.84
435.33	5572.52
435.54	5533.61
435.75	5367.73
435.96	5494.70
436.17	5238.70
436.38	5732.26
436.59	5762.98
436.80	5693.35
437.01	5758.89
437.22	5732.26
437.43	5752.74
437.64	5545.90
437.85	5760.94
438.06	5664.68
438.27	5746.60
438.48	5707.69
438.69	5818.28
438.90	5754.79
439.11	5771.18
439.32	5939.11
439.53	5859.24
439.74	6021.03
439.95	6027.17
440.16	5994.40
440.37	5910.44
440.57	5914.53
440.78	6203.30
440.99	6035.36
441.20	6033.32
441.41	5873.57
441.62	6156.19
441.83	5908.39
442.04	6119.33
442.25	6088.61
442.46	6115.23
442.67	6092.71
442.88	6623.13
443.09	6064.04
443.30	6109.09
443.51	6279.07
443.72	6461.34
443.93	6119.33
444.14	6381.47
444.35	6121.38
444.56	6375.33
444.77	6387.61
444.98	6408.09
445.19	6455.20
445.40	6397.85
445.61	6356.90
445.81	6694.81
446.02	6721.43
446.23	6492.06
446.44	6332.32
446.65	6621.08
446.86	6700.95
447.07	6709.15
447.28	6682.52
447.49	6805.40
447.70	6506.40
447.91	6676.38
448.12	6848.41
448.33	6848.41
448.54	6834.07
448.74	6680.47
448.95	6817.69
449.16	6674.33
449.37	6940.57
449.58	6893.46
449.79	7016.34
450.00	6934.42
450.21	7008.15
450.42	7024.53
450.63	7053.20
450.84	7157.65
451.05	7014.29
451.25	7002.01
451.46	7053.20
451.67	7405.46
451.88	7270.29
452.09	7280.53
452.30	7040.92
452.51	7241.62
452.72	7442.32
452.93	7540.62
453.13	7413.65
453.34	7309.20
453.55	7415.69
453.76	7202.71
453.97	7679.88
454.18	7475.09
454.39	7593.87
454.60	7536.52
454.81	7698.31
455.01	7761.80
455.22	7462.80
455.43	7864.20
455.64	7905.16
455.85	8030.09
456.06	8011.65
456.27	7864.20
456.48	7856.01
456.68	7899.02
456.89	8038.28
457.10	8114.05
457.31	8075.14
457.52	8003.46
457.73	8032.13
457.94	8490.88
458.14	8073.09
458.35	8310.66
458.56	8290.18
458.77	8185.73
458.98	8456.06
459.19	8404.86
459.39	8560.51
459.60	8499.07
459.81	8400.77
460.02	8652.67
460.23	8636.28
460.44	8769.40
460.65	8591.23
460.85	8912.76
461.06	8884.09
461.27	8431.49
461.48	9072.50
461.69	9017.21
461.89	8791.93
462.10	9070.45
462.31	8892.28
462.52	9082.74
462.73	9047.93
462.94	9330.55
463.14	9125.75
463.35	9146.23
463.56	9656.17
463.77	9521.01
463.98	9262.96
464.18	9473.90
464.39	9576.30
464.60	9670.51
464.81	9697.13
465.02	9635.69
465.23	9901.93
465.43	9688.94
465.64	9840.49
465.85	9914.22
466.06	9820.01
466.27	10073.96
466.47	10276.71
466.68	10325.86
466.89	10180.45
467.10	10254.18
467.30	10080.10
467.51	10321.76
467.72	10528.61
467.93	10272.61
468.14	10415.97
468.34	10446.69
468.55	10444.64
468.76	10721.12
468.97	10631.01
469.17	10764.12
469.38	10862.43
469.59	11145.05
469.80	10895.19
470.01	10860.38
470.21	11009.88
470.42	11376.47
470.63	11161.43
470.84	11394.90
471.04	11325.27
471.25	11505.49
471.46	11304.79
471.67	11698.00
471.87	11585.36
472.08	11738.96
472.29	11859.79
472.50	11669.33
472.70	11714.38
472.91	11908.94
473.12	12123.98
473.33	12242.76
473.53	12398.40
473.74	12277.57
473.95	12375.88
474.16	12375.88
474.36	12322.63
474.57	12758.85
474.78	12736.32
474.99	12769.09
475.19	12547.90
475.40	12797.76
475.61	12988.22
475.81	13092.66
476.02	13190.97
476.23	13164.34
476.44	13334.32
476.64	13612.85
476.85	13717.29
477.06	13573.94
477.27	13866.80
477.47	13758.25
477.68	13795.12
477.89	14073.64
478.09	14204.71
478.30	14178.09
478.51	14241.57
478.71	14657.31
478.92	14526.24
479.13	14595.87
479.34	14649.12
479.54	14597.92
479.75	14788.38
479.96	14790.43
480.16	15036.19
480.37	15064.86
480.58	15279.89
480.78	15619.86
480.99	15511.32
481.20	15490.84
481.41	15564.56
481.61	15634.19
481.82	15916.81
482.03	15759.12
482.23	15742.74
482.44	15957.77
482.65	16359.17
482.85	16299.78
483.06	16037.64
483.27	16324.36
483.47	16393.99
483.68	16490.24
483.89	16727.81
484.09	16568.07
484.30	16830.21
484.51	16846.59
484.71	17137.40
484.92	17032.96
485.13	17123.07
485.33	17227.51
485.54	17260.28
485.75	17463.03
485.95	17696.50
486.16	17876.72
486.37	17956.59
486.57	17864.43
486.78	17798.90
486.98	17993.45
487.19	17835.76
487.40	18226.92
487.60	18317.03
487.81	18108.14
488.02	18403.05
488.22	18636.52
488.43	18415.34
488.64	18818.78
488.84	18857.70
489.05	18962.14
489.25	18740.96
489.46	19085.02
489.67	19091.16
489.87	19255.00
490.08	19332.82
490.29	19470.04
490.49	19783.38
490.70	19910.35
490.90	19984.08
491.11	19420.89
491.32	19779.28
491.52	19760.85
491.73	19807.95
491.94	20262.60
492.14	20207.31
492.35	20365.00
492.55	20367.05
492.76	20412.10
492.97	20602.57
493.17	20479.69
493.38	20799.17
493.58	21128.89
493.79	21030.59
494.00	20780.74
494.20	20897.47
494.41	21173.95
494.61	21348.03
494.82	21259.96
495.02	21241.53
495.23	21685.94
495.44	21552.82
495.64	21810.87
495.85	21778.10
496.05	22005.42
496.26	21952.18
496.47	22238.89
496.67	21911.22
496.88	22636.20
497.08	22476.46
497.29	22335.15
497.49	22613.67
497.70	22580.90
497.91	22288.04
498.11	22845.09
498.32	22761.12
498.52	22793.89
498.73	23053.98
498.93	22922.91
499.14	23221.92
499.34	23002.78
499.55	22992.55
499.76	22777.51
499.96	23400.09
500.17	23615.13
500.37	23344.80
500.58	23631.51
500.78	23686.81
500.99	23500.44
501.19	23963.28
501.40	24008.34
501.60	23957.14
501.81	23877.27
502.02	23864.98
502.22	23565.98
502.43	24032.91
502.63	24376.97
502.84	24565.39
503.04	24448.65
503.25	24356.49
503.45	24497.80
503.66	24217.23
503.86	24610.44
504.07	24704.65
504.27	24536.71
504.48	24983.17
504.68	24940.16
504.89	25413.24
505.09	25112.19
505.30	25005.70
505.50	25077.38
505.71	25212.54
505.91	25101.95
506.12	25159.30
506.32	25052.80
506.53	25538.17
506.73	25761.40
506.94	25466.49
507.14	25626.23
507.35	25702.01
507.55	25917.04
507.76	26150.51
507.96	25826.93
508.17	25601.66
508.37	25943.67
508.58	26050.16
508.78	26050.16
508.99	26334.83
509.19	26130.03
509.40	26160.75
509.60	26408.56
509.81	26439.28
510.01	26470.00
510.22	26637.93
510.42	26365.55
510.63	26664.55
510.83	26703.46
511.04	26705.51
511.24	26971.75
511.44	26740.33
511.65	26938.98
511.85	26871.40
512.06	27043.43
512.26	27051.62
512.47	27336.29
512.67	27174.50
512.88	27430.49
513.08	26961.51
513.29	27309.66
513.49	27375.20
513.69	27477.60
513.90	27424.35
514.10	27653.72
514.31	27657.82
514.51	27739.74
514.72	27792.98
514.92	27610.71
515.13	28012.12
515.33	28048.98
515.53	27879.00
515.74	27954.77
515.94	28055.12
516.15	28173.91
516.35	28130.90
516.56	28149.33
516.76	28266.06
516.96	28079.70
517.17	28298.83
517.37	28550.73
517.58	28556.88
517.78	28632.65
517.99	28581.45
518.19	28851.78
518.39	28778.06
518.60	29187.65
518.80	29130.31
519.01	29001.29
519.21	29060.68
519.41	29304.38
519.62	29378.11
519.82	29324.86
520.03	29331.01
520.23	29400.64
520.43	29191.75
520.64	29832.76
520.84	29859.38
521.05	29701.69
521.25	29918.78
521.45	29771.32
521.66	30051.89
521.86	29601.34
522.07	30156.34
522.27	30154.29
522.47	30242.35
522.68	30475.82
522.88	30099.00
523.08	30582.32
523.29	30172.72
523.49	30654.00
523.70	30555.69
523.90	30783.02
524.10	30877.22
524.31	30953.00
524.51	31151.65
524.71	31317.54
524.92	31174.18
525.12	31176.23
525.33	31385.12
525.53	31409.70
525.73	31653.40
525.94	31508.00
526.14	31581.73
526.34	31735.32
526.55	31819.29
526.75	31958.55
526.95	32069.14
527.16	31913.50
527.36	32054.81
527.56	32421.39
527.77	32460.30
527.97	32482.83
528.17	32433.68
528.38	32775.69
528.58	32742.92
528.78	32587.28
528.99	32364.05
529.19	33005.06
529.39	32466.45
529.60	32871.95
529.80	32775.69
530.00	32597.52
530.21	33424.90
530.41	33324.55
530.61	33197.57
530.82	33154.57
531.02	33510.91
531.22	33783.29
531.43	33707.52
531.63	34358.77
531.83	34135.54
532.04	34422.26
532.24	34379.25
532.44	34602.48
532.64	34536.94
532.85	34162.17
533.05	34725.36
533.25	34424.31
533.46	34915.82
533.66	34883.05
533.86	34928.11
534.07	35534.31
534.27	34956.78
534.47	35292.65
534.67	35261.93
534.88	35296.74
535.08	35501.54
535.28	35313.13
535.49	35495.39
535.69	35843.55
535.89	36126.17
536.09	35784.16
536.30	36509.14
536.50	36060.63
536.70	36249.05
536.91	36269.53
537.11	36500.95
537.31	36376.02
537.51	36654.54
537.72	36629.97
537.92	36961.74
538.12	37074.38
538.32	36943.31
538.53	37242.31
538.73	37064.14
538.93	37326.28
539.13	37144.01
539.34	37346.76
539.54	37375.43
539.74	37313.99
539.94	37572.03
540.15	37146.06
540.35	37447.11
540.55	37934.53
540.75	37524.93
540.96	37770.69
541.16	37705.15
541.36	37854.65
541.56	38147.51
541.77	38081.98
541.97	38084.03
542.17	38434.23
542.37	38462.90
542.58	38634.93
542.78	38120.89
542.98	38641.07
543.18	38401.46
543.38	39081.39
543.59	38911.41
543.79	38780.34
543.99	38649.27
544.19	39228.84
544.40	39058.86
544.60	39277.99
544.80	39257.51
545.00	39384.49
545.20	39681.44
545.41	39290.28
545.61	39544.23
545.81	39613.86
546.01	39585.19
546.21	39466.41
546.42	39058.86
546.62	40271.26
546.82	39374.25
547.02	40025.50
547.22	39900.58
547.43	39894.43
547.63	39949.73
547.83	39988.64
548.03	39892.38
548.23	40424.86
548.44	40105.37
548.64	40179.10
548.84	40193.43
549.04	40310.17
549.24	40336.79
549.45	40732.05
549.65	40512.92
549.85	40213.91
550.05	40682.90
550.25	40543.64
550.45	41538.95
550.66	41108.88
550.86	40760.72
551.06	40838.54
551.26	41098.64
551.46	40918.42
551.66	41198.99
551.87	40902.03
552.07	41381.26
552.27	41340.30
552.47	41643.40
552.67	41454.98
552.87	41633.16
553.07	41874.82
553.28	41854.34
553.48	41803.14
553.68	41799.04
553.88	41575.81
554.08	41463.18
554.28	41708.93
554.48	41590.15
554.69	41909.63
554.89	41866.63
555.09	41868.67
555.29	41966.98
555.49	42218.88
555.69	42335.61
555.89	41958.78
556.10	42571.13
556.30	42130.81
556.50	42227.07
556.70	42397.05
556.90	42536.31
557.10	43007.34
557.30	42497.40
557.50	42734.96
557.70	42841.46
557.91	43308.40
558.11	42655.09
558.31	42775.92
558.51	42618.23
558.71	43056.50
558.91	43056.50
559.11	42595.70
559.31	43064.69
559.51	42630.52
559.72	43152.75
559.92	43103.60
560.12	42800.50
560.32	43255.15
560.52	43373.93
560.72	43169.13
560.92	43386.22
561.12	43318.64
561.32	43875.68
561.52	43023.73
561.72	43996.51
561.93	43085.17
562.13	43464.04
562.33	43621.73
562.53	44006.75
562.73	43621.73
562.93	43736.42
563.13	44074.34
563.33	43857.25
563.53	43982.18
563.73	43713.89
563.93	44049.76
564.13	44246.36
564.33	44242.27
564.53	43947.36
564.74	44129.63
564.94	43826.53
565.14	44078.43
565.34	43896.16
565.54	44307.80
565.74	44326.24
565.94	44461.40
566.14	44107.10
566.34	44350.81
566.54	44942.67
566.74	44215.65
566.94	44610.90
567.14	44582.23
567.34	44322.14
567.54	44909.91
567.74	44565.85
567.94	44588.38
568.14	45079.89
568.34	44875.09
568.54	45002.07
568.74	45006.16
568.94	44856.66
569.14	45131.09
569.34	44860.76
569.54	45077.84
569.75	44944.72
569.95	45227.34
570.15	45294.92
570.35	45170.00
570.55	45323.60
570.75	45360.46
570.95	45720.90
571.15	45509.96
571.35	45673.80
571.55	45688.13
571.75	45366.60
571.95	45438.28
572.15	44977.49
572.35	45651.27
572.55	45548.87
572.75	45817.16
572.95	45909.32
573.15	45823.30
573.35	45888.84
573.55	45641.03
573.75	45970.75
573.95	45800.77
574.15	45663.56
574.35	46069.06
574.55	45913.41
574.75	45929.80
574.95	45921.60
575.15	45942.08
575.34	46302.53
575.54	46384.44
575.74	46736.69
575.94	46396.73
576.14	46556.47
576.34	46859.57
576.54	46667.06
576.74	46648.63
576.94	46921.01
577.14	47207.73
577.34	47004.98
577.54	46544.19
577.74	46640.44
577.94	46933.30
578.14	46861.62
578.34	47312.17
578.54	46685.50
578.74	47131.95
578.94	47447.34
579.14	46679.35
579.34	46916.92
579.54	47209.78
579.74	47519.02
579.94	47314.22
580.13	47672.62
580.33	47355.18
580.53	47645.99
580.73	47406.38
580.93	47439.15
581.13	47641.90
581.33	48053.54
581.53	48276.77
581.73	48190.75
581.93	48117.03
582.13	47893.80
582.33	47957.28
582.53	47992.10
582.73	48364.83
582.92	48121.12
583.12	48452.89
583.32	48123.17
583.52	48141.60
583.72	48416.03
583.92	48309.53
584.12	48674.07
584.32	48735.51
584.52	48631.07
584.72	48471.32
584.92	48436.51
585.11	49175.83
585.31	49030.42
585.51	48866.58
585.71	48915.73
585.91	48960.79
586.11	48774.42
586.31	48739.61
586.51	49280.27
586.71	49237.26
586.91	49239.31
587.10	49200.40
587.30	49069.33
587.50	49085.72
587.70	49212.69
587.90	49153.30
588.10	49196.31
588.30	49177.87
588.50	49763.59
