SpectraSuite Data File
++++++++++++++++++++++++++++++++++++
Date: Fri Jun 02 14:53:30 CEST 2017
User: INFO_000
Dark Spectrum Present: No
Reference Spectrum Present: No
Number of Sampled Component Spectra: 1
Spectrometers: USB4H00879
Integration Time (usec): 80000 (USB4H00879)
Spectra Averaged: 1 (USB4H00879)
Boxcar Smoothing: 0 (USB4H00879)
Correct for Electrical Dark: No (USB4H00879)
Strobe/Lamp Enabled: No (USB4H00879)
Correct for Detector Non-linearity: No (USB4H00879)
Correct for Stray Light: No (USB4H00879)
Number of Pixels in Processed Spectrum: 3648
>>>>>Begin Processed Spectral Data<<<<<
345.13	1290.22
345.34	1290.22
345.56	1290.22
345.78	1275.88
345.99	1249.26
346.21	1673.19
346.42	1781.73
346.64	1738.73
346.86	1798.12
347.07	1636.33
347.29	1648.61
347.50	1628.14
347.72	1650.66
347.94	1705.96
348.15	1595.37
348.37	1617.90
348.59	1634.28
348.80	1634.28
349.02	1800.16
349.23	1814.50
349.45	1808.36
349.67	1888.23
349.88	1830.88
350.10	1986.53
350.31	1773.54
350.53	1796.07
350.75	1957.86
350.96	1810.40
351.18	1896.42
351.39	1894.37
351.61	1783.78
351.82	1890.28
352.04	1931.23
352.26	1841.12
352.47	1945.57
352.69	1935.33
352.90	1763.30
353.12	1896.42
353.34	1888.23
353.55	1894.37
353.77	1882.08
353.98	1828.84
354.20	1859.56
354.41	1904.61
354.63	1961.95
354.85	2084.83
355.06	1970.15
355.28	1783.78
355.49	1914.85
355.71	1869.80
355.92	1877.99
356.14	1871.84
356.35	1951.71
356.57	1884.13
356.79	1867.75
357.00	1802.21
357.22	2009.06
357.43	1875.94
357.65	2025.44
357.86	1880.04
358.08	1912.80
358.29	1837.03
358.51	1984.48
358.72	1875.94
358.94	1886.18
359.16	1916.90
359.37	1953.76
359.59	1949.67
359.80	1957.86
360.02	1972.19
360.23	1978.34
360.45	2037.73
360.66	1935.33
360.88	1863.65
361.09	1918.95
361.31	1937.38
361.52	1918.95
361.74	2088.93
361.95	2023.39
362.17	1966.05
362.38	2072.54
362.60	2029.54
362.81	1994.72
363.03	1966.05
363.24	2019.30
363.46	2035.68
363.67	2041.82
363.89	2013.15
364.10	2047.97
364.32	2045.92
364.53	2052.06
364.75	1904.61
364.96	2041.82
365.18	2033.63
365.39	2097.12
365.61	1941.47
365.82	2115.55
366.04	2019.30
366.25	2025.44
366.47	2088.93
366.68	2068.45
366.90	1953.76
367.11	2127.84
367.33	2109.41
367.54	2078.69
367.76	1998.82
367.97	2148.32
368.19	2000.87
368.40	2058.21
368.62	1980.39
368.83	2017.25
369.05	2033.63
369.26	1970.15
369.48	2015.20
369.69	2072.54
369.91	2080.74
370.12	1935.33
370.33	2162.66
370.55	1996.77
370.76	2052.06
370.98	2086.88
371.19	2095.07
371.41	2050.02
371.62	2156.51
371.84	2019.30
372.05	2224.09
372.27	2109.41
372.48	2144.22
372.69	2103.26
372.91	2174.94
373.12	2203.61
373.34	2015.20
373.55	2179.04
373.77	2117.60
373.98	2117.60
374.20	2131.94
374.41	2254.81
374.62	2176.99
374.84	2158.56
375.05	2265.05
375.27	2142.18
375.48	2244.57
375.70	2215.90
375.91	2228.19
376.12	2334.68
376.34	2133.98
376.55	2166.75
376.77	2254.81
376.98	2260.96
377.19	2115.55
377.41	2170.85
377.62	2209.76
377.84	2289.63
378.05	2344.92
378.27	2203.61
378.48	2269.15
378.69	2336.73
378.91	2375.64
379.12	2283.49
379.34	2316.25
379.55	2263.01
379.76	2314.20
379.98	2195.42
380.19	2287.58
380.41	2371.55
380.62	2420.70
380.83	2265.05
381.05	2260.96
381.26	2422.75
381.47	2297.82
381.69	2289.63
381.90	2428.89
382.12	2314.20
382.33	2191.33
382.54	2318.30
382.76	2334.68
382.97	2246.62
383.19	2263.01
383.40	2344.92
383.61	2338.78
383.83	2269.15
384.04	2416.60
384.25	2330.59
384.47	2396.12
384.68	2422.75
384.89	2320.35
385.11	2330.59
385.32	2369.50
385.54	2404.32
385.75	2373.60
385.96	2381.79
386.18	2502.62
386.39	2389.98
386.60	2412.51
386.82	2475.99
387.03	2461.66
387.24	2430.94
387.46	2394.08
387.67	2490.33
387.88	2508.76
388.10	2465.75
388.31	2455.51
388.52	2654.17
388.74	2570.20
388.95	2504.67
389.16	2486.23
389.38	2572.25
389.59	2607.06
389.80	2641.88
390.02	2529.24
390.23	2576.34
390.44	2564.06
390.66	2480.09
390.87	2572.25
391.08	2648.02
391.30	2688.98
391.51	2578.39
391.72	2709.46
391.94	2605.02
392.15	2656.22
392.36	2668.50
392.58	2590.68
392.79	2672.60
393.00	2746.33
393.22	2734.04
393.43	2805.72
393.64	2779.09
393.85	2752.47
394.07	2717.65
394.28	2719.70
394.49	2809.81
394.71	2742.23
394.92	2842.58
395.13	2789.33
395.35	2762.71
395.56	2781.14
395.77	2764.76
395.98	2840.53
396.20	2889.68
396.41	2906.07
396.62	2848.72
396.84	2813.91
397.05	2899.92
397.26	2947.03
397.47	3024.85
397.69	2846.68
397.90	3088.34
398.11	2949.08
398.32	2887.64
398.54	2992.08
398.75	3000.27
398.96	2944.98
399.18	3088.34
399.39	2973.65
399.60	3080.14
399.81	2959.31
400.03	2918.36
400.24	3303.37
400.45	2965.46
400.66	3090.38
400.88	2969.55
401.09	3289.04
401.30	3166.16
401.51	3192.78
401.73	3278.80
401.94	3133.39
402.15	3045.33
402.36	3149.78
402.58	3182.54
402.79	3182.54
403.00	3137.49
403.21	3276.75
403.43	3270.61
403.64	3334.09
403.85	3127.25
404.06	3362.76
404.27	3119.06
404.49	3200.98
404.70	3180.50
404.91	3352.52
405.12	3256.27
405.34	3334.09
405.55	3512.27
405.76	3172.30
405.97	3241.93
406.19	3344.33
406.40	3309.52
406.61	3334.09
406.82	3399.63
407.03	3311.57
407.25	3327.95
407.46	3450.83
407.67	3473.36
407.88	3432.40
408.09	3362.76
408.31	3407.82
408.52	3461.07
408.73	3348.43
408.94	3362.76
409.15	3553.23
409.37	3465.16
409.58	3411.92
409.79	3485.64
410.00	3639.24
410.21	3375.05
410.43	3612.62
410.64	3444.68
410.85	3590.09
411.06	3571.66
411.27	3538.89
411.48	3553.23
411.70	3661.77
411.91	3612.62
412.12	3622.86
412.33	3704.78
412.54	3569.61
412.76	3758.02
412.97	3678.15
413.18	3575.75
413.39	3657.67
413.60	3731.40
413.81	3672.01
414.03	3690.44
414.24	3674.06
414.45	3864.52
414.66	3626.95
414.87	3819.46
415.08	3743.69
415.30	3755.97
415.51	3749.83
415.72	3751.88
415.93	3727.30
416.14	3755.97
416.35	3835.85
416.56	3895.24
416.78	3846.09
416.99	3858.37
417.20	3899.33
417.41	3934.15
417.62	3831.75
417.83	3993.54
418.04	3882.95
418.26	3999.68
418.47	4044.74
418.68	4100.03
418.89	4073.41
419.10	4136.90
419.31	3954.63
419.52	4024.26
419.73	4030.40
419.95	4003.78
420.16	3975.11
420.37	4046.79
420.58	4108.23
420.79	4085.70
421.00	4259.78
421.21	4188.10
421.42	4034.50
421.63	4292.54
421.85	4138.94
422.06	4153.28
422.27	4417.47
422.48	4227.01
422.69	4401.08
422.90	4282.30
423.11	4243.39
423.32	4345.79
423.53	4353.98
423.75	4368.32
423.96	4470.72
424.17	4464.57
424.38	4476.86
424.59	4360.13
424.80	4566.97
425.01	4394.94
425.22	4435.90
425.43	4507.58
425.64	4603.83
425.85	4739.00
426.06	4493.24
426.28	4523.96
426.49	4521.92
426.70	4581.31
426.91	4714.42
427.12	4657.08
427.33	4714.42
427.54	4700.09
427.75	4704.18
427.96	4700.09
428.17	4870.07
428.38	4761.53
428.59	4947.89
428.80	4896.69
429.01	4939.70
429.23	4829.11
429.44	4941.75
429.65	5019.57
429.86	5015.48
430.07	4919.22
430.28	5005.24
430.49	5033.91
430.70	5066.67
430.91	5093.30
431.12	5044.15
431.33	5179.31
431.54	5111.73
431.75	5185.46
431.96	5179.31
432.17	5099.44
432.38	5074.87
432.59	5480.36
432.80	5353.39
433.01	5263.28
433.22	5433.26
433.43	5412.78
433.64	5341.10
433.85	5232.56
434.06	5480.36
434.27	5349.29
434.49	5345.20
434.70	5547.95
434.91	5449.64
435.12	5513.13
435.33	5576.62
435.54	5509.04
435.75	5398.45
435.96	5412.78
436.17	5337.01
436.38	5597.10
436.59	5701.54
436.80	5550.00
437.01	5740.46
437.22	5711.78
437.43	5754.79
437.64	5748.65
437.85	5920.68
438.06	5849.00
438.27	5824.42
438.48	5799.85
438.69	5812.14
438.90	5926.82
439.11	5668.78
439.32	5830.57
439.53	5975.97
439.74	5918.63
439.95	6025.12
440.16	5871.53
440.37	5975.97
440.57	5775.27
440.78	6139.81
440.99	6174.63
441.20	5990.31
441.41	5963.68
441.62	6184.87
441.83	5853.09
442.04	6092.71
442.25	6084.52
442.46	6201.25
442.67	6215.59
442.88	6778.78
443.09	6152.10
443.30	6295.46
443.51	6274.98
443.72	6528.92
443.93	6238.11
444.14	6565.79
444.35	6227.87
444.56	6375.33
444.77	6375.33
444.98	6334.37
445.19	6414.24
445.40	6406.05
445.61	6414.24
445.81	6631.32
446.02	6631.32
446.23	6494.11
446.44	6559.64
446.65	6602.65
446.86	6596.51
447.07	6713.24
447.28	6809.50
447.49	6846.36
447.70	6696.86
447.91	6612.89
448.12	6705.05
448.33	6932.37
448.54	6723.48
448.74	6725.53
448.95	6930.33
449.16	6795.16
449.37	7047.06
449.58	6881.18
449.79	7204.75
450.00	6969.24
450.21	7018.39
450.42	7096.21
450.63	7219.09
450.84	6922.13
451.05	7141.27
451.25	7147.41
451.46	6956.95
451.67	7337.87
451.88	7258.00
452.09	7286.67
452.30	7153.55
452.51	7249.81
452.72	7425.93
452.93	7610.25
453.13	7319.44
453.34	7470.99
453.55	7335.82
453.76	7176.08
453.97	7804.81
454.18	7382.93
454.39	7735.18
454.60	7425.93
454.81	7618.44
455.01	7847.82
455.22	7468.94
455.43	7647.12
455.64	7776.14
455.85	7839.62
456.06	8079.24
456.27	7747.47
456.48	7810.95
456.68	8023.94
456.89	8075.14
457.10	8114.05
457.31	7978.89
457.52	8030.09
457.73	8021.89
457.94	8345.47
458.14	8222.59
458.35	8478.59
458.56	8255.36
458.77	8253.31
458.98	8292.23
459.19	8226.69
459.39	8351.62
459.60	8591.23
459.81	8316.80
460.02	8503.17
460.23	8619.90
460.44	8802.17
460.65	8570.75
460.85	8662.91
461.06	8966.01
461.27	8513.41
461.48	8994.68
461.69	8941.43
461.89	8636.28
462.10	8859.51
462.31	8777.59
462.52	8789.88
462.73	8955.77
462.94	9160.56
463.14	9160.56
463.35	9133.94
463.56	9498.48
463.77	9490.29
463.98	9113.46
464.18	9269.11
464.39	9441.14
464.60	9662.32
464.81	9635.69
465.02	9705.32
465.23	9856.87
465.43	9666.41
465.64	9881.45
465.85	9707.37
466.06	9920.36
466.27	10133.35
466.47	10039.14
466.68	10084.20
466.89	9998.18
467.10	10227.56
467.30	10014.57
467.51	10405.73
467.72	10506.08
467.93	10231.65
468.14	10413.92
468.34	10379.11
468.55	10559.33
468.76	10653.53
468.97	10489.70
469.17	10717.02
469.38	10880.86
469.59	10940.25
469.80	10833.75
470.01	10864.47
470.21	10897.24
470.42	11212.63
470.63	11171.67
470.84	11171.67
471.04	11415.38
471.25	11210.58
471.46	11216.72
471.67	11546.45
471.87	11630.41
472.08	11577.17
472.29	11519.82
472.50	11597.65
472.70	11624.27
472.91	11595.60
473.12	11849.55
473.33	12062.54
473.53	12257.09
473.74	12134.21
473.95	12592.96
474.16	12377.92
474.36	12552.00
474.57	12431.17
474.78	12681.02
474.99	12578.62
475.19	12711.74
475.40	12969.79
475.61	13012.79
475.81	13018.94
476.02	13342.52
476.23	12906.30
476.44	13274.93
476.64	13731.63
476.85	13784.88
477.06	13504.31
477.27	13961.00
477.47	13961.00
477.68	14059.31
477.89	13934.38
478.09	13993.77
478.30	14167.85
478.51	13903.66
478.71	14204.71
478.92	14288.68
479.13	14370.60
479.34	14675.74
479.54	14718.75
479.75	14769.95
479.96	14894.88
480.16	14843.68
480.37	14878.49
480.58	15118.11
480.78	15294.23
480.99	15306.52
481.20	15560.47
481.41	15417.11
481.61	15634.19
481.82	15791.89
482.03	15728.40
482.23	15673.10
482.44	16398.09
482.65	16228.10
482.85	16185.10
483.06	16234.25
483.27	16465.67
483.47	16248.58
483.68	16377.61
483.89	16686.85
484.09	16824.06
484.30	16742.14
484.51	16973.56
484.71	17139.45
484.92	17204.99
485.13	16951.04
485.33	17446.65
485.54	17168.12
485.75	17487.61
485.95	17768.18
486.16	17577.72
486.37	18102.00
486.57	17794.80
486.78	17891.06
486.98	17981.17
487.19	18097.90
487.40	18276.07
487.60	18349.80
487.81	18595.56
488.02	18362.09
488.22	18269.93
488.43	18444.01
488.64	18806.50
488.84	18812.64
489.05	18927.33
489.25	18767.59
489.46	19074.78
489.67	18990.81
489.87	19533.53
490.08	19402.46
490.29	19285.72
490.49	20035.28
490.70	19932.88
490.90	19934.93
491.11	19627.73
491.32	19844.82
491.52	20266.70
491.73	20278.99
491.94	20260.55
492.14	20432.58
492.35	20776.64
492.55	20479.69
492.76	20680.39
492.97	20629.19
493.17	20805.31
493.38	21014.21
493.58	21202.62
493.79	21253.82
494.00	21042.88
494.20	21184.19
494.41	21284.54
494.61	21681.85
494.82	21575.35
495.02	21728.95
495.23	21692.08
495.44	21706.42
495.64	22060.72
495.85	21952.18
496.05	22169.26
496.26	22046.38
496.47	22435.50
496.67	22312.62
496.88	22541.99
497.08	21968.56
497.29	22613.67
497.49	22486.70
497.70	22904.48
497.91	22718.12
498.11	22834.85
498.32	22892.19
498.52	23013.02
498.73	23330.46
498.93	23342.75
499.14	23502.49
499.34	23162.53
499.55	23531.16
499.76	23111.33
499.96	23365.28
500.17	23807.64
500.37	23791.25
500.58	23740.05
500.78	23922.32
500.99	24026.77
501.19	24084.11
501.40	23985.81
501.60	23901.84
501.81	24424.08
502.02	24266.38
502.22	23871.12
502.43	24708.74
502.63	24501.90
502.84	24626.82
503.04	24549.00
503.25	24346.25
503.45	24727.17
503.66	24880.77
503.86	24768.13
504.07	25257.60
504.27	24827.53
504.48	25310.85
504.68	25069.19
504.89	25300.61
505.09	25067.14
505.30	25382.52
505.50	25400.96
505.71	25585.27
505.91	25646.71
506.12	25570.94
506.32	25462.40
506.53	25806.45
506.73	25769.59
506.94	26115.70
507.14	25706.10
507.35	25953.91
507.55	25726.58
507.76	26183.28
507.96	26271.34
508.17	26373.74
508.37	26400.37
508.58	26234.48
508.78	26728.04
508.99	26875.49
509.19	26517.10
509.40	26728.04
509.60	26472.04
509.81	26848.87
510.01	26680.94
510.22	26478.19
510.42	26857.06
510.63	26590.83
510.83	26756.71
511.04	26707.56
511.24	27104.87
511.44	27246.18
511.65	27190.88
511.85	27133.54
512.06	27008.61
512.26	27082.34
512.47	27221.60
512.67	27393.63
512.88	27569.76
513.08	27092.58
513.29	27770.46
513.49	27295.33
513.69	27618.91
513.90	27618.91
514.10	27246.18
514.31	27780.70
514.51	27758.17
514.72	27760.22
514.92	27612.76
515.13	27711.07
515.33	27913.81
515.53	27854.42
515.74	28085.84
515.94	28409.42
516.15	27985.49
516.35	27815.51
516.56	28223.06
516.76	28077.65
516.96	28231.25
517.17	28569.16
517.37	28294.74
517.58	28481.10
517.78	28679.75
517.99	28716.62
518.19	28935.75
518.39	28851.78
518.60	28974.66
518.80	28972.61
519.01	29036.10
519.21	29056.58
519.41	29165.12
519.62	29042.24
519.82	29496.89
520.03	29316.67
520.23	29259.33
520.43	29285.95
520.64	29554.24
520.84	29898.30
521.05	29541.95
521.25	29613.63
521.45	29615.68
521.66	29818.42
521.86	29808.19
522.07	30080.56
522.27	29722.17
522.47	30201.40
522.68	30375.47
522.88	30211.64
523.08	30262.83
523.29	30512.69
523.49	30574.13
523.70	30572.08
523.90	30451.25
524.10	30344.75
524.31	30694.96
524.51	30553.65
524.71	31221.28
524.92	31018.53
525.12	30903.85
525.33	31204.90
525.53	30783.02
525.73	31088.17
525.94	31559.20
526.14	31553.05
526.34	31565.34
526.55	31317.54
526.75	31249.96
526.95	32122.39
527.16	31690.27
527.36	31817.24
527.56	32036.38
527.77	32243.22
527.97	31847.96
528.17	32136.73
528.38	32396.82
528.58	32335.38
528.78	32216.60
528.99	32554.51
529.19	32990.73
529.39	32388.63
529.60	33039.88
529.80	32554.51
530.00	32802.32
530.21	32900.62
530.41	33650.17
530.61	32953.87
530.82	33175.05
531.02	33181.19
531.22	33312.26
531.43	33697.28
531.63	33472.00
531.83	33949.18
532.04	33965.56
532.24	33672.70
532.44	34162.17
532.64	34452.98
532.85	34098.68
533.05	34094.58
533.25	34522.61
533.46	34307.57
533.66	34889.20
533.86	34522.61
534.07	34973.16
534.27	34715.12
534.47	35055.08
534.67	35108.33
534.88	34829.80
535.08	34948.59
535.28	35470.82
535.49	35442.15
535.69	35648.99
535.89	35681.76
536.09	35614.18
536.30	35780.06
536.50	35663.33
536.70	35692.00
536.91	36365.78
537.11	36257.24
537.31	36259.29
537.51	36308.44
537.72	36541.91
537.92	36429.27
538.12	36916.68
538.32	36625.87
538.53	36957.64
538.73	36666.83
538.93	36582.87
539.13	36865.49
539.34	37070.28
539.54	36908.49
539.74	36955.60
539.94	37094.86
540.15	36967.88
540.35	37459.40
540.55	37494.21
540.75	37496.26
540.96	37541.32
541.16	37682.62
541.36	37539.27
541.56	37598.66
541.77	37817.79
541.97	37492.16
542.17	37795.26
542.37	37940.67
542.58	38305.21
542.78	38086.07
542.98	38133.18
543.18	38151.61
543.38	38727.09
543.59	38493.62
543.79	38493.62
543.99	38618.55
544.19	38745.52
544.40	38639.03
544.60	39208.36
544.80	38565.30
545.00	39263.66
545.20	39275.94
545.41	39267.75
545.61	38792.62
545.81	39867.81
546.01	39679.39
546.21	39671.20
546.42	39632.29
546.62	39665.06
546.82	39722.40
547.02	39755.17
547.22	40072.60
547.43	39912.86
547.63	40134.04
547.83	39785.89
548.03	40101.28
548.23	39992.73
548.44	40109.47
548.64	40347.03
548.84	40674.71
549.04	40021.41
549.24	40273.31
549.45	40852.88
549.65	40385.94
549.85	40562.07
550.05	40607.12
550.25	40527.25
550.45	41047.44
550.66	40617.36
550.86	40574.36
551.06	41280.91
551.26	41129.36
551.46	41104.78
551.66	40955.28
551.87	41100.68
552.07	41559.43
552.27	41252.23
552.47	41403.78
552.67	41592.20
552.87	41299.34
553.07	41477.51
553.28	41495.94
553.48	41651.59
553.68	41815.43
553.88	41817.47
554.08	42149.24
554.28	41901.44
554.48	42050.94
554.69	42130.81
554.89	41569.67
555.09	42091.90
555.29	41809.28
555.49	42124.67
555.69	42319.23
555.89	42112.38
556.10	42452.34
556.30	42395.00
556.50	42192.25
556.70	42296.70
556.90	43007.34
557.10	42462.58
557.30	42685.81
557.50	42759.54
557.70	42579.32
557.91	43001.20
558.11	42941.81
558.31	42921.33
558.51	42923.38
558.71	42970.48
558.91	43070.83
559.11	42964.34
559.31	42941.81
559.51	42626.42
559.72	42894.71
559.92	43521.38
560.12	43373.93
560.32	43605.35
560.52	42988.91
560.72	43799.91
560.92	43509.10
561.12	43509.10
561.32	43674.98
561.52	43535.72
561.72	43795.81
561.93	43687.27
562.13	43763.04
562.33	43750.76
562.53	43955.55
562.73	43625.83
562.93	43992.42
563.13	44025.18
563.33	43701.61
563.53	43969.89
563.73	43830.63
563.93	44574.04
564.13	44070.24
564.33	44088.67
564.53	44168.54
564.74	44674.39
564.94	44000.61
565.14	44316.00
565.34	43949.41
565.54	44434.78
565.74	44561.75
565.94	44936.53
566.14	44293.47
566.34	44655.96
566.54	44815.70
566.74	44574.04
566.94	44836.18
567.14	44932.43
567.34	44545.37
567.54	44909.91
567.74	44836.18
567.94	44807.51
568.14	45139.28
568.34	45350.22
568.54	45301.07
568.74	45286.73
568.94	45260.11
569.14	45442.38
569.34	45135.18
569.54	45610.31
569.75	45198.67
569.95	45393.23
570.15	46015.81
570.35	45448.52
570.55	45444.43
570.75	45798.73
570.95	45796.68
571.15	45430.09
571.35	45647.18
571.55	45847.88
571.75	45688.13
571.95	45681.99
572.15	45393.23
572.35	45944.13
572.55	45823.30
572.75	46095.68
572.95	46290.24
573.15	46480.70
573.35	45874.50
573.55	45915.46
573.75	46376.25
573.95	46312.77
574.15	45970.75
574.35	46529.85
574.55	46298.43
574.75	46388.54
574.95	46916.92
575.15	46417.21
575.34	46685.50
575.54	46767.41
575.74	47027.51
575.94	46818.61
576.14	47043.89
576.34	47111.47
576.54	47117.62
576.74	47142.19
576.94	46548.28
577.14	47402.28
577.34	47557.93
577.54	47007.03
577.74	47410.48
577.94	47711.53
578.14	47682.86
578.34	47719.72
578.54	47306.03
578.74	47168.82
578.94	47390.00
579.14	47549.74
579.34	47228.21
579.54	47887.65
579.74	48043.30
579.94	47742.25
580.13	47746.34
580.33	47914.28
580.53	48223.52
580.73	48010.53
580.93	47863.08
581.13	47904.04
581.33	48334.11
581.53	48436.51
581.73	48215.33
581.93	48495.90
582.13	48368.93
582.33	49024.28
582.53	48235.81
582.73	48661.79
582.92	48649.50
583.12	49061.14
583.32	48606.49
583.52	48469.28
583.72	48825.62
583.92	48741.66
584.12	49132.82
584.32	49722.63
584.52	49497.36
584.72	48956.69
584.92	49202.45
585.11	49511.69
585.31	49059.09
585.51	49530.12
585.71	49472.78
585.91	49700.11
586.11	49200.40
586.31	48909.59
586.51	49616.14
586.71	49478.92
586.91	49739.02
587.10	49784.07
587.30	50064.64
587.50	49992.97
587.70	50027.78
587.90	50083.08
588.10	49984.77
588.30	49730.83
588.50	50337.02
