SpectraSuite Data File
++++++++++++++++++++++++++++++++++++
Date: Fri Jun 02 14:53:29 CEST 2017
User: INFO_000
Dark Spectrum Present: No
Reference Spectrum Present: No
Number of Sampled Component Spectra: 1
Spectrometers: USB4H00879
Integration Time (usec): 80000 (USB4H00879)
Spectra Averaged: 1 (USB4H00879)
Boxcar Smoothing: 0 (USB4H00879)
Correct for Electrical Dark: No (USB4H00879)
Strobe/Lamp Enabled: No (USB4H00879)
Correct for Detector Non-linearity: No (USB4H00879)
Correct for Stray Light: No (USB4H00879)
Number of Pixels in Processed Spectrum: 3648
>>>>>Begin Processed Spectral Data<<<<<
345.13	1290.22
345.34	1290.22
345.56	1290.22
345.78	1286.12
345.99	1202.16
346.21	1689.57
346.42	1624.04
346.64	1703.91
346.86	1779.68
347.07	1673.19
347.29	1740.77
347.50	1636.33
347.72	1693.67
347.94	1740.77
348.15	1611.75
348.37	1617.90
348.59	1748.97
348.80	1695.72
349.02	1769.44
349.23	1882.08
349.45	1718.25
349.67	1855.46
349.88	1814.50
350.10	1966.05
350.31	1830.88
350.53	1785.83
350.75	1951.71
350.96	1767.40
351.18	1841.12
351.39	1828.84
351.61	1742.82
351.82	1871.84
352.04	1802.21
352.26	1810.40
352.47	1875.94
352.69	1888.23
352.90	1755.11
353.12	1769.44
353.34	1728.49
353.55	1994.72
353.77	1841.12
353.98	1843.17
354.20	1767.40
354.41	1910.75
354.63	1988.58
354.85	2033.63
355.06	1830.88
355.28	1779.68
355.49	1861.60
355.71	1955.81
355.92	1877.99
356.14	1873.89
356.35	1814.50
356.57	1882.08
356.79	1947.62
357.00	1912.80
357.22	1953.76
357.43	1869.80
357.65	1945.57
357.86	1828.84
358.08	1945.57
358.29	1914.85
358.51	1978.34
358.72	1978.34
358.94	1898.47
359.16	1894.37
359.37	1949.67
359.59	1933.28
359.80	2019.30
360.02	1896.42
360.23	1900.52
360.45	1966.05
360.66	1916.90
360.88	1884.13
361.09	1906.66
361.31	1978.34
361.52	1982.43
361.74	1976.29
361.95	2146.27
362.17	1947.62
362.38	2004.96
362.60	2093.02
362.81	1941.47
363.03	1957.86
363.24	2023.39
363.46	2039.78
363.67	1982.43
363.89	2050.02
364.10	1976.29
364.32	1933.28
364.53	2045.92
364.75	1896.42
364.96	2002.91
365.18	2045.92
365.39	1986.53
365.61	2015.20
365.82	2088.93
366.04	1992.67
366.25	1951.71
366.47	2082.78
366.68	2074.59
366.90	2025.44
367.11	2015.20
367.33	2097.12
367.54	2058.21
367.76	2062.30
367.97	2080.74
368.19	2017.25
368.40	2086.88
368.62	1978.34
368.83	1947.62
369.05	2037.73
369.26	1994.72
369.48	2047.97
369.69	1923.04
369.91	1984.48
370.12	1976.29
370.33	2121.70
370.55	1951.71
370.76	2004.96
370.98	2074.59
371.19	2043.87
371.41	2050.02
371.62	2047.97
371.84	2060.26
372.05	2207.71
372.27	2035.68
372.48	2035.68
372.69	2088.93
372.91	2207.71
373.12	2179.04
373.34	2033.63
373.55	2189.28
373.77	2176.99
373.98	2133.98
374.20	2140.13
374.41	2242.53
374.62	2183.13
374.84	2117.60
375.05	2220.00
375.27	2115.55
375.48	2158.56
375.70	2150.37
375.91	2230.24
376.12	2295.77
376.34	2183.13
376.55	2197.47
376.77	2293.72
376.98	2185.18
377.19	2115.55
377.41	2162.66
377.62	2215.90
377.84	2314.20
378.05	2303.96
378.27	2150.37
378.48	2375.64
378.69	2213.85
378.91	2289.63
379.12	2224.09
379.34	2269.15
379.55	2242.53
379.76	2314.20
379.98	2191.33
380.19	2295.77
380.41	2265.05
380.62	2402.27
380.83	2263.01
381.05	2205.66
381.26	2363.36
381.47	2222.05
381.69	2295.77
381.90	2410.46
382.12	2271.20
382.33	2295.77
382.54	2312.16
382.76	2289.63
382.97	2322.40
383.19	2232.29
383.40	2334.68
383.61	2263.01
383.83	2271.20
384.04	2369.50
384.25	2469.85
384.47	2435.03
384.68	2441.18
384.89	2351.07
385.11	2316.25
385.32	2359.26
385.54	2430.94
385.75	2377.69
385.96	2480.09
386.18	2453.47
386.39	2451.42
386.60	2381.79
386.82	2490.33
387.03	2422.75
387.24	2363.36
387.46	2459.61
387.67	2475.99
387.88	2543.58
388.10	2516.95
388.31	2525.15
388.52	2527.19
388.74	2578.39
388.95	2492.38
389.16	2510.81
389.38	2482.14
389.59	2609.11
389.80	2633.69
390.02	2525.15
390.23	2625.50
390.44	2594.78
390.66	2545.63
390.87	2486.23
391.08	2570.20
391.30	2680.79
391.51	2645.98
391.72	2719.70
391.94	2627.54
392.15	2639.83
392.36	2598.87
392.58	2635.74
392.79	2770.90
393.00	2752.47
393.22	2676.70
393.43	2772.95
393.64	2832.34
393.85	2844.63
394.07	2578.39
394.28	2693.08
394.49	2748.37
394.71	2787.29
394.92	2924.50
395.13	2756.57
395.35	2645.98
395.56	2688.98
395.77	2781.14
395.98	2889.68
396.20	2803.67
396.41	2906.07
396.62	2887.64
396.84	2762.71
397.05	2865.11
397.26	2934.74
397.47	2987.99
397.69	2766.81
397.90	3067.86
398.11	2932.69
398.32	2957.27
398.54	2865.11
398.75	2908.12
398.96	3047.38
399.18	3200.98
399.39	2922.45
399.60	2965.46
399.81	3055.57
400.03	3108.82
400.24	3266.51
400.45	2994.13
400.66	3043.28
400.88	2990.03
401.09	3254.22
401.30	3127.25
401.51	3104.72
401.73	3061.71
401.94	3196.88
402.15	3121.10
402.36	3114.96
402.58	3172.30
402.79	3084.24
403.00	3178.45
403.21	3256.27
403.43	3254.22
403.64	3264.46
403.85	3170.26
404.06	3262.41
404.27	3248.08
404.49	3239.89
404.70	3190.74
404.91	3321.81
405.12	3198.93
405.34	3295.18
405.55	3401.68
405.76	3131.34
405.97	3401.68
406.19	3334.09
406.40	3264.46
406.61	3332.05
406.82	3348.43
407.03	3366.86
407.25	3352.52
407.46	3461.07
407.67	3362.76
407.88	3497.93
408.09	3446.73
408.31	3260.37
408.52	3422.16
408.73	3395.53
408.94	3463.12
409.15	3530.70
409.37	3495.88
409.58	3510.22
409.79	3428.30
410.00	3559.37
410.21	3352.52
410.43	3463.12
410.64	3475.40
410.85	3522.51
411.06	3481.55
411.27	3516.36
411.48	3696.58
411.70	3542.99
411.91	3594.19
412.12	3594.19
412.33	3510.22
412.54	3674.06
412.76	3755.97
412.97	3729.35
413.18	3612.62
413.39	3680.20
413.60	3633.10
413.81	3735.50
414.03	3764.17
414.24	3688.39
414.45	3870.66
414.66	3604.42
414.87	3848.13
415.08	3772.36
415.30	3870.66
415.51	3850.18
415.72	3692.49
415.93	3803.08
416.14	3805.13
416.35	3821.51
416.56	3903.43
416.78	3852.23
416.99	3885.00
417.20	3774.41
417.41	4011.97
417.62	3891.14
417.83	4116.42
418.04	3868.61
418.26	3979.20
418.47	3966.92
418.68	3891.14
418.89	3964.87
419.10	4016.07
419.31	4048.83
419.52	4052.93
419.73	4026.31
419.95	4198.34
420.16	4030.40
420.37	4022.21
420.58	4106.18
420.79	3973.06
421.00	4097.99
421.21	4085.70
421.42	4040.64
421.63	4067.27
421.85	4140.99
422.06	4224.96
422.27	4177.86
422.48	4247.49
422.69	4196.29
422.90	4358.08
423.11	4356.03
423.32	4331.45
423.53	4224.96
423.75	4345.79
423.96	4446.14
424.17	4382.65
424.38	4638.65
424.59	4386.75
424.80	4523.96
425.01	4399.04
425.22	4335.55
425.43	4497.34
425.64	4628.41
425.85	4730.81
426.06	4599.74
426.28	4593.59
426.49	4437.95
426.70	4640.70
426.91	4663.22
427.12	4665.27
427.33	4751.29
427.54	4706.23
427.75	4741.05
427.96	4917.17
428.17	4798.39
428.38	4865.97
428.59	4898.74
428.80	4716.47
429.01	5013.43
429.23	4779.96
429.44	4902.84
429.65	5023.67
429.86	5001.14
430.07	4951.99
430.28	4829.11
430.49	5035.96
430.70	5136.31
430.91	5152.69
431.12	4972.47
431.33	5267.38
431.54	5236.66
431.75	5066.67
431.96	5140.40
432.17	5281.71
432.38	5179.31
432.59	5418.93
432.80	5404.59
433.01	5273.52
433.22	5435.31
433.43	5248.94
433.64	5586.86
433.85	5337.01
434.06	5398.45
434.27	5420.97
434.49	5463.98
434.70	5648.30
434.91	5392.30
435.12	5633.96
435.33	5468.08
435.54	5593.00
435.75	5375.92
435.96	5625.77
436.17	5418.93
436.38	5642.15
436.59	5732.26
436.80	5533.61
437.01	5873.57
437.22	5754.79
437.43	5793.70
437.64	5545.90
437.85	5787.56
438.06	5797.80
438.27	5728.17
438.48	5672.87
438.69	5777.32
438.90	5838.76
439.11	5832.62
439.32	5949.35
439.53	5984.16
439.74	5986.21
439.95	6000.55
440.16	5998.50
440.37	5873.57
440.57	5861.29
440.78	6074.28
440.99	6082.47
441.20	6064.04
441.41	5967.78
441.62	6047.65
441.83	6078.37
442.04	6100.90
442.25	6160.29
442.46	6113.19
442.67	6229.92
442.88	6606.75
443.09	6004.64
443.30	6170.53
443.51	6084.52
443.72	6356.90
443.93	6227.87
444.14	6469.53
444.35	6242.21
444.56	6430.62
444.77	6274.98
444.98	6432.67
445.19	6602.65
445.40	6229.92
445.61	6354.85
445.81	6496.16
446.02	6602.65
446.23	6520.73
446.44	6225.82
446.65	6578.08
446.86	6535.07
447.07	6633.37
447.28	6700.95
447.49	6641.56
447.70	6637.47
447.91	6752.15
448.12	6762.39
448.33	6713.24
448.54	6786.97
448.74	6780.82
448.95	6883.22
449.16	6668.19
449.37	7147.41
449.58	6825.88
449.79	7073.68
450.00	6813.59
450.21	6879.13
450.42	7024.53
450.63	7217.04
450.84	6979.48
451.05	7085.97
451.25	7014.29
451.46	7069.59
451.67	7092.12
451.88	7147.41
452.09	7182.23
452.30	7286.67
452.51	7104.40
452.72	7282.58
452.93	7653.26
453.13	7243.67
453.34	7214.99
453.55	7509.90
453.76	7384.98
453.97	7704.46
454.18	7323.54
454.39	7653.26
454.60	7481.23
454.81	7505.81
455.01	7759.75
455.22	7378.83
455.43	7761.80
455.64	7880.58
455.85	7847.82
456.06	7978.89
456.27	7896.97
456.48	7718.79
456.68	7915.40
456.89	7915.40
457.10	7937.93
457.31	7853.96
457.52	8048.52
457.73	8105.86
457.94	8310.66
458.14	8095.62
458.35	8400.77
458.56	8155.01
458.77	8144.77
458.98	8357.76
459.19	8368.00
459.39	8419.20
459.60	8583.04
459.81	8411.01
460.02	8714.11
460.23	8472.45
460.44	8935.29
460.65	8724.35
460.85	8744.83
461.06	8904.57
461.27	8636.28
461.48	9172.85
461.69	9037.69
461.89	8716.16
462.10	8810.36
462.31	8818.55
462.52	8933.24
462.73	9043.83
462.94	9348.98
463.14	9314.16
463.35	9113.46
463.56	9615.21
463.77	9697.13
463.98	9262.96
464.18	9432.94
464.39	9406.32
464.60	9668.46
464.81	9705.32
465.02	9820.01
465.23	9813.87
465.43	9629.55
465.64	9989.99
465.85	10012.52
466.06	9918.31
466.27	9899.88
466.47	10073.96
466.68	10123.11
466.89	10164.07
467.10	10274.66
467.30	9983.85
467.51	10268.52
467.72	10426.21
467.93	10395.49
468.14	10334.05
468.34	10401.63
468.55	10659.68
468.76	10602.33
468.97	10555.23
469.17	10846.04
469.38	10817.37
469.59	11081.56
469.80	10733.40
470.01	11034.46
470.21	10966.87
470.42	11382.61
470.63	11265.88
470.84	11153.24
471.04	11597.65
471.25	11415.38
471.46	11534.16
471.67	11843.40
471.87	11607.89
472.08	11820.88
472.29	12033.86
472.50	11722.57
472.70	11732.81
472.91	11798.35
473.12	12191.56
473.33	12250.95
473.53	12162.89
473.74	12193.61
473.95	12539.71
474.16	12480.32
474.36	12574.53
474.57	12797.76
474.78	12734.27
474.99	12719.93
475.19	12554.05
475.40	12922.68
475.61	13201.21
475.81	13158.20
476.02	13256.50
476.23	13258.55
476.44	13451.06
476.64	13535.03
476.85	13760.30
477.06	13596.46
477.27	13799.21
477.47	13874.99
477.68	13899.56
477.89	14239.53
478.09	14120.74
478.30	14167.85
478.51	14337.83
478.71	14376.74
478.92	14542.63
479.13	14716.70
479.34	14800.67
479.54	14751.52
479.75	14941.98
479.96	14993.18
480.16	15128.35
480.37	15066.91
480.58	15406.87
480.78	15320.85
480.99	15343.38
481.20	15568.66
481.41	15705.87
481.61	15873.81
481.82	16111.37
482.03	15681.30
482.23	15662.86
482.44	15902.48
482.65	16299.78
482.85	16244.49
483.06	16283.40
483.27	16258.82
483.47	16150.28
483.68	16557.83
483.89	16688.90
484.09	16527.11
484.30	16932.61
484.51	17090.30
484.71	17247.99
484.92	17116.92
485.13	17143.55
485.33	17311.48
485.54	17344.25
485.75	17575.67
485.95	17583.86
486.16	17436.41
486.37	17721.07
486.57	17837.81
486.78	18040.56
486.98	17854.19
487.19	18149.10
487.40	18110.19
487.60	18075.37
487.81	18376.42
488.02	18284.26
488.22	18536.17
488.43	18761.44
488.64	18593.51
488.84	18745.06
489.05	18898.66
489.25	18591.46
489.46	19318.49
489.67	18941.66
489.87	19166.94
490.08	19302.11
490.29	19418.84
490.49	19629.78
490.70	19676.88
490.90	20025.04
491.11	19384.02
491.32	19943.12
491.52	19715.80
491.73	19875.54
491.94	19975.89
492.14	20033.23
492.35	20199.12
492.55	20256.46
492.76	20408.01
492.97	20367.05
493.17	20641.48
493.38	20811.46
493.58	20692.68
493.79	20586.18
494.00	20659.91
494.20	20838.08
494.41	20977.34
494.61	21092.03
494.82	20977.34
495.02	20967.10
495.23	21395.13
495.44	21348.03
495.64	21565.11
495.85	21571.25
496.05	21722.80
496.26	21692.08
496.47	21716.66
496.67	21919.41
496.88	22300.33
497.08	21817.01
497.29	22193.84
497.49	22138.54
497.70	22498.98
497.91	22351.53
498.11	22345.39
498.32	22515.37
498.52	22443.69
498.73	23090.85
498.93	22658.73
499.14	22750.88
499.34	22699.69
499.55	23109.28
499.76	23045.79
499.96	22941.35
500.17	23035.55
500.37	23314.08
500.58	23164.57
500.78	23506.59
500.99	23387.80
501.19	23428.76
501.40	23572.12
501.60	23207.58
501.81	23590.55
502.02	23840.40
502.22	23709.33
502.43	24069.78
502.63	24024.72
502.84	24217.23
503.04	24432.27
503.25	24413.84
503.45	24321.68
503.66	24663.69
503.86	24336.01
504.07	24927.88
504.27	24659.59
504.48	24757.89
504.68	24741.51
504.89	24972.93
505.09	24970.88
505.30	25089.67
505.50	24903.30
505.71	25187.97
505.91	25310.85
506.12	25271.93
506.32	25357.95
506.53	25171.58
506.73	25187.97
506.94	25509.50
507.14	25360.00
507.35	25630.33
507.55	25767.54
507.76	25785.97
507.96	25775.73
508.17	25747.06
508.37	26003.06
508.58	25693.82
508.78	26211.95
508.99	26115.70
509.19	26103.41
509.40	26451.56
509.60	26140.27
509.81	26340.97
510.01	26424.94
510.22	26521.20
510.42	26181.23
510.63	26732.14
510.83	26599.02
511.04	26547.82
511.24	27070.05
511.44	26887.78
511.65	27223.65
511.85	26914.41
512.06	27248.22
512.26	27192.93
512.47	27262.56
512.67	26990.18
512.88	27321.95
513.08	26570.35
513.29	27149.92
513.49	27446.88
513.69	27764.31
513.90	27631.19
514.10	27864.66
514.31	27655.77
514.51	27508.32
514.72	27627.10
514.92	27856.47
515.13	28016.21
515.33	27987.54
515.53	27997.78
515.74	27811.42
515.94	28216.91
516.15	28362.32
516.35	28247.63
516.56	28632.65
516.76	28444.24
516.96	28302.93
517.17	28565.07
517.37	29007.43
517.58	28477.01
517.78	28675.66
517.99	28667.47
518.19	29048.39
518.39	28913.22
518.60	29085.25
518.80	29177.41
519.01	29292.10
519.21	29310.53
519.41	28952.13
519.62	29064.77
519.82	29494.85
520.03	29380.16
520.23	29439.55
520.43	29402.69
520.64	29832.76
520.84	29709.88
521.05	29965.88
521.25	29894.20
521.45	29769.27
521.66	30154.29
521.86	30543.41
522.07	30322.23
522.27	30217.78
522.47	30232.11
522.68	30752.30
522.88	30457.39
523.08	30590.51
523.29	30950.95
523.49	30725.68
523.70	30901.80
523.90	31243.81
524.10	31110.69
524.31	31077.93
524.51	30756.39
524.71	31464.99
524.92	31301.15
525.12	31161.89
525.33	31243.81
525.53	31727.13
525.73	32009.75
525.94	31684.12
526.14	31596.06
526.34	31727.13
526.55	31585.82
526.75	32003.61
526.95	31907.35
527.16	32230.93
527.36	32101.91
527.56	32661.01
527.77	32765.45
527.97	32736.78
528.17	32488.98
528.38	32886.28
528.58	32704.01
528.78	32925.19
528.99	32988.68
529.19	33261.06
529.39	32704.01
529.60	33478.15
529.80	33142.28
530.00	33332.74
530.21	33537.54
530.41	33670.65
530.61	33418.75
530.82	33670.65
531.02	33760.76
531.22	33799.68
531.43	33957.37
531.63	34063.86
531.83	34346.48
532.04	34487.79
532.24	34096.63
532.44	34764.27
532.64	34352.63
532.85	34549.23
533.05	34334.20
533.25	34668.02
533.46	34590.19
533.66	35184.10
533.86	35163.62
534.07	35071.46
534.27	35202.53
534.47	35599.84
534.67	35958.24
534.88	35069.42
535.08	35839.45
535.28	35651.04
535.49	35950.04
535.69	36349.40
535.89	36050.39
536.09	35821.02
536.30	36392.40
536.50	36247.00
536.70	36392.40
536.91	36263.38
537.11	36369.88
537.31	36390.36
537.51	36505.04
537.72	36822.48
537.92	37289.42
538.12	37199.30
538.32	36912.59
538.53	37088.71
538.73	37057.99
538.93	36980.17
539.13	37033.42
539.34	37225.93
539.54	37193.16
539.74	37397.96
539.94	37275.08
540.15	37088.71
540.35	37455.30
540.55	37354.95
540.75	37711.30
540.96	37422.53
541.16	37713.34
541.36	37598.66
541.56	38272.44
541.77	38172.09
541.97	38567.35
542.17	38303.16
542.37	38045.12
542.58	38532.53
542.78	38114.75
542.98	38415.80
543.18	38290.87
543.38	38876.59
543.59	38983.09
543.79	38479.28
543.99	38536.63
544.19	38649.27
544.40	38954.41
544.60	39288.23
544.80	38866.35
545.00	39476.65
545.20	39636.39
545.41	38944.17
545.61	39036.33
545.81	39564.71
546.01	39368.10
546.21	39675.30
546.42	39204.27
546.62	39579.04
546.82	39847.33
547.02	39855.52
547.22	39605.67
547.43	39656.87
547.63	40041.88
547.83	40199.58
548.03	39689.63
548.23	40179.10
548.44	40172.96
548.64	39605.67
548.84	40179.10
549.04	40275.35
549.24	40031.65
549.45	40727.95
549.65	40134.04
549.85	40088.99
550.05	40490.39
550.25	40369.56
550.45	40938.90
550.66	40496.53
550.86	40117.66
551.06	40936.85
551.26	40557.97
551.46	41092.49
551.66	40787.35
551.87	40787.35
552.07	41059.73
552.27	40998.29
552.47	41190.80
552.67	41078.16
552.87	41119.12
553.07	41362.82
553.28	41342.35
553.48	41237.90
553.68	40981.90
553.88	41747.84
554.08	41532.81
554.28	41409.93
554.48	41041.29
554.69	41409.93
554.89	41678.21
555.09	41575.81
555.29	41719.17
555.49	41872.77
555.69	41274.76
555.89	41614.72
556.10	42083.71
556.30	41790.85
556.50	41899.39
556.70	41710.98
556.90	41831.81
557.10	42335.61
557.30	42022.27
557.50	42435.96
557.70	42216.83
557.91	41899.39
558.11	42147.20
558.31	42632.57
558.51	42098.05
558.71	42368.38
558.91	42562.93
559.11	42284.41
559.31	42493.30
559.51	42128.77
559.72	42149.24
559.92	42661.24
560.12	42433.91
560.32	42909.04
560.52	42579.32
560.72	42737.01
560.92	42878.32
561.12	42825.07
561.32	43119.98
561.52	43126.13
561.72	43425.13
561.93	42763.64
562.13	43310.44
562.33	43236.72
562.53	43103.60
562.73	43208.04
562.93	43591.01
563.13	43277.68
563.33	43629.93
563.53	43554.15
563.73	43390.31
563.93	43363.69
564.13	43816.29
564.33	43439.47
564.53	43459.94
564.74	43976.03
564.94	43306.35
565.14	43887.97
565.34	43531.62
565.54	43902.31
565.74	43756.90
565.94	44004.70
566.14	43478.38
566.34	43922.79
566.54	44381.53
566.74	43978.08
566.94	44113.25
567.14	44346.72
567.34	44338.52
567.54	44324.19
567.74	44084.58
567.94	44264.80
568.14	44340.57
568.34	45098.32
568.54	44344.67
568.74	44545.37
568.94	44594.52
569.14	44711.25
569.34	44571.99
569.54	44455.26
569.75	44639.57
569.95	44674.39
570.15	45073.74
570.35	44723.54
570.55	44782.93
570.75	44940.63
570.95	44701.01
571.15	44924.24
571.35	45200.72
571.55	45260.11
571.75	45122.90
571.95	45266.25
572.15	45180.24
572.35	45630.79
572.55	45442.38
572.75	45589.83
572.95	45507.91
573.15	45675.85
573.35	45827.40
573.55	45419.85
573.75	45686.09
573.95	45946.18
574.15	45516.11
574.35	45892.93
574.55	45565.26
574.75	46093.63
574.95	46167.36
575.15	46206.27
575.34	45968.71
575.54	46282.05
575.74	46224.70
575.94	46492.99
576.14	46099.78
576.34	46708.02
576.54	46556.47
576.74	46849.33
576.94	46411.07
577.14	46710.07
577.34	46966.07
577.54	46642.49
577.74	46806.33
577.94	47029.55
578.14	46943.54
578.34	47609.13
578.54	47056.18
578.74	46988.60
578.94	47484.20
579.14	47185.20
579.34	47211.82
579.54	47639.85
579.74	47447.34
579.94	47525.16
580.13	47883.56
580.33	47486.25
580.53	47723.82
580.73	47631.66
580.93	47783.21
581.13	48182.56
581.33	48157.99
581.53	48055.59
581.73	48153.89
581.93	48590.11
582.13	48231.71
582.33	48459.04
582.53	48141.60
582.73	48667.93
582.92	48432.41
583.12	48776.47
583.32	48626.97
583.52	48145.70
583.72	49204.50
583.92	48727.32
584.12	48620.83
584.32	49337.62
584.52	48815.38
584.72	48727.32
584.92	49055.00
585.11	49458.45
585.31	49444.11
585.51	48768.28
585.71	48891.16
585.91	49306.90
586.11	49192.21
586.31	49026.32
586.51	49112.34
586.71	49063.19
586.91	49448.21
587.10	49687.82
587.30	49409.29
587.50	49745.16
587.70	49741.06
587.90	50074.88
588.10	50009.35
588.30	49773.83
588.50	50115.84
