SpectraSuite Data File
++++++++++++++++++++++++++++++++++++
Date: Fri Jun 02 14:53:31 CEST 2017
User: INFO_000
Dark Spectrum Present: No
Reference Spectrum Present: No
Number of Sampled Component Spectra: 1
Spectrometers: USB4H00879
Integration Time (usec): 80000 (USB4H00879)
Spectra Averaged: 1 (USB4H00879)
Boxcar Smoothing: 0 (USB4H00879)
Correct for Electrical Dark: No (USB4H00879)
Strobe/Lamp Enabled: No (USB4H00879)
Correct for Detector Non-linearity: No (USB4H00879)
Correct for Stray Light: No (USB4H00879)
Number of Pixels in Processed Spectrum: 3648
>>>>>Begin Processed Spectral Data<<<<<
345.13	1320.94
345.34	1320.94
345.56	1320.94
345.78	1234.93
345.99	1249.26
346.21	1665.00
346.42	1699.81
346.64	1605.61
346.86	1818.60
347.07	1705.96
347.29	1716.20
347.50	1605.61
347.72	1642.47
347.94	1708.01
348.15	1542.12
348.37	1568.74
348.59	1800.16
348.80	1638.38
349.02	1757.16
349.23	1871.84
349.45	1734.63
349.67	1896.42
349.88	1814.50
350.10	1908.71
350.31	1935.33
350.53	1798.12
350.75	1955.81
350.96	1748.97
351.18	1947.62
351.39	1800.16
351.61	1839.08
351.82	1935.33
352.04	1972.19
352.26	1771.49
352.47	1884.13
352.69	1941.47
352.90	1779.68
353.12	1949.67
353.34	1820.64
353.55	1847.27
353.77	1875.94
353.98	1802.21
354.20	1843.17
354.41	1888.23
354.63	1980.39
354.85	2045.92
355.06	1884.13
355.28	1798.12
355.49	1832.93
355.71	1869.80
355.92	1900.52
356.14	1904.61
356.35	1832.93
356.57	1822.69
356.79	2004.96
357.00	1843.17
357.22	2015.20
357.43	1884.13
357.65	1951.71
357.86	1978.34
358.08	1918.95
358.29	2031.58
358.51	1976.29
358.72	1955.81
358.94	1925.09
359.16	1912.80
359.37	1939.43
359.59	1931.23
359.80	2039.78
360.02	1994.72
360.23	1920.99
360.45	2015.20
360.66	1900.52
360.88	1947.62
361.09	1937.38
361.31	1978.34
361.52	1920.99
361.74	1986.53
361.95	2213.85
362.17	1920.99
362.38	2013.15
362.60	1972.19
362.81	2007.01
363.03	1947.62
363.24	1968.10
363.46	2074.59
363.67	2029.54
363.89	2019.30
364.10	2019.30
364.32	1974.24
364.53	2068.45
364.75	1964.00
364.96	2052.06
365.18	2013.15
365.39	1996.77
365.61	1918.95
365.82	2064.35
366.04	2039.78
366.25	2011.11
366.47	2131.94
366.68	2011.11
366.90	1978.34
367.11	2090.98
367.33	2142.18
367.54	2021.35
367.76	2045.92
367.97	2111.46
368.19	2000.87
368.40	2093.02
368.62	1964.00
368.83	1976.29
369.05	2082.78
369.26	2017.25
369.48	1964.00
369.69	2009.06
369.91	2050.02
370.12	2035.68
370.33	2131.94
370.55	1978.34
370.76	2060.26
370.98	2211.81
371.19	1990.63
371.41	2105.31
371.62	2082.78
371.84	2025.44
372.05	2136.03
372.27	2158.56
372.48	2050.02
372.69	2056.16
372.91	2197.47
373.12	2144.22
373.34	2119.65
373.55	2121.70
373.77	2160.61
373.98	2125.79
374.20	2176.99
374.41	2265.05
374.62	2156.51
374.84	2131.94
375.05	2127.84
375.27	2183.13
375.48	2105.31
375.70	2211.81
375.91	2199.52
376.12	2281.44
376.34	2201.57
376.55	2215.90
376.77	2162.66
376.98	2129.89
377.19	2146.27
377.41	2224.09
377.62	2215.90
377.84	2232.29
378.05	2346.97
378.27	2189.28
378.48	2420.70
378.69	2392.03
378.91	2295.77
379.12	2248.67
379.34	2273.25
379.55	2414.56
379.76	2254.81
379.98	2179.04
380.19	2252.77
380.41	2238.43
380.62	2346.97
380.83	2275.29
381.05	2240.48
381.26	2412.51
381.47	2236.38
381.69	2246.62
381.90	2426.84
382.12	2373.60
382.33	2281.44
382.54	2318.30
382.76	2308.06
382.97	2340.83
383.19	2238.43
383.40	2373.60
383.61	2359.26
383.83	2213.85
384.04	2342.88
384.25	2371.55
384.47	2400.22
384.68	2334.68
384.89	2338.78
385.11	2377.69
385.32	2410.46
385.54	2355.16
385.75	2394.08
385.96	2342.88
386.18	2361.31
386.39	2410.46
386.60	2383.84
386.82	2455.51
387.03	2475.99
387.24	2529.24
387.46	2432.99
387.67	2471.90
387.88	2469.85
388.10	2525.15
388.31	2463.71
388.52	2568.15
388.74	2430.94
388.95	2551.77
389.16	2605.02
389.38	2506.71
389.59	2549.72
389.80	2678.74
390.02	2549.72
390.23	2668.50
390.44	2568.15
390.66	2543.58
390.87	2543.58
391.08	2627.54
391.30	2660.31
391.51	2699.22
391.72	2711.51
391.94	2637.78
392.15	2568.15
392.36	2609.11
392.58	2611.16
392.79	2670.55
393.00	2688.98
393.22	2772.95
393.43	2731.99
393.64	2838.48
393.85	2824.15
394.07	2742.23
394.28	2787.29
394.49	2756.57
394.71	2834.39
394.92	2750.42
395.13	2721.75
395.35	2686.94
395.56	2838.48
395.77	2789.33
395.98	2877.40
396.20	2750.42
396.41	2856.92
396.62	2869.20
396.84	2793.43
397.05	2801.62
397.26	2858.96
397.47	2916.31
397.69	2809.81
397.90	3051.47
398.11	2973.65
398.32	2910.16
398.54	2822.10
398.75	2951.12
398.96	2916.31
399.18	3090.38
399.39	2924.50
399.60	2883.54
399.81	2969.55
400.03	2998.23
400.24	3297.23
400.45	2944.98
400.66	3026.90
400.88	3010.51
401.09	3162.06
401.30	3067.86
401.51	3168.21
401.73	3160.02
401.94	3147.73
402.15	3268.56
402.36	3090.38
402.58	3057.62
402.79	3127.25
403.00	3143.63
403.21	3223.50
403.43	3157.97
403.64	3264.46
403.85	3129.30
404.06	3325.90
404.27	3084.24
404.49	3248.08
404.70	3184.59
404.91	3284.94
405.12	3352.52
405.34	3309.52
405.55	3444.68
405.76	3184.59
405.97	3166.16
406.19	3395.53
406.40	3264.46
406.61	3385.29
406.82	3395.53
407.03	3307.47
407.25	3336.14
407.46	3377.10
407.67	3495.88
407.88	3579.85
408.09	3452.88
408.31	3524.55
408.52	3489.74
408.73	3407.82
408.94	3346.38
409.15	3475.40
409.37	3444.68
409.58	3528.65
409.79	3534.79
410.00	3639.24
410.21	3508.17
410.43	3547.08
410.64	3459.02
410.85	3420.11
411.06	3585.99
411.27	3547.08
411.48	3633.10
411.70	3534.79
411.91	3665.86
412.12	3715.02
412.33	3651.53
412.54	3616.71
412.76	3788.74
412.97	3667.91
413.18	3680.20
413.39	3657.67
413.60	3778.50
413.81	3755.97
414.03	3827.65
414.24	3674.06
414.45	4007.87
414.66	3762.12
414.87	3876.80
415.08	3887.04
415.30	3878.85
415.51	3897.28
415.72	3860.42
415.93	3803.08
416.14	3784.65
416.35	3823.56
416.56	3885.00
416.78	3876.80
416.99	3946.44
417.20	3862.47
417.41	3798.98
417.62	3911.62
417.83	4095.94
418.04	3901.38
418.26	4065.22
418.47	4007.87
418.68	3977.16
418.89	4042.69
419.10	4140.99
419.31	4149.18
419.52	4163.52
419.73	4186.05
419.95	4167.62
420.16	4001.73
420.37	4155.33
420.58	4102.08
420.79	4087.75
421.00	4284.35
421.21	4198.34
421.42	4229.06
421.63	4362.17
421.85	4038.59
422.06	4233.15
422.27	4321.21
422.48	4341.69
422.69	4351.93
422.90	4435.90
423.11	4394.94
423.32	4435.90
423.53	4456.38
423.75	4446.14
423.96	4706.23
424.17	4499.39
424.38	4607.93
424.59	4466.62
424.80	4726.71
425.01	4501.44
425.22	4573.11
425.43	4616.12
425.64	4698.04
425.85	4732.86
426.06	4650.94
426.28	4683.70
426.49	4487.10
426.70	4650.94
426.91	4700.09
427.12	4767.67
427.33	4724.66
427.54	4640.70
427.75	4759.48
427.96	4951.99
428.17	4870.07
428.38	4900.79
428.59	4941.75
428.80	4798.39
429.01	5001.14
429.23	5136.31
429.44	5062.58
429.65	4970.42
429.86	4960.18
430.07	4888.50
430.28	4974.52
430.49	5076.91
430.70	5138.35
430.91	5185.46
431.12	5124.02
431.33	5152.69
431.54	5244.85
431.75	5160.88
431.96	5060.53
432.17	5003.19
432.38	5169.07
432.59	5375.92
432.80	5298.10
433.01	5408.69
433.22	5363.63
433.43	5334.96
433.64	5373.87
433.85	5113.78
434.06	5326.77
434.27	5255.09
434.49	5504.94
434.70	5572.52
434.91	5435.31
435.12	5588.91
435.33	5541.80
435.54	5425.07
435.75	5271.47
435.96	5423.02
436.17	5371.82
436.38	5601.19
436.59	5611.43
436.80	5500.84
437.01	5900.20
437.22	5857.19
437.43	5623.72
437.64	5615.53
437.85	5750.70
438.06	5705.64
438.27	5697.45
438.48	5705.64
438.69	5756.84
438.90	5623.72
439.11	5619.63
439.32	5787.56
439.53	5775.27
439.74	5965.73
439.95	5818.28
440.16	5769.13
440.37	5824.42
440.57	5881.77
440.78	6041.51
440.99	6109.09
441.20	5910.44
441.41	5787.56
441.62	6045.60
441.83	5904.29
442.04	6145.95
442.25	5945.25
442.46	5920.68
442.67	6076.32
442.88	6498.20
443.09	6170.53
443.30	6148.00
443.51	6143.91
443.72	6442.91
443.93	5973.92
444.14	6436.77
444.35	6018.98
444.56	6201.25
444.77	6250.40
444.98	6346.66
445.19	6391.71
445.40	6285.22
445.61	6260.64
445.81	6457.25
446.02	6442.91
446.23	6408.09
446.44	6322.08
446.65	6442.91
446.86	6518.68
447.07	6578.08
447.28	6590.36
447.49	6780.82
447.70	6447.01
447.91	6688.67
448.12	6709.15
448.33	6700.95
448.54	6721.43
448.74	6641.56
448.95	6741.91
449.16	6696.86
449.37	6954.90
449.58	6821.78
449.79	6961.05
450.00	6729.63
450.21	7036.82
450.42	6930.33
450.63	6909.85
450.84	7040.92
451.05	6959.00
451.25	6942.61
451.46	6932.37
451.67	7237.52
451.88	7182.23
452.09	7202.71
452.30	7081.88
452.51	7139.22
452.72	7395.22
452.93	7438.22
453.13	7135.12
453.34	7122.84
453.55	7241.62
453.76	7194.51
453.97	7667.60
454.18	7372.69
454.39	7563.15
454.60	7319.44
454.81	7417.74
455.01	7663.50
455.22	7407.50
455.43	7481.23
455.64	7856.01
455.85	7968.65
456.06	8025.99
456.27	7819.14
456.48	7815.05
456.68	7925.64
456.89	7925.64
457.10	8028.04
457.31	7997.32
457.52	8044.42
457.73	7999.37
457.94	8271.75
458.14	8071.04
458.35	8349.57
458.56	8245.12
458.77	8208.26
458.98	8249.22
459.19	8314.75
459.39	8630.14
459.60	8777.59
459.81	8556.41
460.02	8628.09
460.23	8521.60
460.44	8974.20
460.65	8793.98
460.85	8941.43
461.06	8841.08
461.27	8609.66
461.48	8996.73
461.69	9291.63
461.89	8724.35
462.10	9123.70
462.31	8859.51
462.52	9052.02
462.73	9000.82
462.94	9422.70
463.14	9449.33
463.35	9267.06
463.56	9858.92
463.77	9490.29
463.98	9248.63
464.18	9531.25
464.39	9645.93
464.60	9928.55
464.81	9701.23
465.02	9842.54
465.23	9938.79
465.43	9703.28
465.64	9924.46
465.85	9998.18
466.06	10063.72
466.27	10329.95
466.47	10366.82
466.68	10182.50
466.89	10131.30
467.10	10571.61
467.30	10276.71
467.51	10712.92
467.72	10606.43
467.93	10264.42
468.14	10721.12
468.34	10803.04
468.55	10723.16
468.76	10602.33
468.97	10878.81
469.17	10868.57
469.38	11048.79
469.59	11237.20
469.80	11165.53
470.01	11143.00
470.21	11259.73
470.42	11587.41
470.63	11415.38
470.84	11448.15
471.04	11519.82
471.25	11806.54
471.46	11476.82
471.67	11915.08
471.87	11876.17
472.08	12269.38
472.29	12154.69
472.50	11870.03
472.70	12003.14
472.91	12066.63
473.12	12455.75
473.33	12369.73
473.53	12402.50
473.74	12478.27
473.95	12568.38
474.16	12883.77
474.36	12859.20
474.57	12953.40
474.78	12980.03
474.99	12769.09
475.19	13317.94
475.40	13332.28
475.61	13461.30
475.81	13522.74
476.02	13606.70
476.23	13348.66
476.44	13737.77
476.64	13975.34
476.85	13770.54
477.06	13840.17
477.27	14223.14
477.47	14343.97
477.68	14223.14
477.89	14384.93
478.09	14495.52
478.30	14626.59
478.51	14538.53
478.71	14591.78
478.92	14825.25
479.13	14858.01
479.34	14937.88
479.54	14812.96
479.75	14956.32
479.96	15107.87
480.16	15222.55
480.37	15519.51
480.58	15437.59
480.78	15750.93
480.99	15851.28
481.20	15752.98
481.41	15951.63
481.61	15900.43
481.82	16207.62
482.03	16170.76
482.23	16217.86
482.44	16518.92
482.65	16596.74
482.85	16688.90
483.06	16543.49
483.27	16819.97
483.47	16504.58
483.68	16889.60
483.89	17137.40
484.09	16758.53
484.30	17045.24
484.51	17303.29
484.71	17387.25
484.92	17305.34
485.13	17569.52
485.33	17450.74
485.54	17491.70
485.75	17927.92
485.95	17813.23
486.16	17862.38
486.37	17956.59
486.57	17979.12
486.78	17901.29
486.98	17874.67
487.19	18155.24
487.40	18460.39
487.60	18552.55
487.81	18554.60
488.02	18530.02
488.22	18542.31
488.43	18888.42
488.64	19007.20
488.84	19076.83
489.05	18962.14
489.25	19029.73
489.46	19384.02
489.67	19320.54
489.87	19619.54
490.08	19490.52
490.29	19492.57
490.49	19865.30
490.70	19625.68
490.90	20096.72
491.11	19783.38
491.32	19947.22
491.52	19898.06
491.73	19957.46
491.94	20266.70
492.14	20418.25
492.35	20293.32
492.55	20336.33
492.76	20500.17
492.97	20960.96
493.17	20514.50
493.38	20686.53
493.58	21020.35
493.79	21079.74
494.00	20737.73
494.20	20930.24
494.41	21018.30
494.61	21126.85
494.82	21051.07
495.02	21161.66
495.23	21548.73
495.44	21442.23
495.64	21542.58
495.85	21606.07
496.05	21616.31
496.26	21599.93
496.47	21874.35
496.67	21657.27
496.88	22220.46
497.08	21595.83
497.29	22171.31
497.49	21962.42
497.70	22433.45
497.91	22298.28
498.11	22433.45
498.32	22277.80
498.52	22103.73
498.73	22980.26
498.93	22580.90
499.14	22679.21
499.34	22720.17
499.55	22777.51
499.76	22863.52
499.96	22894.24
500.17	22906.53
500.37	22898.34
500.58	23088.80
500.78	23045.79
500.99	23414.43
501.19	23465.63
501.40	23504.54
501.60	23142.05
501.81	23617.18
502.02	23594.65
502.22	23449.24
502.43	23961.23
502.63	23955.09
502.84	23733.91
503.04	23869.08
503.25	23692.95
503.45	23754.39
503.66	24159.89
503.86	24028.82
504.07	24309.39
504.27	24338.06
504.48	24579.72
504.68	24188.56
504.89	24698.50
505.09	24641.16
505.30	24409.74
505.50	24692.36
505.71	24819.33
505.91	24766.09
506.12	24848.00
506.32	24813.19
506.53	24997.51
506.73	25245.31
506.94	25108.10
507.14	24964.74
507.35	24944.26
507.55	25284.22
507.76	24970.88
507.96	25202.30
508.17	25572.99
508.37	25241.21
508.58	25337.47
508.78	25433.72
508.99	25751.16
509.19	25665.14
509.40	25480.83
509.60	25532.03
509.81	26023.54
510.01	25822.84
510.22	25876.09
510.42	25880.18
510.63	25996.92
510.83	25933.43
511.04	26109.55
511.24	26015.35
511.44	26287.73
511.65	26211.95
511.85	26265.20
512.06	26166.90
512.26	26390.13
512.47	26273.39
512.67	26719.85
512.88	26426.99
513.08	26431.08
513.29	27004.52
513.49	26748.52
513.69	26558.06
513.90	27059.81
514.10	26752.62
514.31	26994.28
514.51	27072.10
514.72	27049.57
514.92	27115.11
515.13	27227.74
515.33	27436.64
515.53	27305.57
515.74	27231.84
515.94	27264.61
516.15	27547.23
516.35	27571.80
516.56	27606.62
516.76	27682.39
516.96	27504.22
517.17	27893.33
517.37	27856.47
517.58	27758.17
517.78	28278.35
517.99	28225.11
518.19	28579.40
518.39	28380.75
518.60	28405.33
518.80	28270.16
519.01	28536.40
519.21	28374.61
519.41	28528.20
519.62	28681.80
519.82	28384.85
520.03	28767.82
520.23	28884.55
520.43	28587.60
520.64	29107.78
520.84	29679.16
521.05	29056.58
521.25	28993.09
521.45	29623.87
521.66	29621.82
521.86	29460.03
522.07	29621.82
522.27	29992.50
522.47	29679.16
522.68	30152.24
522.88	29879.86
523.08	30035.51
523.29	29949.50
523.49	30291.51
523.70	30316.08
523.90	30180.92
524.10	30572.08
524.31	30623.28
524.51	30457.39
524.71	30801.45
524.92	30737.96
525.12	30934.57
525.33	31055.40
525.53	30969.38
525.73	31278.63
525.94	31411.74
526.14	31411.74
526.34	31274.53
526.55	31757.85
526.75	31540.77
526.95	31720.99
527.16	31739.42
527.36	31761.95
527.56	32464.40
527.77	32345.62
527.97	32245.27
528.17	32200.21
528.38	32572.94
528.58	32540.18
528.78	32382.48
528.99	32273.94
529.19	33043.98
529.39	32343.57
529.60	33043.98
529.80	33005.06
530.00	33289.73
530.21	33543.68
530.41	33482.24
530.61	33320.45
530.82	33582.59
531.02	33426.95
531.22	33955.32
531.43	33846.78
531.63	34074.10
531.83	34078.20
532.04	34620.91
532.24	33619.46
532.44	34504.18
532.64	34649.58
532.85	34756.08
533.05	34887.15
533.25	34684.40
533.46	34952.68
533.66	35274.21
533.86	34989.55
534.07	35466.72
534.27	35423.72
534.47	35743.20
534.67	35558.88
534.88	35638.75
535.08	35771.87
535.28	36017.63
535.49	36126.17
535.69	36457.94
535.89	36310.49
536.09	36535.76
536.30	36337.11
536.50	36513.23
536.70	37002.70
536.91	36926.92
537.11	36761.04
537.31	36894.16
537.51	36965.84
537.72	37561.79
537.92	37477.83
538.12	37432.77
538.32	37565.89
538.53	37922.24
538.73	37338.57
538.93	37895.61
539.13	38028.73
539.34	38018.49
539.54	37977.53
539.74	38426.04
539.94	38458.81
540.15	38167.99
540.35	38569.40
540.55	38661.55
540.75	38319.54
540.96	38692.27
541.16	38432.18
541.36	38663.60
541.56	39060.91
541.77	39155.11
541.97	38942.13
542.17	39200.17
542.37	39339.43
542.58	39783.84
542.78	39271.85
542.98	39419.30
543.18	39878.05
543.38	40220.06
543.59	39837.09
543.79	39855.52
543.99	39976.35
544.19	40078.75
544.40	39783.84
544.60	40420.76
544.80	40584.60
545.00	40310.17
545.20	40918.42
545.41	40377.75
545.61	40590.74
545.81	40893.84
546.01	40940.94
546.21	40269.21
546.42	41102.73
546.62	40983.95
546.82	41143.69
547.02	40824.21
547.22	41121.16
547.43	40902.03
547.63	41139.60
547.83	41432.46
548.03	40891.79
548.23	41506.18
548.44	41526.66
548.64	41737.60
548.84	41717.12
549.04	41418.12
549.24	41723.27
549.45	42143.10
549.65	41653.64
549.85	41948.54
550.05	42259.84
550.25	41911.68
550.45	42800.50
550.66	42141.05
550.86	41866.63
551.06	42417.53
551.26	42315.13
551.46	42513.78
551.66	42397.05
551.87	41772.42
552.07	42419.58
552.27	42440.06
552.47	42571.13
552.67	42702.20
552.87	42870.13
553.07	42986.86
553.28	42728.82
553.48	42829.17
553.68	42612.09
553.88	43081.07
554.08	43066.73
554.28	42849.65
554.48	42714.48
554.69	43134.32
554.89	43070.83
555.09	43371.88
555.29	43242.86
555.49	43269.48
555.69	43056.50
555.89	43201.90
556.10	43494.76
556.30	43062.64
556.50	43660.65
556.70	43537.77
556.90	43552.10
557.10	43734.37
557.30	43523.43
557.50	43679.08
557.70	44045.66
557.91	43935.07
558.11	43697.51
558.31	44340.57
558.51	43695.46
558.71	43988.32
558.91	44094.82
559.11	44078.43
559.31	43890.02
559.51	43740.52
559.72	44430.68
559.92	43971.94
560.12	43783.52
560.32	44533.08
560.52	43752.80
560.72	44510.55
560.92	44375.39
561.12	44236.12
561.32	44600.66
561.52	44025.18
561.72	44502.36
561.93	44129.63
562.13	44701.01
562.33	44215.65
562.53	45139.28
562.73	43963.75
562.93	44160.35
563.13	44621.14
563.33	44399.96
563.53	44707.16
563.73	44500.31
563.93	44528.98
564.13	44623.19
564.33	44719.45
564.53	44498.26
564.74	44750.17
564.94	44813.65
565.14	44557.66
565.34	44307.80
565.54	44739.93
565.74	44891.48
565.94	45352.27
566.14	44746.07
566.34	44660.05
566.54	45411.66
566.74	44688.73
566.94	45038.93
567.14	45389.13
567.34	44676.44
567.54	45292.88
567.74	45002.07
567.94	44854.61
568.14	45272.40
568.34	45569.35
568.54	45374.80
568.74	45065.55
568.94	45038.93
569.14	45350.22
569.34	45192.53
569.54	45604.17
569.75	45106.51
569.95	45415.76
570.15	45258.06
570.35	45299.02
570.55	45180.24
570.75	45221.20
570.95	45495.63
571.15	45026.64
571.35	45487.43
571.55	45526.35
571.75	45708.61
571.95	45464.91
572.15	45315.40
572.35	45462.86
572.55	45026.64
572.75	45245.77
572.95	45471.05
573.15	45798.73
573.35	45423.95
573.55	45442.38
573.75	46044.48
573.95	45706.57
574.15	45657.42
574.35	45524.30
574.55	45690.18
574.75	45495.63
574.95	45794.63
575.15	46085.44
575.34	46013.76
575.54	46089.54
575.74	46286.14
575.94	46110.02
576.14	46273.85
576.34	46030.15
576.54	46329.15
576.74	46382.40
576.94	46011.71
577.14	46458.17
577.34	46681.40
577.54	45786.44
577.74	46153.02
577.94	46333.24
578.14	46390.59
578.34	46273.85
578.54	46337.34
578.74	46214.46
578.94	46839.09
579.14	46355.77
579.34	46153.02
579.54	46726.46
579.74	47213.87
579.94	46662.97
580.13	46892.34
580.33	47039.79
580.53	46777.65
580.73	46972.21
580.93	46781.75
581.13	46665.02
581.33	47060.27
581.53	47047.99
581.73	46822.71
581.93	47363.37
582.13	47586.60
582.33	47265.07
582.53	47316.27
582.73	47265.07
582.92	47170.86
583.12	47596.84
583.32	47134.00
583.52	46886.20
583.72	47586.60
583.92	47287.60
584.12	47435.05
584.32	47889.70
584.52	47396.14
584.72	47662.38
584.92	47697.19
585.11	47926.56
585.31	47390.00
585.51	47912.23
585.71	47867.17
585.91	48495.90
586.11	47656.23
586.31	47510.83
586.51	47775.02
586.71	47914.28
586.91	48373.02
587.10	47764.78
587.30	48403.74
587.50	48440.60
587.70	48213.28
587.90	48481.56
588.10	48325.92
588.30	47641.90
588.50	48932.12
