SpectraSuite Data File
++++++++++++++++++++++++++++++++++++
Date: Fri Jun 02 14:53:35 CEST 2017
User: INFO_000
Dark Spectrum Present: No
Reference Spectrum Present: No
Number of Sampled Component Spectra: 1
Spectrometers: USB4H00879
Integration Time (usec): 80000 (USB4H00879)
Spectra Averaged: 1 (USB4H00879)
Boxcar Smoothing: 0 (USB4H00879)
Correct for Electrical Dark: No (USB4H00879)
Strobe/Lamp Enabled: No (USB4H00879)
Correct for Detector Non-linearity: No (USB4H00879)
Correct for Stray Light: No (USB4H00879)
Number of Pixels in Processed Spectrum: 3648
>>>>>Begin Processed Spectral Data<<<<<
345.13	1279.98
345.34	1279.98
345.56	1279.98
345.78	1271.79
345.99	1296.36
346.21	1726.44
346.42	1626.09
346.64	1673.19
346.86	1802.21
347.07	1626.09
347.29	1746.92
347.50	1665.00
347.72	1705.96
347.94	1718.25
348.15	1562.60
348.37	1595.37
348.59	1732.58
348.80	1669.09
349.02	1777.64
349.23	1888.23
349.45	1910.75
349.67	1853.41
349.88	1818.60
350.10	1974.24
350.31	1871.84
350.53	1830.88
350.75	1978.34
350.96	1763.30
351.18	1869.80
351.39	1890.28
351.61	1781.73
351.82	1882.08
352.04	1961.95
352.26	1871.84
352.47	1892.32
352.69	1929.19
352.90	1769.44
353.12	1867.75
353.34	1880.04
353.55	1994.72
353.77	1875.94
353.98	1808.36
354.20	1834.98
354.41	1941.47
354.63	1877.99
354.85	1953.76
355.06	1923.04
355.28	1830.88
355.49	1880.04
355.71	1834.98
355.92	1828.84
356.14	1914.85
356.35	1814.50
356.57	1886.18
356.79	1902.56
357.00	1863.65
357.22	1896.42
357.43	1929.19
357.65	1898.47
357.86	1918.95
358.08	1896.42
358.29	1986.53
358.51	1961.95
358.72	2004.96
358.94	1984.48
359.16	1931.23
359.37	1970.15
359.59	1982.43
359.80	1951.71
360.02	1966.05
360.23	2011.11
360.45	1927.14
360.66	2017.25
360.88	1904.61
361.09	1929.19
361.31	1968.10
361.52	1957.86
361.74	2054.11
361.95	2076.64
362.17	1984.48
362.38	2093.02
362.60	2007.01
362.81	2000.87
363.03	1892.32
363.24	2064.35
363.46	2050.02
363.67	1951.71
363.89	2033.63
364.10	2004.96
364.32	1916.90
364.53	2025.44
364.75	1933.28
364.96	2002.91
365.18	1957.86
365.39	1992.67
365.61	1978.34
365.82	2086.88
366.04	1951.71
366.25	2007.01
366.47	2025.44
366.68	2099.17
366.90	2078.69
367.11	2070.50
367.33	2101.22
367.54	2074.59
367.76	1992.67
367.97	1984.48
368.19	2007.01
368.40	2142.18
368.62	2007.01
368.83	2072.54
369.05	2101.22
369.26	2009.06
369.48	2015.20
369.69	2009.06
369.91	2023.39
370.12	2027.49
370.33	2148.32
370.55	2058.21
370.76	2121.70
370.98	2170.85
371.19	2105.31
371.41	1974.24
371.62	2099.17
371.84	2002.91
372.05	2199.52
372.27	2027.49
372.48	2084.83
372.69	2131.94
372.91	2109.41
373.12	2154.46
373.34	2076.64
373.55	2170.85
373.77	2189.28
373.98	2093.02
374.20	2150.37
374.41	2318.30
374.62	2097.12
374.84	2224.09
375.05	2203.61
375.27	2138.08
375.48	2158.56
375.70	2166.75
375.91	2232.29
376.12	2273.25
376.34	2138.08
376.55	2256.86
376.77	2172.89
376.98	2058.21
377.19	2187.23
377.41	2215.90
377.62	2172.89
377.84	2308.06
378.05	2379.74
378.27	2263.01
378.48	2332.64
378.69	2306.01
378.91	2256.86
379.12	2265.05
379.34	2213.85
379.55	2314.20
379.76	2330.59
379.98	2224.09
380.19	2312.16
380.41	2306.01
380.62	2346.97
380.83	2263.01
381.05	2162.66
381.26	2430.94
381.47	2220.00
381.69	2279.39
381.90	2422.75
382.12	2332.64
382.33	2306.01
382.54	2346.97
382.76	2330.59
382.97	2326.49
383.19	2289.63
383.40	2308.06
383.61	2326.49
383.83	2220.00
384.04	2361.31
384.25	2451.42
384.47	2441.18
384.68	2400.22
384.89	2314.20
385.11	2312.16
385.32	2478.04
385.54	2332.64
385.75	2289.63
385.96	2387.93
386.18	2416.60
386.39	2447.32
386.60	2375.64
386.82	2435.03
387.03	2432.99
387.24	2447.32
387.46	2514.91
387.67	2473.95
387.88	2475.99
388.10	2447.32
388.31	2355.16
388.52	2512.86
388.74	2621.40
388.95	2490.33
389.16	2519.00
389.38	2510.81
389.59	2594.78
389.80	2574.30
390.02	2482.14
390.23	2705.37
390.44	2545.63
390.66	2635.74
390.87	2539.48
391.08	2600.92
391.30	2725.85
391.51	2684.89
391.72	2781.14
391.94	2662.36
392.15	2617.30
392.36	2629.59
392.58	2568.15
392.79	2621.40
393.00	2684.89
393.22	2779.09
393.43	2703.32
393.64	2750.42
393.85	2801.62
394.07	2693.08
394.28	2762.71
394.49	2867.16
394.71	2822.10
394.92	2891.73
395.13	2717.65
395.35	2797.53
395.56	2750.42
395.77	2772.95
395.98	2865.11
396.20	2877.40
396.41	2813.91
396.62	2873.30
396.84	2861.01
397.05	2793.43
397.26	2850.77
397.47	2963.41
397.69	2762.71
397.90	3084.24
398.11	2877.40
398.32	2764.76
398.54	2914.26
398.75	2938.84
398.96	3043.28
399.18	2975.70
399.39	2936.79
399.60	3047.38
399.81	2969.55
400.03	2981.84
400.24	3338.19
400.45	2971.60
400.66	3022.80
400.88	3078.10
401.09	3196.88
401.30	3020.75
401.51	3235.79
401.73	3074.00
401.94	3250.13
402.15	3164.11
402.36	3155.92
402.58	3139.54
402.79	3227.60
403.00	3100.62
403.21	3164.11
403.43	3284.94
403.64	3289.04
403.85	3182.54
404.06	3174.35
404.27	3125.20
404.49	3182.54
404.70	3205.07
404.91	3172.30
405.12	3227.60
405.34	3237.84
405.55	3354.57
405.76	3090.38
405.97	3262.41
406.19	3418.06
406.40	3266.51
406.61	3459.02
406.82	3370.96
407.03	3315.66
407.25	3315.66
407.46	3532.75
407.67	3489.74
407.88	3463.12
408.09	3401.68
408.31	3434.44
408.52	3350.48
408.73	3303.37
408.94	3389.39
409.15	3430.35
409.37	3567.56
409.58	3516.36
409.79	3489.74
410.00	3518.41
410.21	3416.01
410.43	3477.45
410.64	3428.30
410.85	3524.55
411.06	3516.36
411.27	3579.85
411.48	3600.33
411.70	3583.95
411.91	3502.03
412.12	3665.86
412.33	3579.85
412.54	3563.47
412.76	3774.41
412.97	3715.02
413.18	3542.99
413.39	3657.67
413.60	3704.78
413.81	3704.78
414.03	3622.86
414.24	3620.81
414.45	3766.21
414.66	3678.15
414.87	3743.69
415.08	3725.26
415.30	3708.87
415.51	3815.37
415.72	3717.06
415.93	3686.34
416.14	3858.37
416.35	3817.41
416.56	3827.65
416.78	3829.70
416.99	3897.28
417.20	3917.76
417.41	3925.96
417.62	3882.95
417.83	3915.72
418.04	3895.24
418.26	4007.87
418.47	3885.00
418.68	4011.97
418.89	3999.68
419.10	4177.86
419.31	3964.87
419.52	4071.36
419.73	3944.39
419.95	4124.61
420.16	3919.81
420.37	4124.61
420.58	4202.43
420.79	4042.69
421.00	4106.18
421.21	4057.03
421.42	4157.38
421.63	4290.49
421.85	4116.42
422.06	4364.22
422.27	4216.77
422.48	4229.06
422.69	4384.70
422.90	4339.65
423.11	4364.22
423.32	4489.15
423.53	4399.04
423.75	4399.04
423.96	4562.87
424.17	4513.72
424.38	4624.31
424.59	4489.15
424.80	4673.46
425.01	4444.09
425.22	4589.50
425.43	4577.21
425.64	4759.48
425.85	4736.95
426.06	4622.27
426.28	4616.12
426.49	4542.39
426.70	4675.51
426.91	4638.65
427.12	4677.56
427.33	4724.66
427.54	4673.46
427.75	4673.46
427.96	4888.50
428.17	4689.85
428.38	4835.25
428.59	5023.67
428.80	4937.65
429.01	4947.89
429.23	4947.89
429.44	5029.81
429.65	5001.14
429.86	5185.46
430.07	4970.42
430.28	4962.23
430.49	5101.49
430.70	5201.84
430.91	5136.31
431.12	4972.47
431.33	5185.46
431.54	5173.17
431.75	5191.60
431.96	5246.90
432.17	5234.61
432.38	5103.54
432.59	5486.51
432.80	5205.94
433.01	5349.29
433.22	5476.27
433.43	5451.69
433.64	5453.74
433.85	5330.86
434.06	5566.38
434.27	5388.21
434.49	5586.86
434.70	5638.06
434.91	5762.98
435.12	5603.24
435.33	5500.84
435.54	5332.91
435.75	5418.93
435.96	5574.57
436.17	5459.88
436.38	5791.66
436.59	5623.72
436.80	5574.57
437.01	5982.12
437.22	5926.82
437.43	5754.79
437.64	5691.31
437.85	5801.90
438.06	5996.45
438.27	5740.46
438.48	5676.97
438.69	5851.05
438.90	5808.04
439.11	5785.51
439.32	5900.20
439.53	6115.23
439.74	5988.26
439.95	6012.84
440.16	5978.02
440.37	5863.33
440.57	5885.86
440.78	5877.67
440.99	6131.62
441.20	6113.19
441.41	5832.62
441.62	6117.28
441.83	5879.72
442.04	6035.36
442.25	6053.80
442.46	6107.04
442.67	6191.01
442.88	6606.75
443.09	6021.03
443.30	6150.05
443.51	6215.59
443.72	6412.19
443.93	6203.30
444.14	6356.90
444.35	6072.23
444.56	6299.55
444.77	6272.93
444.98	6342.56
445.19	6352.80
445.40	6393.76
445.61	6311.84
445.81	6598.56
446.02	6520.73
446.23	6303.65
446.44	6404.00
446.65	6576.03
446.86	6545.31
447.07	6680.47
447.28	6664.09
447.49	6725.53
447.70	6522.78
447.91	6748.06
448.12	6586.27
448.33	6813.59
448.54	6651.80
448.74	6539.16
448.95	6748.06
449.16	6774.68
449.37	6963.09
449.58	6758.30
449.79	7034.77
450.00	6670.23
450.21	6840.22
450.42	6926.23
450.63	7028.63
450.84	6973.33
451.05	6907.80
451.25	6954.90
451.46	6981.53
451.67	6999.96
451.88	7270.29
452.09	7178.13
452.30	7014.29
452.51	7131.03
452.72	7092.12
452.93	7409.55
453.13	7118.74
453.34	7180.18
453.55	7217.04
453.76	7085.97
453.97	7585.68
454.18	7319.44
454.39	7489.42
454.60	7462.80
454.81	7524.24
455.01	7616.40
455.22	7325.58
455.43	7591.82
455.64	7737.23
455.85	7866.25
456.06	7987.08
456.27	7743.37
456.48	7780.23
456.68	7864.20
456.89	7806.86
457.10	7987.08
457.31	7839.62
457.52	7802.76
457.73	8081.28
457.94	8228.74
458.14	8032.13
458.35	8490.88
458.56	8144.77
458.77	8241.03
458.98	8189.83
459.19	8071.04
459.39	8312.71
459.60	8460.16
459.81	8271.75
460.02	8601.47
460.23	8402.82
460.44	8712.06
460.65	8605.56
460.85	8664.96
461.06	8566.65
461.27	8533.89
461.48	8968.06
461.69	8996.73
461.89	8605.56
462.10	8918.90
462.31	8654.72
462.52	8890.23
462.73	8908.66
462.94	9187.19
463.14	9068.41
463.35	9097.08
463.56	9500.53
463.77	9289.59
463.98	9160.56
464.18	9295.73
464.39	9416.56
464.60	9647.98
464.81	9498.48
465.02	9320.31
465.23	9592.69
465.43	9572.21
465.64	9799.53
465.85	9744.24
466.06	9787.24
466.27	10219.36
466.47	9959.27
466.68	10026.86
466.89	10102.63
467.10	9834.35
467.30	9801.58
467.51	10157.92
467.72	10555.23
467.93	10157.92
468.14	10360.67
468.34	10471.26
468.55	10569.57
468.76	10651.49
468.97	10561.37
469.17	10778.46
469.38	10649.44
469.59	10950.49
469.80	10903.39
470.01	10932.06
470.21	10887.00
470.42	11358.03
470.63	11306.84
470.84	11272.02
471.04	11364.18
471.25	11489.10
471.46	11474.77
471.67	11767.63
471.87	11487.06
472.08	11743.05
472.29	11822.92
472.50	11501.39
472.70	11685.71
472.91	12152.65
473.12	12103.50
473.33	12171.08
473.53	12375.88
473.74	12093.26
473.95	12369.73
474.16	12566.34
474.36	12414.79
474.57	12678.97
474.78	12914.49
474.99	12717.89
475.19	12545.86
475.40	13084.47
475.61	13293.37
475.81	13061.94
476.02	13442.87
476.23	13451.06
476.44	13467.44
476.64	13641.52
476.85	13840.17
477.06	13768.49
477.27	13954.86
477.47	13897.52
477.68	13997.87
477.89	14356.26
478.09	14249.77
478.30	14202.66
478.51	14436.13
478.71	14382.88
478.92	14661.41
479.13	14675.74
479.34	15157.02
479.54	14753.57
479.75	14935.84
479.96	14974.75
480.16	15355.67
480.37	15222.55
480.58	15359.77
480.78	15656.72
480.99	15533.84
481.20	15589.14
481.41	15800.08
481.61	15828.75
481.82	15961.87
482.03	15847.18
482.23	16111.37
482.44	16203.53
482.65	16504.58
482.85	16563.97
483.06	16469.76
483.27	16561.92
483.47	16686.85
483.68	16746.24
483.89	16779.01
484.09	17004.28
484.30	17030.91
484.51	17166.07
484.71	17188.60
484.92	17084.16
485.13	17469.17
485.33	17442.55
485.54	17270.52
485.75	17782.51
485.95	17823.47
486.16	17983.21
486.37	18067.18
486.57	18243.31
486.78	18003.69
486.98	18112.24
487.19	18450.15
487.40	18650.85
487.60	18444.01
487.81	18685.67
488.02	18685.67
488.22	18831.07
488.43	18839.26
488.64	18921.18
488.84	18992.86
489.05	19080.92
489.25	19044.06
489.46	19465.94
489.67	19295.96
489.87	19531.48
490.08	19574.49
490.29	19871.44
490.49	19916.50
490.70	20016.85
490.90	19943.12
491.11	19871.44
491.32	20164.30
491.52	20143.82
491.73	20365.00
491.94	20369.10
492.14	20291.27
492.35	20676.29
492.55	20516.55
492.76	20920.00
492.97	21077.69
493.17	20809.41
493.38	21038.78
493.58	21051.07
493.79	21272.25
494.00	21069.50
494.20	21296.83
494.41	21247.68
494.61	21546.68
494.82	21464.76
495.02	21710.52
495.23	21630.65
495.44	21900.98
495.64	21808.82
495.85	22013.62
496.05	22183.60
496.26	21954.22
496.47	22335.15
496.67	22296.24
496.88	22195.89
497.08	22501.03
497.29	22501.03
497.49	22652.58
497.70	23000.74
497.91	22771.36
498.11	22865.57
498.32	22718.12
498.52	22910.63
498.73	23002.78
498.93	23062.18
499.14	23219.87
499.34	23305.88
499.55	23500.44
499.76	23277.21
499.96	23289.50
500.17	23504.54
500.37	23588.50
500.58	23178.91
500.78	23631.51
500.99	23752.34
501.19	23781.01
501.40	23981.71
501.60	23701.14
501.81	23793.30
502.02	23977.62
502.22	23953.04
502.43	24237.71
502.63	24252.05
502.84	24409.74
503.04	24411.79
503.25	24245.90
503.45	24524.43
503.66	24954.50
503.86	24313.48
504.07	24811.14
504.27	24551.05
504.48	24958.60
504.68	24626.82
504.89	25001.60
505.09	24852.10
505.30	25083.52
505.50	24977.03
505.71	25382.52
505.91	25165.44
506.12	25345.66
506.32	25224.83
506.53	25392.76
506.73	25529.98
506.94	25587.32
507.14	25431.68
507.35	25665.14
507.55	25548.41
507.76	25669.24
507.96	25704.06
508.17	25820.79
508.37	25865.85
508.58	26011.25
508.78	25693.82
508.99	26142.32
509.19	26257.01
509.40	25896.56
509.60	26107.51
509.81	25943.67
510.01	26109.55
510.22	26199.66
510.42	26271.34
510.63	26148.46
510.83	26480.24
511.04	26547.82
511.24	26252.91
511.44	26562.15
511.65	26549.87
511.85	26312.30
512.06	26760.81
512.26	26560.11
512.47	26537.58
512.67	26916.45
512.88	26502.76
513.08	26418.80
513.29	26879.59
513.49	26580.59
513.69	26938.98
513.90	26816.10
514.10	26922.60
514.31	26986.08
514.51	27360.86
514.72	27258.46
514.92	27305.57
515.13	27203.17
515.33	27332.19
515.53	27485.79
515.74	27606.62
515.94	27559.52
516.15	27602.52
516.35	27326.05
516.56	27915.86
516.76	27887.19
516.96	28030.55
517.17	27739.74
517.37	28198.48
517.58	27766.36
517.78	27903.57
517.99	27975.25
518.19	28526.16
518.39	28253.78
518.60	28554.83
518.80	28071.51
519.01	28436.05
519.21	28354.13
519.41	28563.02
519.62	28354.13
519.82	28835.40
520.03	28739.15
520.23	29075.01
520.43	28565.07
520.64	29017.67
520.84	29132.36
521.05	28952.13
521.25	29306.43
521.45	29201.99
521.66	29437.50
521.86	29314.62
522.07	29179.46
522.27	29191.75
522.47	29300.29
522.68	29933.11
522.88	29492.80
523.08	29863.48
523.29	29646.40
523.49	29816.38
523.70	29740.60
523.90	30006.84
524.10	30090.80
524.31	30119.48
524.51	30119.48
524.71	30287.41
524.92	30252.59
525.12	30707.24
525.33	30516.78
525.53	30527.02
525.73	30604.84
525.94	30930.47
526.14	30899.75
526.34	31155.75
526.55	31010.34
526.75	31084.07
526.95	31309.35
527.16	31245.86
527.36	31348.26
527.56	31508.00
527.77	31682.08
527.97	31823.39
528.17	31671.84
528.38	31905.31
528.58	32175.64
528.78	31925.78
528.99	32255.51
529.19	32554.51
529.39	31942.17
529.60	32740.88
529.80	32368.15
530.00	32239.12
530.21	32960.01
530.41	32914.95
530.61	33097.22
530.82	32779.79
531.02	32691.73
531.22	33240.58
531.43	33234.44
531.63	33265.16
531.83	33363.46
532.04	33805.82
532.24	33211.91
532.44	33768.96
532.64	33906.17
532.85	34192.89
533.05	33840.64
533.25	34125.30
533.46	34317.81
533.66	34928.11
533.86	34438.64
534.07	34813.42
534.27	34647.54
534.47	35175.91
534.67	34760.17
534.88	35085.80
535.08	34944.49
535.28	35069.42
535.49	35401.19
535.69	35681.76
535.89	35861.98
536.09	35763.68
536.30	35622.37
536.50	35610.08
536.70	35759.58
536.91	35765.73
537.11	35771.87
537.31	36406.74
537.51	36144.60
537.72	36142.55
537.92	36443.60
538.12	36777.42
538.32	36451.80
538.53	36419.03
538.73	36259.29
538.93	36836.81
539.13	36789.71
539.34	37268.94
539.54	37025.23
539.74	37096.91
539.94	37041.61
540.15	37219.78
540.35	37801.41
540.55	37502.40
540.75	37721.54
540.96	38014.40
541.16	37934.53
541.36	38133.18
541.56	37803.46
541.77	38127.03
541.97	38081.98
542.17	38262.20
542.37	38274.49
542.58	38331.83
542.78	38452.66
542.98	38460.85
543.18	38491.57
543.38	38735.28
543.59	39099.82
543.79	38602.16
543.99	39007.66
544.19	39531.94
544.40	39056.81
544.60	39413.16
544.80	39347.62
545.00	39263.66
545.20	39882.14
545.41	39321.00
545.61	39902.62
545.81	39769.51
546.01	39914.91
546.21	39912.86
546.42	39574.95
546.62	40347.03
546.82	39714.21
547.02	40158.62
547.22	40152.48
547.43	40091.04
547.63	40451.48
547.83	40471.96
548.03	40203.67
548.23	40617.36
548.44	40926.61
548.64	40873.36
548.84	40760.72
549.04	40703.38
549.24	41010.57
549.45	40797.59
549.65	41262.47
549.85	41024.91
550.05	41532.81
550.25	41184.65
550.45	41483.66
550.66	41219.47
550.86	41217.42
551.06	41538.95
551.26	41448.84
551.46	41809.28
551.66	41809.28
551.87	41706.88
552.07	41592.20
552.27	41659.78
552.47	42059.13
552.67	42198.40
552.87	42009.98
553.07	42139.00
553.28	42249.60
553.48	42278.27
553.68	42237.31
553.88	42804.59
554.08	42331.51
554.28	42591.61
554.48	42296.70
554.69	42833.27
554.89	42349.95
555.09	42710.39
555.29	42415.48
555.49	42339.71
555.69	42841.46
555.89	42845.55
556.10	42886.51
556.30	42851.70
556.50	43107.69
556.70	43128.17
556.90	43322.73
557.10	43564.39
557.30	42894.71
557.50	43087.21
557.70	43146.61
557.91	43582.82
558.11	43527.53
558.31	43814.24
558.51	43685.22
558.71	43523.43
558.91	43865.44
559.11	43425.13
559.31	43738.47
559.51	43398.51
559.72	43758.95
559.92	43795.81
560.12	43548.01
560.32	43986.27
560.52	43621.73
560.72	44119.39
560.92	43824.48
561.12	43830.63
561.32	44569.94
561.52	44123.49
561.72	44311.90
561.93	44086.62
562.13	44365.15
562.33	44225.89
562.53	44848.47
562.73	43857.25
562.93	44186.97
563.13	44275.04
563.33	44858.71
563.53	45024.59
563.73	44440.92
563.93	44625.24
564.13	44823.89
564.33	44578.14
564.53	44574.04
564.74	44588.38
564.94	44795.22
565.14	44797.27
565.34	45145.42
565.54	44901.71
565.74	44832.08
565.94	45102.42
566.14	45114.70
566.34	44932.43
566.54	45200.72
566.74	45090.13
566.94	45464.91
567.14	45491.53
567.34	45385.04
567.54	45315.40
567.74	45274.45
567.94	45077.84
568.14	45579.59
568.34	45372.75
568.54	45503.82
568.74	45622.60
568.94	45430.09
569.14	45845.83
569.34	45868.36
569.54	45315.40
569.75	45757.77
569.95	45632.84
570.15	46253.37
570.35	45583.69
570.55	46146.88
570.75	45804.87
570.95	45696.33
571.15	46202.18
571.35	45823.30
571.55	46265.66
571.75	45995.33
571.95	46327.10
572.15	45954.37
572.35	46294.33
572.55	45884.74
572.75	46384.44
572.95	46122.30
573.15	46267.71
573.35	46331.20
573.55	45978.95
573.75	46300.48
573.95	46656.82
574.15	46312.77
574.35	47002.93
574.55	46222.65
574.75	46552.38
574.95	46175.55
575.15	46443.84
575.34	46691.64
575.54	47281.45
575.74	46521.66
575.94	46855.48
576.14	46843.19
576.34	46839.09
576.54	46939.44
576.74	46632.25
576.94	47154.48
577.14	47080.75
577.34	47764.78
577.54	47084.85
577.74	46873.91
577.94	47545.64
578.14	46996.79
578.34	47478.06
578.54	46701.88
578.74	47240.50
578.94	47285.55
579.14	47279.41
579.34	47414.57
579.54	47336.75
579.74	48012.58
579.94	47400.24
580.13	47770.92
580.33	47736.10
580.53	47783.21
580.73	47451.44
580.93	47725.86
581.13	47678.76
581.33	47863.08
581.53	48354.59
581.73	47840.55
581.93	48151.84
582.13	48442.65
582.33	48629.02
582.53	48082.21
582.73	48157.99
582.92	48203.04
583.12	48200.99
583.32	48239.90
583.52	47815.97
583.72	48264.48
583.92	48026.92
584.12	48610.59
584.32	48463.13
584.52	48336.16
584.72	48741.66
584.92	48737.56
585.11	49069.33
585.31	48655.64
585.51	48661.79
585.71	48715.03
585.91	48944.41
586.11	48543.00
586.31	49028.37
586.51	48999.70
586.71	48907.54
586.91	49161.49
587.10	49038.61
587.30	49087.76
587.50	49024.28
587.70	49257.74
587.90	49073.43
588.10	49218.83
588.30	49095.95
588.50	49644.81
