SpectraSuite Data File
++++++++++++++++++++++++++++++++++++
Date: Fri Jun 02 14:53:30 CEST 2017
User: INFO_000
Dark Spectrum Present: No
Reference Spectrum Present: No
Number of Sampled Component Spectra: 1
Spectrometers: USB4H00879
Integration Time (usec): 80000 (USB4H00879)
Spectra Averaged: 1 (USB4H00879)
Boxcar Smoothing: 0 (USB4H00879)
Correct for Electrical Dark: No (USB4H00879)
Strobe/Lamp Enabled: No (USB4H00879)
Correct for Detector Non-linearity: No (USB4H00879)
Correct for Stray Light: No (USB4H00879)
Number of Pixels in Processed Spectrum: 3648
>>>>>Begin Processed Spectral Data<<<<<
345.13	1247.21
345.34	1247.21
345.56	1247.21
345.78	1290.22
345.99	1288.17
346.21	1708.01
346.42	1740.77
346.64	1591.27
346.86	1769.44
347.07	1728.49
347.29	1613.80
347.50	1640.42
347.72	1679.33
347.94	1748.97
348.15	1576.94
348.37	1589.22
348.59	1753.06
348.80	1695.72
349.02	1818.60
349.23	1920.99
349.45	1808.36
349.67	1865.70
349.88	1839.08
350.10	2013.15
350.31	1855.46
350.53	1830.88
350.75	2000.87
350.96	1738.73
351.18	1931.23
351.39	1880.04
351.61	1814.50
351.82	1939.43
352.04	1908.71
352.26	1695.72
352.47	1908.71
352.69	1943.52
352.90	1794.02
353.12	1894.37
353.34	1861.60
353.55	1937.38
353.77	1892.32
353.98	1888.23
354.20	1822.69
354.41	2029.54
354.63	1959.91
354.85	2072.54
355.06	1890.28
355.28	1830.88
355.49	1918.95
355.71	1875.94
355.92	1834.98
356.14	1920.99
356.35	1959.91
356.57	1884.13
356.79	1959.91
357.00	1896.42
357.22	1927.14
357.43	1890.28
357.65	1968.10
357.86	1855.46
358.08	1964.00
358.29	1896.42
358.51	1988.58
358.72	1927.14
358.94	1953.76
359.16	2002.91
359.37	1964.00
359.59	1877.99
359.80	2080.74
360.02	1931.23
360.23	1931.23
360.45	1994.72
360.66	1923.04
360.88	1853.41
361.09	1957.86
361.31	2039.78
361.52	1949.67
361.74	2129.89
361.95	2068.45
362.17	1908.71
362.38	2133.98
362.60	2074.59
362.81	1964.00
363.03	1994.72
363.24	1966.05
363.46	2093.02
363.67	2035.68
363.89	2039.78
364.10	1941.47
364.32	1925.09
364.53	2084.83
364.75	1943.52
364.96	2011.11
365.18	1951.71
365.39	2031.58
365.61	2000.87
365.82	2097.12
366.04	2025.44
366.25	1947.62
366.47	2029.54
366.68	2125.79
366.90	1937.38
367.11	2064.35
367.33	2056.16
367.54	2068.45
367.76	2009.06
367.97	2131.94
368.19	1990.63
368.40	2043.87
368.62	1978.34
368.83	2035.68
369.05	2011.11
369.26	2007.01
369.48	1986.53
369.69	2033.63
369.91	2052.06
370.12	2052.06
370.33	2107.36
370.55	1951.71
370.76	2076.64
370.98	2148.32
371.19	2066.40
371.41	2093.02
371.62	2074.59
371.84	1990.63
372.05	2160.61
372.27	2045.92
372.48	2121.70
372.69	2101.22
372.91	2138.08
373.12	2168.80
373.34	2097.12
373.55	2115.55
373.77	2183.13
373.98	2121.70
374.20	2121.70
374.41	2263.01
374.62	2058.21
374.84	2111.46
375.05	2281.44
375.27	2201.57
375.48	2148.32
375.70	2162.66
375.91	2308.06
376.12	2355.16
376.34	2127.84
376.55	2226.14
376.77	2263.01
376.98	2170.85
377.19	2174.94
377.41	2138.08
377.62	2248.67
377.84	2254.81
378.05	2381.79
378.27	2099.17
378.48	2322.40
378.69	2424.80
378.91	2338.78
379.12	2224.09
379.34	2234.33
379.55	2273.25
379.76	2392.03
379.98	2195.42
380.19	2232.29
380.41	2301.92
380.62	2297.82
380.83	2297.82
381.05	2234.33
381.26	2414.56
381.47	2273.25
381.69	2381.79
381.90	2420.70
382.12	2250.72
382.33	2248.67
382.54	2322.40
382.76	2299.87
382.97	2359.26
383.19	2338.78
383.40	2385.88
383.61	2281.44
383.83	2338.78
384.04	2412.51
384.25	2306.01
384.47	2359.26
384.68	2381.79
384.89	2375.64
385.11	2361.31
385.32	2330.59
385.54	2453.47
385.75	2428.89
385.96	2471.90
386.18	2336.73
386.39	2469.85
386.60	2365.40
386.82	2504.67
387.03	2471.90
387.24	2498.52
387.46	2447.32
387.67	2498.52
387.88	2551.77
388.10	2559.96
388.31	2525.15
388.52	2594.78
388.74	2578.39
388.95	2475.99
389.16	2523.10
389.38	2482.14
389.59	2549.72
389.80	2566.10
390.02	2580.44
390.23	2693.08
390.44	2588.63
390.66	2559.96
390.87	2482.14
391.08	2600.92
391.30	2635.74
391.51	2666.46
391.72	2670.55
391.94	2666.46
392.15	2590.68
392.36	2660.31
392.58	2584.54
392.79	2664.41
393.00	2770.90
393.22	2838.48
393.43	2725.85
393.64	2746.33
393.85	2770.90
394.07	2629.59
394.28	2680.79
394.49	2779.09
394.71	2719.70
394.92	2809.81
395.13	2738.13
395.35	2725.85
395.56	2680.79
395.77	2740.18
395.98	2813.91
396.20	2904.02
396.41	2891.73
396.62	2955.22
396.84	2856.92
397.05	2910.16
397.26	2924.50
397.47	2910.16
397.69	2885.59
397.90	3078.10
398.11	2936.79
398.32	2987.99
398.54	2936.79
398.75	2981.84
398.96	3057.62
399.18	3020.75
399.39	2963.41
399.60	3114.96
399.81	2969.55
400.03	2967.51
400.24	3276.75
400.45	3016.66
400.66	3139.54
400.88	3037.14
401.09	3252.17
401.30	2938.84
401.51	3229.65
401.73	3223.50
401.94	3133.39
402.15	3176.40
402.36	3194.83
402.58	3102.67
402.79	3235.79
403.00	3172.30
403.21	3243.98
403.43	3149.78
403.64	3272.65
403.85	3108.82
404.06	3176.40
404.27	3229.65
404.49	3266.51
404.70	3194.83
404.91	3297.23
405.12	3313.61
405.34	3303.37
405.55	3428.30
405.76	3246.03
405.97	3293.13
406.19	3422.16
406.40	3276.75
406.61	3397.58
406.82	3330.00
407.03	3262.41
407.25	3291.09
407.46	3370.96
407.67	3385.29
407.88	3598.28
408.09	3454.92
408.31	3350.48
408.52	3389.39
408.73	3479.50
408.94	3338.19
409.15	3481.55
409.37	3489.74
409.58	3551.18
409.79	3569.61
410.00	3641.29
410.21	3323.85
410.43	3477.45
410.64	3524.55
410.85	3532.75
411.06	3573.71
411.27	3647.43
411.48	3633.10
411.70	3565.51
411.91	3485.64
412.12	3633.10
412.33	3508.17
412.54	3555.27
412.76	3729.35
412.97	3741.64
413.18	3436.49
413.39	3686.34
413.60	3571.66
413.81	3715.02
414.03	3571.66
414.24	3741.64
414.45	3866.56
414.66	3542.99
414.87	3784.65
415.08	3737.54
415.30	3755.97
415.51	3868.61
415.72	3831.75
415.93	3778.50
416.14	3798.98
416.35	3907.52
416.56	3715.02
416.78	3887.04
416.99	3786.69
417.20	3803.08
417.41	3899.33
417.62	3989.44
417.83	3975.11
418.04	3901.38
418.26	4161.47
418.47	4110.27
418.68	3960.77
418.89	3977.16
419.10	4286.40
419.31	4028.35
419.52	4091.84
419.73	4030.40
419.95	4136.90
420.16	3966.92
420.37	4095.94
420.58	4009.92
420.79	3909.57
421.00	3991.49
421.21	4270.01
421.42	4100.03
421.63	4128.70
421.85	4173.76
422.06	4140.99
422.27	4253.63
422.48	4280.25
422.69	4298.69
422.90	4239.30
423.11	4300.73
423.32	4274.11
423.53	4427.71
423.75	4147.14
423.96	4478.91
424.17	4329.41
424.38	4575.16
424.59	4564.92
424.80	4587.45
425.01	4544.44
425.22	4489.15
425.43	4462.52
425.64	4728.76
425.85	4706.23
426.06	4638.65
426.28	4622.27
426.49	4626.36
426.70	4497.34
426.91	4548.54
427.12	4636.60
427.33	4618.17
427.54	4685.75
427.75	4816.82
427.96	4739.00
428.17	4818.87
428.38	4976.56
428.59	4872.12
428.80	4849.59
429.01	4927.41
429.23	4976.56
429.44	5009.33
429.65	5058.48
429.86	4984.76
430.07	4829.11
430.28	5023.67
430.49	5074.87
430.70	5162.93
430.91	5089.20
431.12	4956.08
431.33	5275.57
431.54	5158.83
431.75	5189.55
431.96	5156.79
432.17	5169.07
432.38	5107.63
432.59	5463.98
432.80	5218.22
433.01	5279.66
433.22	5437.36
433.43	5369.77
433.64	5312.43
433.85	5181.36
434.06	5347.25
434.27	5402.54
434.49	5496.75
434.70	5578.67
434.91	5455.79
435.12	5509.04
435.33	5529.52
435.54	5619.63
435.75	5294.00
435.96	5439.40
436.17	5449.64
436.38	5736.36
436.59	5613.48
436.80	5615.53
437.01	5746.60
437.22	5762.98
437.43	5658.54
437.64	5506.99
437.85	5916.58
438.06	5816.23
438.27	5607.34
438.48	5689.26
438.69	5775.27
438.90	5779.37
439.11	5636.01
439.32	5910.44
439.53	5828.52
439.74	6084.52
439.95	6045.60
440.16	5906.34
440.37	5969.83
440.57	5722.02
440.78	6104.99
440.99	5947.30
441.20	5988.26
441.41	5871.53
441.62	6006.69
441.83	5947.30
442.04	6285.22
442.25	6121.38
442.46	6016.93
442.67	6231.97
442.88	6490.01
443.09	6162.34
443.30	6109.09
443.51	6215.59
443.72	6348.70
443.93	6068.13
444.14	6580.12
444.35	6223.78
444.56	6412.19
444.77	6338.46
444.98	6309.79
445.19	6479.77
445.40	6494.11
445.61	6420.38
445.81	6555.55
446.02	6580.12
446.23	6688.67
446.44	6485.92
446.65	6608.80
446.86	6571.93
447.07	6735.77
447.28	6803.35
447.49	6717.34
447.70	6563.74
447.91	6807.45
448.12	6696.86
448.33	6733.72
448.54	6786.97
448.74	6803.35
448.95	6772.63
449.16	6784.92
449.37	7182.23
449.58	6786.97
449.79	7149.46
450.00	6598.56
450.21	6987.67
450.42	7190.42
450.63	7032.72
450.84	7200.66
451.05	7286.67
451.25	7032.72
451.46	6942.61
451.67	7309.20
451.88	7317.39
452.09	7335.82
452.30	7286.67
452.51	7319.44
452.72	7507.85
452.93	7536.52
453.13	7456.65
453.34	7382.93
453.55	7403.41
453.76	7438.22
453.97	7524.24
454.18	7526.29
454.39	7524.24
454.60	7491.47
454.81	7659.40
455.01	7843.72
455.22	7516.05
455.43	7821.19
455.64	8001.41
455.85	7993.22
456.06	8157.06
456.27	7903.11
456.48	7942.02
456.68	7948.17
456.89	7944.07
457.10	8064.90
457.31	8218.50
457.52	8142.72
457.73	8105.86
457.94	8161.16
458.14	7987.08
458.35	8525.69
458.56	8351.62
458.77	8214.40
458.98	8552.32
459.19	8482.69
459.39	8423.30
459.60	8591.23
459.81	8517.50
460.02	8750.97
460.23	8533.89
460.44	8832.89
460.65	8660.86
460.85	8884.09
461.06	8861.56
461.27	8734.59
461.48	9017.21
461.69	9107.32
461.89	8558.46
462.10	9238.39
462.31	8812.41
462.52	9068.41
462.73	8968.06
462.94	9355.12
463.14	9183.09
463.35	9148.28
463.56	9619.31
463.77	9719.66
463.98	9533.29
464.18	9406.32
464.39	9447.28
464.60	10014.57
464.81	9568.11
465.02	9660.27
465.23	9680.75
465.43	9725.80
465.64	9813.87
465.85	9783.15
466.06	9779.05
466.27	10211.17
466.47	10039.14
466.68	10178.40
466.89	10176.36
467.10	10192.74
467.30	10037.09
467.51	10403.68
467.72	10671.97
467.93	10293.09
468.14	10362.72
468.34	10682.20
468.55	10757.98
468.76	10729.31
468.97	10362.72
469.17	10887.00
469.38	10760.03
469.59	11040.60
469.80	10889.05
470.01	10870.62
470.21	10870.62
470.42	11243.35
470.63	11341.65
470.84	11282.26
471.04	11382.61
471.25	11552.59
471.46	11589.46
471.67	11704.14
471.87	11689.81
472.08	11786.06
472.29	11904.84
472.50	11669.33
472.70	11542.35
472.91	11855.69
473.12	12044.10
473.33	12197.70
473.53	12318.53
473.74	12234.57
473.95	12465.99
474.16	12552.00
474.36	12502.85
474.57	12785.47
474.78	12767.04
474.99	12427.07
475.19	12681.02
475.40	13154.10
475.61	13094.71
475.81	13004.60
476.02	13348.66
476.23	13211.45
476.44	13250.36
476.64	13690.67
476.85	13709.10
477.06	13549.36
477.27	14040.87
477.47	13948.72
477.68	13872.94
477.89	14026.54
478.09	14171.94
478.30	14034.73
478.51	14200.62
478.71	14587.68
478.92	14268.20
479.13	14470.95
479.34	14812.96
479.54	14595.87
479.75	14960.41
479.96	14565.15
480.16	14962.46
480.37	14903.07
480.58	15171.35
480.78	15314.71
480.99	15251.22
481.20	15333.14
481.41	15527.70
481.61	15673.10
481.82	15822.61
482.03	15730.45
482.23	15738.64
482.44	16219.91
482.65	16137.99
482.85	16189.19
483.06	16273.16
483.27	16373.51
483.47	16203.53
483.68	16441.09
483.89	16445.19
484.09	16563.97
484.30	16723.71
484.51	16668.42
484.71	16840.45
484.92	16875.26
485.13	17092.35
485.33	17108.73
485.54	17051.39
485.75	17291.00
485.95	17520.37
486.16	17364.73
486.37	17870.58
486.57	17757.94
486.78	17665.78
486.98	17776.37
487.19	18018.03
487.40	18044.65
487.60	18081.52
487.81	18312.94
488.02	18294.50
488.22	18194.15
488.43	18415.34
488.64	18745.06
488.84	18450.15
489.05	19015.39
489.25	18697.95
489.46	18947.81
489.67	19085.02
489.87	19130.08
490.08	19511.00
490.29	19183.32
490.49	19537.62
490.70	19676.88
490.90	19545.81
491.11	19601.11
491.32	19578.58
491.52	19490.52
491.73	19689.17
491.94	19689.17
492.14	19863.25
492.35	20100.81
492.55	20270.79
492.76	20235.98
492.97	20487.88
493.17	20580.04
493.38	20762.31
493.58	20999.87
493.79	20567.75
494.00	20762.31
494.20	20899.52
494.41	20887.23
494.61	21100.22
494.82	21079.74
495.02	21069.50
495.23	21083.84
495.44	21382.84
495.64	21460.66
495.85	21690.04
496.05	21665.46
496.26	21536.44
496.47	21747.38
496.67	21765.81
496.88	22316.72
497.08	22089.39
497.29	22058.67
497.49	22019.76
497.70	22419.11
497.91	22449.83
498.11	22404.78
498.32	22503.08
498.52	22353.58
498.73	23168.67
498.93	22927.01
499.14	22841.00
499.34	22767.27
499.55	23129.76
499.76	23115.42
499.96	23000.74
500.17	23465.63
500.37	23033.50
500.58	23252.64
500.78	23584.41
500.99	23355.04
501.19	23731.86
501.40	23803.54
501.60	23510.68
501.81	23629.46
502.02	23770.77
502.22	23758.49
502.43	23871.12
502.63	24057.49
502.84	24180.37
503.04	24094.35
503.25	24059.54
503.45	24233.61
503.66	24405.64
503.86	24186.51
504.07	24694.41
504.27	24684.17
504.48	24901.25
504.68	24776.33
504.89	25198.21
505.09	24774.28
505.30	24813.19
505.50	25073.28
505.71	25161.34
505.91	25089.67
506.12	25073.28
506.32	25437.82
506.53	25386.62
506.73	25601.66
506.94	25654.90
507.14	25282.17
507.35	25372.28
507.55	25572.99
507.76	25745.02
507.96	25452.16
508.17	25751.16
508.37	25863.80
508.58	26009.20
508.78	26216.05
508.99	26222.19
509.19	26353.26
509.40	26379.89
509.60	26138.23
509.81	26205.81
510.01	26410.60
510.22	26125.94
510.42	26398.32
510.63	26697.32
510.83	26805.86
511.04	26353.26
511.24	26639.98
511.44	26881.64
511.65	26906.21
511.85	26871.40
512.06	27207.26
512.26	27276.90
512.47	26949.22
512.67	27106.91
512.88	27479.64
513.08	27076.19
513.29	27203.17
513.49	27465.31
513.69	27272.80
513.90	27594.33
514.10	27594.33
514.31	27717.21
514.51	27739.74
514.72	27563.61
514.92	27749.98
515.13	27887.19
515.33	28028.50
515.53	27881.05
515.74	27969.11
515.94	28106.32
516.15	28100.18
516.35	28212.82
516.56	28583.50
516.76	27983.44
516.96	28354.13
517.17	28735.05
517.37	28683.85
517.58	28730.95
517.78	28468.81
517.99	28784.20
518.19	28837.45
518.39	28855.88
518.60	28931.65
518.80	28646.99
519.01	28978.76
519.21	29169.22
519.41	29539.90
519.62	29187.65
519.82	29455.93
520.03	29281.86
520.23	29670.97
520.43	29369.92
520.64	29855.29
520.84	30109.24
521.05	29689.40
521.25	29793.85
521.45	30219.83
521.66	30076.47
521.86	30164.53
522.07	30150.20
522.27	30340.66
522.47	30309.94
522.68	30551.60
522.88	30457.39
523.08	30965.29
523.29	30613.04
523.49	30647.85
523.70	31135.27
523.90	31077.93
524.10	31118.89
524.31	31223.33
524.51	30924.33
524.71	31233.57
524.92	31356.45
525.12	31714.84
525.33	31276.58
525.53	31563.29
525.73	31964.70
525.94	31913.50
526.14	31956.50
526.34	31968.79
526.55	32157.21
526.75	32093.72
526.95	32331.28
527.16	32075.29
527.36	32437.78
527.56	32497.17
527.77	32321.04
527.97	32583.18
528.17	33015.30
528.38	32882.19
528.58	32521.74
528.78	33134.09
528.99	32884.23
529.19	33480.19
529.39	32894.47
529.60	33279.49
529.80	33342.98
530.00	33304.07
530.21	33619.46
530.41	33932.79
530.61	33588.74
530.82	33863.16
531.02	33990.14
531.22	34219.51
531.43	34256.37
531.63	34303.48
531.83	34854.38
532.04	34940.39
532.24	34375.16
532.44	34657.78
532.64	35100.14
532.85	34985.45
533.05	35212.77
533.25	34774.51
533.46	35280.36
533.66	35231.21
533.86	35292.65
534.07	35661.28
534.27	35229.16
534.47	35759.58
534.67	35622.37
534.88	35689.95
535.08	35902.94
535.28	35706.34
535.49	36359.64
535.69	36376.02
535.89	36511.19
536.09	36283.86
536.30	36552.15
536.50	36216.28
536.70	37074.38
536.91	36644.30
537.11	36949.45
537.31	36926.92
537.51	37023.18
537.72	37375.43
537.92	37506.50
538.12	37336.52
538.32	37344.71
538.53	37492.16
538.73	37060.04
538.93	37483.97
539.13	37436.87
539.34	37451.20
539.54	37424.58
539.74	38167.99
539.94	37930.43
540.15	37809.60
540.35	38225.34
540.55	38170.04
540.75	38063.55
540.96	38272.44
541.16	38768.05
541.36	38321.59
541.56	38378.93
541.77	38653.36
541.97	38849.97
542.17	38899.12
542.37	38704.56
542.58	38704.56
542.78	38567.35
542.98	38837.68
543.18	38882.73
543.38	39421.35
543.59	39251.37
543.79	38983.09
543.99	38917.55
544.19	39394.73
544.40	39138.73
544.60	39622.05
544.80	39554.47
545.00	39722.40
545.20	39740.83
545.41	39390.63
545.61	39583.14
545.81	40074.65
546.01	40134.04
546.21	39685.54
546.42	40172.96
546.62	40002.97
546.82	40107.42
547.02	40166.81
547.22	40170.91
547.43	40056.22
547.63	40508.82
547.83	40527.25
548.03	40205.72
548.23	40603.03
548.44	40611.22
548.64	40762.77
548.84	40734.10
549.04	40474.01
549.24	40959.38
549.45	40754.58
549.65	40727.95
549.85	40813.97
550.05	41211.28
550.25	41000.33
550.45	41434.50
550.66	41123.21
550.86	40942.99
551.06	41629.06
551.26	41250.19
551.46	41395.59
551.66	41766.27
551.87	41530.76
552.07	41256.33
552.27	41409.93
552.47	41274.76
552.67	41719.17
552.87	41706.88
553.07	41383.30
553.28	41946.50
553.48	41649.54
553.68	41762.18
553.88	41788.80
554.08	41745.80
554.28	42018.17
554.48	41590.15
554.69	42327.42
554.89	41954.69
555.09	41620.87
555.29	41674.12
555.49	42421.62
555.69	42179.96
555.89	41950.59
556.10	42335.61
556.30	42016.13
556.50	42288.51
556.70	42196.35
556.90	42296.70
557.10	42366.33
557.30	42208.64
557.50	42743.16
557.70	42904.95
557.91	42790.26
558.11	42554.74
558.31	43298.16
558.51	42669.43
558.71	42771.83
558.91	42890.61
559.11	42712.44
559.31	42730.87
559.51	42902.90
559.72	42849.65
559.92	43171.18
560.12	43050.35
560.32	42931.57
560.52	42610.04
560.72	43103.60
560.92	42739.06
561.12	42995.06
561.32	43062.64
561.52	43097.45
561.72	43361.64
561.93	42980.72
562.13	43169.13
562.33	42947.95
562.53	43674.98
562.73	43210.09
562.93	43128.17
563.13	43666.79
563.33	43472.23
563.53	43484.52
563.73	43058.54
563.93	43615.59
564.13	43826.53
564.33	44090.72
564.53	43502.95
564.74	43713.89
564.94	43445.61
565.14	44014.94
565.34	43216.24
565.54	44043.62
565.74	44051.81
565.94	44215.65
566.14	43660.65
566.34	43468.14
566.54	44146.01
566.74	43662.69
566.94	44252.51
567.14	44121.44
567.34	43930.98
567.54	44246.36
567.74	44148.06
567.94	43728.23
568.14	44250.46
568.34	44170.59
568.54	44424.54
568.74	44447.07
568.94	44193.12
569.14	44500.31
569.34	44709.21
569.54	44252.51
569.75	44354.91
569.95	44180.83
570.15	44934.48
570.35	44596.57
570.55	44834.13
570.75	44502.36
570.95	44420.44
571.15	44762.45
571.35	45155.66
571.55	44791.12
571.75	44721.49
571.95	44891.48
572.15	44641.62
572.35	45294.92
572.55	45016.40
572.75	45077.84
572.95	45159.76
573.15	45067.60
573.35	44703.06
573.55	45124.94
573.75	45008.21
573.95	45208.91
574.15	45342.03
574.35	45602.12
574.55	45262.16
574.75	44887.38
574.95	45540.68
575.15	45348.17
575.34	45509.96
575.54	45708.61
575.74	45749.57
575.94	45991.23
576.14	45522.25
576.34	45716.81
576.54	45823.30
576.74	46073.15
576.94	45794.63
577.14	46363.96
577.34	46511.42
577.54	45673.80
577.74	46165.31
577.94	46077.25
578.14	45915.46
578.34	46249.28
578.54	45888.84
578.74	45978.95
578.94	46284.09
579.14	46210.37
579.34	46548.28
579.54	46495.03
579.74	46757.17
579.94	46478.65
580.13	47043.89
580.33	46777.65
580.53	47027.51
580.73	46732.60
580.93	46744.89
581.13	46724.41
581.33	47357.23
581.53	47127.86
581.73	47265.07
581.93	47234.35
582.13	47625.51
582.33	47301.93
582.53	47166.77
582.73	47815.97
582.92	47414.57
583.12	47576.36
583.32	47535.40
583.52	47576.36
583.72	47818.02
583.92	47275.31
584.12	47830.31
584.32	48411.93
584.52	47707.43
584.72	47985.96
584.92	48051.49
585.11	48446.75
585.31	47815.97
585.51	47824.17
585.71	48006.44
585.91	48596.25
586.11	48350.49
586.31	47985.96
586.51	48313.63
586.71	48428.32
586.91	48469.28
587.10	48717.08
587.30	48485.66
587.50	48850.20
587.70	48743.70
587.90	48987.41
588.10	48948.50
588.30	48760.09
588.50	49247.50
