SpectraSuite Data File
++++++++++++++++++++++++++++++++++++
Date: Fri Jun 02 14:53:28 CEST 2017
User: INFO_000
Dark Spectrum Present: No
Reference Spectrum Present: No
Number of Sampled Component Spectra: 1
Spectrometers: USB4H00879
Integration Time (usec): 80000 (USB4H00879)
Spectra Averaged: 1 (USB4H00879)
Boxcar Smoothing: 0 (USB4H00879)
Correct for Electrical Dark: No (USB4H00879)
Strobe/Lamp Enabled: No (USB4H00879)
Correct for Detector Non-linearity: No (USB4H00879)
Correct for Stray Light: No (USB4H00879)
Number of Pixels in Processed Spectrum: 3648
>>>>>Begin Processed Spectral Data<<<<<
345.13	1253.36
345.34	1253.36
345.56	1253.36
345.78	1316.84
345.99	1284.08
346.21	1691.62
346.42	1779.68
346.64	1636.33
346.86	1849.32
347.07	1607.66
347.29	1744.87
347.50	1624.04
347.72	1642.47
347.94	1744.87
348.15	1572.84
348.37	1671.14
348.59	1712.10
348.80	1650.66
349.02	1744.87
349.23	1855.46
349.45	1714.15
349.67	1798.12
349.88	1667.05
350.10	1886.18
350.31	1705.96
350.53	1771.49
350.75	1953.76
350.96	1691.62
351.18	1738.73
351.39	1785.83
351.61	1761.25
351.82	1851.36
352.04	1763.30
352.26	1724.39
352.47	1882.08
352.69	1791.97
352.90	1632.23
353.12	1712.10
353.34	1722.34
353.55	1861.60
353.77	1789.92
353.98	1746.92
354.20	1726.44
354.41	1822.69
354.63	1863.65
354.85	1937.38
355.06	1824.74
355.28	1617.90
355.49	1767.40
355.71	1779.68
355.92	1806.31
356.14	1802.21
356.35	1691.62
356.57	1679.33
356.79	1818.60
357.00	1716.20
357.22	1910.75
357.43	1773.54
357.65	1789.92
357.86	1705.96
358.08	1798.12
358.29	1759.21
358.51	1802.21
358.72	1822.69
358.94	1751.01
359.16	1789.92
359.37	1751.01
359.59	1779.68
359.80	1871.84
360.02	1863.65
360.23	1789.92
360.45	1888.23
360.66	1773.54
360.88	1777.64
361.09	1720.29
361.31	1822.69
361.52	1845.22
361.74	1937.38
361.95	1929.19
362.17	1775.59
362.38	1851.36
362.60	1873.89
362.81	1771.49
363.03	1808.36
363.24	1789.92
363.46	1900.52
363.67	1794.02
363.89	1759.21
364.10	1865.70
364.32	1763.30
364.53	1826.79
364.75	1699.81
364.96	1820.64
365.18	1814.50
365.39	1781.73
365.61	1744.87
365.82	1937.38
366.04	1830.88
366.25	1748.97
366.47	1814.50
366.68	1871.84
366.90	1871.84
367.11	1865.70
367.33	1830.88
367.54	1949.67
367.76	1787.88
367.97	1957.86
368.19	1791.97
368.40	1845.22
368.62	1810.40
368.83	1794.02
369.05	1892.32
369.26	1779.68
369.48	1726.44
369.69	1769.44
369.91	1753.06
370.12	1845.22
370.33	1871.84
370.55	1701.86
370.76	1765.35
370.98	1904.61
371.19	1890.28
371.41	1839.08
371.62	1896.42
371.84	1845.22
372.05	1892.32
372.27	1853.41
372.48	1947.62
372.69	1892.32
372.91	1992.67
373.12	1931.23
373.34	1837.03
373.55	1888.23
373.77	1918.95
373.98	1839.08
374.20	1923.04
374.41	2047.97
374.62	1843.17
374.84	1941.47
375.05	1867.75
375.27	1918.95
375.48	1900.52
375.70	1972.19
375.91	1986.53
376.12	2101.22
376.34	1892.32
376.55	1910.75
376.77	1990.63
376.98	1896.42
377.19	1832.93
377.41	1867.75
377.62	2019.30
377.84	2052.06
378.05	2193.37
378.27	2082.78
378.48	1986.53
378.69	2119.65
378.91	2068.45
379.12	1998.82
379.34	1996.77
379.55	2045.92
379.76	1996.77
379.98	1900.52
380.19	1953.76
380.41	2000.87
380.62	2125.79
380.83	1910.75
381.05	1966.05
381.26	2211.81
381.47	1937.38
381.69	2045.92
381.90	2140.13
382.12	2013.15
382.33	2025.44
382.54	2117.60
382.76	2107.36
382.97	2101.22
383.19	1953.76
383.40	2187.23
383.61	2090.98
383.83	2179.04
384.04	2023.39
384.25	2138.08
384.47	2101.22
384.68	2111.46
384.89	2058.21
385.11	2127.84
385.32	2158.56
385.54	2189.28
385.75	2078.69
385.96	2179.04
386.18	2107.36
386.39	2170.85
386.60	2113.50
386.82	2162.66
387.03	2197.47
387.24	2193.37
387.46	2224.09
387.67	2289.63
387.88	2314.20
388.10	2269.15
388.31	2281.44
388.52	2387.93
388.74	2414.56
388.95	2240.48
389.16	2260.96
389.38	2234.33
389.59	2359.26
389.80	2301.92
390.02	2394.08
390.23	2392.03
390.44	2299.87
390.66	2340.83
390.87	2293.72
391.08	2435.03
391.30	2516.95
391.51	2519.00
391.72	2449.37
391.94	2447.32
392.15	2549.72
392.36	2381.79
392.58	2461.66
392.79	2521.05
393.00	2531.29
393.22	2580.44
393.43	2664.41
393.64	2627.54
393.85	2625.50
394.07	2578.39
394.28	2637.78
394.49	2639.83
394.71	2719.70
394.92	2658.26
395.13	2615.26
395.35	2584.54
395.56	2516.95
395.77	2799.57
395.98	2697.17
396.20	2779.09
396.41	2807.77
396.62	2877.40
396.84	2686.94
397.05	2605.02
397.26	2701.27
397.47	2834.39
397.69	2717.65
397.90	2996.18
398.11	2830.29
398.32	2795.48
398.54	2781.14
398.75	2824.15
398.96	2922.45
399.18	2957.27
399.39	2879.44
399.60	2957.27
399.81	2899.92
400.03	2824.15
400.24	3129.30
400.45	2854.87
400.66	3069.91
400.88	2967.51
401.09	3065.81
401.30	2895.83
401.51	3033.04
401.73	3012.56
401.94	3047.38
402.15	2977.75
402.36	3188.69
402.58	3125.20
402.79	3069.91
403.00	3190.74
403.21	3149.78
403.43	3209.17
403.64	3297.23
403.85	3100.62
404.06	3219.41
404.27	3082.19
404.49	3133.39
404.70	3098.58
404.91	3321.81
405.12	3200.98
405.34	3182.54
405.55	3403.72
405.76	3082.19
405.97	3239.89
406.19	3346.38
406.40	3149.78
406.61	3385.29
406.82	3375.05
407.03	3276.75
407.25	3344.33
407.46	3469.26
407.67	3344.33
407.88	3407.82
408.09	3293.13
408.31	3286.99
408.52	3381.20
408.73	3346.38
408.94	3368.91
409.15	3373.00
409.37	3442.64
409.58	3530.70
409.79	3452.88
410.00	3649.48
410.21	3469.26
410.43	3346.38
410.64	3430.35
410.85	3487.69
411.06	3594.19
411.27	3639.24
411.48	3477.45
411.70	3502.03
411.91	3635.14
412.12	3657.67
412.33	3618.76
412.54	3534.79
412.76	3848.13
412.97	3741.64
413.18	3555.27
413.39	3629.00
413.60	3733.45
413.81	3751.88
414.03	3678.15
414.24	3653.58
414.45	3813.32
414.66	3663.82
414.87	3829.70
415.08	3715.02
415.30	3788.74
415.51	3833.80
415.72	3715.02
415.93	3846.09
416.14	3813.32
416.35	3821.51
416.56	3837.89
416.78	3864.52
416.99	3866.56
417.20	3858.37
417.41	3997.64
417.62	3919.81
417.83	3919.81
418.04	4030.40
418.26	3940.29
418.47	3854.28
418.68	3928.00
418.89	4040.64
419.10	4057.03
419.31	3964.87
419.52	4077.51
419.73	4151.23
419.95	4143.04
420.16	3983.30
420.37	3901.38
420.58	4192.19
420.79	3956.68
421.00	4155.33
421.21	4163.52
421.42	4155.33
421.63	4136.90
421.85	4069.31
422.06	4229.06
422.27	4147.14
422.48	4227.01
422.69	4184.00
422.90	4304.83
423.11	4253.63
423.32	4331.45
423.53	4370.37
423.75	4300.73
423.96	4515.77
424.17	4468.67
424.38	4507.58
424.59	4356.03
424.80	4704.18
425.01	4618.17
425.22	4497.34
425.43	4493.24
425.64	4716.47
425.85	4706.23
426.06	4612.03
426.28	4618.17
426.49	4552.63
426.70	4501.44
426.91	4722.62
427.12	4743.10
427.33	4671.42
427.54	4648.89
427.75	4841.40
427.96	4962.23
428.17	4802.49
428.38	4710.33
428.59	4999.09
428.80	4831.16
429.01	4929.46
429.23	4917.17
429.44	5154.74
429.65	5015.48
429.86	5007.28
430.07	4902.84
430.28	4921.27
430.49	5054.39
430.70	5132.21
430.91	5242.80
431.12	5164.98
431.33	5218.22
431.54	5226.42
431.75	5218.22
431.96	5220.27
432.17	5230.51
432.38	5271.47
432.59	5353.39
432.80	5294.00
433.01	5228.46
433.22	5345.20
433.43	5416.88
433.64	5369.77
433.85	5420.97
434.06	5519.28
434.27	5320.62
434.49	5601.19
434.70	5550.00
434.91	5506.99
435.12	5535.66
435.33	5595.05
435.54	5574.57
435.75	5476.27
435.96	5472.17
436.17	5427.12
436.38	5601.19
436.59	5533.61
436.80	5556.14
437.01	5816.23
437.22	5910.44
437.43	5787.56
437.64	5511.08
437.85	5824.42
438.06	5785.51
438.27	5744.55
438.48	5644.20
438.69	5916.58
438.90	5799.85
439.11	5840.81
439.32	5930.92
439.53	5887.91
439.74	5947.30
439.95	6002.60
440.16	5787.56
440.37	5971.88
440.57	5793.70
440.78	5869.48
440.99	5912.49
441.20	5949.35
441.41	5851.05
441.62	6195.11
441.83	5896.10
442.04	6205.35
442.25	6051.75
442.46	6035.36
442.67	6244.26
442.88	6645.66
443.09	6221.73
443.30	6264.74
443.51	6150.05
443.72	6406.05
443.93	6332.32
444.14	6438.81
444.35	6170.53
444.56	6428.57
444.77	6348.70
444.98	6436.77
445.19	6506.40
445.40	6504.35
445.61	6451.10
445.81	6483.87
446.02	6580.12
446.23	6404.00
446.44	6453.15
446.65	6571.93
446.86	6500.25
447.07	6588.32
447.28	6774.68
447.49	6711.19
447.70	6682.52
447.91	6690.71
448.12	6809.50
448.33	6961.05
448.54	6862.74
448.74	6756.25
448.95	6823.83
449.16	6621.08
449.37	7106.45
449.58	6836.12
449.79	7098.26
450.00	6782.87
450.21	6993.81
450.42	7057.30
450.63	7212.95
450.84	7030.68
451.05	7167.89
451.25	7079.83
451.46	7022.48
451.67	7262.10
451.88	7258.00
452.09	7227.28
452.30	7128.98
452.51	7298.96
452.72	7423.89
452.93	7567.24
453.13	7268.24
453.34	7153.55
453.55	7282.58
453.76	7466.89
453.97	7638.92
454.18	7446.41
454.39	7712.65
454.60	7470.99
454.81	7634.83
455.01	7817.10
455.22	7593.87
455.43	7573.39
455.64	7919.50
455.85	7989.13
456.06	8032.13
456.27	7911.30
456.48	7815.05
456.68	7989.13
456.89	7962.50
457.10	8107.91
457.31	7901.06
457.52	7925.64
457.73	8058.76
457.94	8349.57
458.14	8038.28
458.35	8451.97
458.56	8259.46
458.77	8222.59
458.98	8433.54
459.19	8384.38
459.39	8449.92
459.60	8677.24
459.81	8451.97
460.02	8630.14
460.23	8546.17
460.44	8898.42
460.65	8839.03
460.85	8632.19
461.06	8947.58
461.27	8583.04
461.48	9011.06
461.69	9054.07
461.89	8798.07
462.10	8859.51
462.31	8968.06
462.52	8961.91
462.73	8789.88
462.94	9265.01
463.14	9342.83
463.35	9267.06
463.56	9547.63
463.77	9543.53
463.98	9230.20
464.18	9334.64
464.39	9588.59
464.60	9561.97
464.81	9756.52
465.02	9623.41
465.23	9856.87
465.43	9777.00
465.64	9987.94
465.85	9836.39
466.06	9637.74
466.27	10110.82
466.47	10129.25
466.68	10127.21
466.89	10176.36
467.10	10241.89
467.30	10159.97
467.51	10264.42
467.72	10600.29
467.93	10215.27
468.14	10510.18
468.34	10592.09
468.55	10516.32
468.76	10714.97
468.97	10563.42
469.17	10979.16
469.38	10846.04
469.59	11018.07
469.80	10876.76
470.01	11013.98
470.21	11040.60
470.42	11155.29
470.63	11202.39
470.84	11310.93
471.04	11482.96
471.25	11382.61
471.46	11413.33
471.67	11521.87
471.87	11599.70
472.08	11769.68
472.29	11882.31
472.50	11530.06
472.70	11808.59
472.91	11700.05
473.12	11947.85
473.33	12328.77
473.53	12238.66
473.74	12207.94
473.95	12365.64
474.16	12662.59
474.36	12490.56
474.57	12734.27
474.78	12738.37
474.99	12693.31
475.19	12676.93
475.40	13031.23
475.61	13254.45
475.81	13338.42
476.02	13301.56
476.23	13053.75
476.44	13307.70
476.64	13504.31
476.85	13530.93
477.06	13594.42
477.27	13870.89
477.47	13897.52
477.68	13680.43
477.89	14151.46
478.09	14087.98
478.30	13922.09
478.51	14090.02
478.71	14421.80
478.92	14333.73
479.13	14548.77
479.34	14606.11
479.54	14673.70
479.75	14821.15
479.96	14987.04
480.16	15060.76
480.37	15224.60
480.58	15159.06
480.78	15288.09
480.99	15374.10
481.20	15312.66
481.41	15644.43
481.61	15722.26
481.82	15611.67
482.03	15814.41
482.23	15623.95
482.44	15888.14
482.65	16330.50
482.85	16408.33
483.06	16350.98
483.27	16424.71
483.47	16582.40
483.68	16520.96
483.89	16592.64
484.09	16396.04
484.30	16672.51
484.51	17166.07
484.71	16992.00
484.92	17051.39
485.13	17331.96
485.33	17497.84
485.54	17334.01
485.75	17626.87
485.95	17659.63
486.16	17786.61
486.37	17782.51
486.57	17778.42
486.78	18011.89
486.98	17856.24
487.19	18265.83
487.40	18001.65
487.60	18317.03
487.81	18519.78
488.02	18319.08
488.22	18427.62
488.43	18849.50
488.64	18501.35
488.84	18976.48
489.05	19029.73
489.25	19056.35
489.46	19199.71
489.67	19121.88
489.87	19447.51
490.08	19547.86
490.29	19439.32
490.49	19726.04
490.70	19744.47
490.90	20049.61
491.11	19576.53
491.32	19648.21
491.52	20010.70
491.73	20117.20
491.94	20285.13
492.14	20268.75
492.35	20545.22
492.55	20559.56
492.76	20655.81
492.97	20643.52
493.17	20602.57
493.38	20999.87
493.58	21106.37
493.79	20899.52
494.00	21036.74
494.20	21083.84
494.41	21475.00
494.61	21481.14
494.82	21311.16
495.02	21429.94
495.23	21675.70
495.44	21905.07
495.64	21900.98
495.85	21966.51
496.05	21980.85
496.26	21982.90
496.47	22363.82
496.67	22124.21
496.88	22103.73
497.08	22302.38
497.29	22582.95
497.49	22230.70
497.70	22810.28
497.91	22462.12
498.11	22824.61
498.32	22687.40
498.52	22691.49
498.73	23252.64
498.93	23119.52
499.14	22912.67
499.34	23236.25
499.55	23453.34
499.76	23152.29
499.96	23195.29
500.17	23525.02
500.37	23522.97
500.58	23586.46
500.78	23539.35
500.99	23785.11
501.19	24176.27
501.40	23836.31
501.60	23903.89
501.81	23967.38
502.02	24102.54
502.22	23965.33
502.43	24110.74
502.63	24333.96
502.84	24499.85
503.04	24329.87
503.25	24170.13
503.45	24565.39
503.66	24721.03
503.86	24821.38
504.07	24663.69
504.27	24630.92
504.48	25179.78
504.68	24825.48
504.89	25151.10
505.09	25003.65
505.30	25173.63
505.50	25052.80
505.71	25153.15
505.91	25462.40
506.12	25263.74
506.32	25259.65
506.53	25269.89
506.73	25335.42
506.94	25302.65
507.14	25667.19
507.35	25857.65
507.55	25820.79
507.76	25724.54
507.96	25826.93
508.17	26031.73
508.37	25949.81
508.58	26201.71
508.78	25939.57
508.99	26371.69
509.19	26191.47
509.40	26060.40
509.60	26478.19
509.81	26474.09
510.01	26279.54
510.22	26689.13
510.42	26336.88
510.63	26570.35
510.83	26736.23
511.04	26377.84
511.24	26631.79
511.44	26789.48
511.65	27010.66
511.85	27100.77
512.06	27115.11
512.26	27203.17
512.47	27182.69
512.67	27274.85
512.88	27348.57
513.08	27207.26
513.29	27373.15
513.49	27166.31
513.69	27332.19
513.90	27303.52
514.10	27555.42
514.31	27698.78
514.51	27567.71
514.72	27698.78
514.92	27690.59
515.13	27969.11
515.33	27881.05
515.53	28008.02
515.74	28059.22
515.94	27856.47
516.15	28196.43
516.35	27989.59
516.56	28360.27
516.76	28202.58
516.96	28192.34
517.17	28212.82
517.37	28489.29
517.58	28405.33
517.78	28692.04
517.99	28524.11
518.19	28745.29
518.39	28892.74
518.60	28984.90
518.80	28986.95
519.01	29210.18
519.21	29138.50
519.41	29357.63
519.62	29148.74
519.82	29232.71
520.03	29640.25
520.23	29716.03
520.43	28911.17
520.64	29699.64
520.84	29830.71
521.05	29435.45
521.25	30197.30
521.45	29824.57
521.66	29935.16
521.86	29986.36
522.07	29902.39
522.27	30262.83
522.47	29990.45
522.68	30590.51
522.88	30164.53
523.08	30711.34
523.29	30195.25
523.49	30524.97
523.70	30617.13
523.90	30332.47
524.10	30924.33
524.31	30977.58
524.51	30735.92
524.71	31362.59
524.92	31055.40
525.12	31315.49
525.33	31366.69
525.53	31475.23
525.73	31589.92
525.94	31403.55
526.14	31596.06
526.34	31772.19
526.55	31772.19
526.75	32071.19
526.95	32271.89
527.16	31774.24
527.36	32136.73
527.56	32478.74
527.77	32382.48
527.97	32626.19
528.17	32486.93
528.38	32790.03
528.58	32955.91
528.78	32843.27
528.99	32781.84
529.19	33334.79
529.39	32839.18
529.60	33308.16
529.80	33492.48
530.00	32908.81
530.21	33801.72
530.41	33893.88
530.61	33656.32
530.82	33736.19
531.02	33877.50
531.22	33977.85
531.43	33986.04
531.63	34127.35
531.83	33967.61
532.04	34450.93
532.24	34264.57
532.44	34711.02
532.64	34723.31
532.85	34680.30
533.05	34393.59
533.25	34657.78
533.46	34758.13
533.66	35091.94
533.86	34964.97
534.07	35605.98
534.27	35263.97
534.47	35694.05
534.67	35407.33
534.88	35266.02
535.08	35464.67
535.28	36077.02
535.49	35704.29
535.69	35864.03
535.89	35816.93
536.09	36113.88
536.30	36376.02
536.50	36247.00
536.70	36361.69
536.91	36275.67
537.11	36212.18
537.31	36357.59
537.51	36531.67
537.72	37000.65
537.92	37203.40
538.12	37207.50
538.32	37041.61
538.53	37357.00
538.73	36971.98
538.93	37209.54
539.13	37076.43
539.34	37182.92
539.54	37561.79
539.74	37764.54
539.94	37469.64
540.15	37361.09
540.35	37852.61
540.55	37567.94
540.75	37739.97
540.96	37873.09
541.16	38092.22
541.36	37993.92
541.56	38231.48
541.77	38340.02
541.97	38172.09
542.17	38503.86
542.37	38600.12
542.58	38266.30
542.78	38370.74
542.98	38665.65
543.18	38704.56
543.38	39284.14
543.59	38778.29
543.79	38907.31
543.99	39091.63
544.19	39079.34
544.40	38749.62
544.60	39423.40
544.80	39513.51
545.00	39355.82
545.20	39585.19
545.41	38952.37
545.61	39097.77
545.81	39550.37
546.01	39734.69
546.21	39464.36
546.42	39343.53
546.62	39933.34
546.82	39527.84
547.02	39837.09
547.22	39849.38
547.43	39695.78
547.63	39812.51
547.83	39945.63
548.03	40215.96
548.23	40093.08
548.44	39990.69
548.64	40469.91
548.84	40269.21
549.04	40113.56
549.24	40723.86
549.45	41008.53
549.65	40455.57
549.85	40416.66
550.05	40662.42
550.25	40865.17
550.45	40971.66
550.66	40809.87
550.86	40449.43
551.06	41098.64
551.26	40953.23
551.46	41155.98
551.66	41315.72
551.87	40971.66
552.07	41237.90
552.27	41194.89
552.47	41330.06
552.67	41405.83
552.87	41411.98
553.07	41893.25
553.28	41524.61
553.48	41424.26
553.68	41285.00
553.88	41534.85
554.08	41786.75
554.28	41667.97
554.48	41405.83
554.69	41981.31
554.89	41594.25
555.09	41862.53
555.29	41727.36
555.49	42055.04
555.69	42300.79
555.89	41870.72
556.10	42182.01
556.30	42169.72
556.50	42360.19
556.70	42108.29
556.90	42243.45
557.10	42589.56
557.30	42028.41
557.50	42481.02
557.70	42640.76
557.91	42773.88
558.11	42544.50
558.31	42730.87
558.51	42626.42
558.71	42794.36
558.91	42964.34
559.11	42442.10
559.31	42847.60
559.51	42616.18
559.72	42798.45
559.92	42945.90
560.12	42958.19
560.32	43314.54
560.52	42694.00
560.72	43343.21
560.92	43388.27
561.12	43515.24
561.32	43726.18
561.52	43093.36
561.72	43591.01
561.93	43566.44
562.13	43769.19
562.33	43351.40
562.53	43881.83
562.73	43513.19
562.93	43388.27
563.13	43623.78
563.33	43476.33
563.53	44004.70
563.73	44000.61
563.93	43668.84
564.13	44201.31
564.33	43492.71
564.53	43853.15
564.74	44242.27
564.94	43752.80
565.14	44203.36
565.34	43967.84
565.54	43654.50
565.74	44320.09
565.94	44621.14
566.14	44359.00
566.34	44158.30
566.54	44774.74
566.74	43984.22
566.94	45131.09
567.14	44795.22
567.34	44676.44
567.54	44701.01
567.74	45081.94
567.94	44555.61
568.14	45024.59
568.34	44938.58
568.54	44793.17
568.74	45090.13
568.94	44651.86
569.14	45512.01
569.34	45352.27
569.54	44774.74
569.75	44909.91
569.95	45038.93
570.15	45348.17
570.35	45151.57
570.55	45286.73
570.75	45294.92
570.95	45219.15
571.15	45479.24
571.35	45481.29
571.55	45997.38
571.75	45307.21
571.95	45579.59
572.15	45718.85
572.35	45808.96
572.55	45763.91
572.75	45393.23
572.95	45890.88
573.15	46155.07
573.35	45784.39
573.55	45634.89
573.75	45784.39
573.95	46026.05
574.15	45817.16
574.35	46175.55
574.55	45950.27
574.75	46228.80
574.95	46503.23
575.15	46341.44
575.34	46273.85
575.54	46380.35
575.74	46691.64
575.94	46474.55
576.14	46478.65
576.34	47113.52
576.54	46990.64
576.74	46705.98
576.94	46431.55
577.14	47320.37
577.34	47125.81
577.54	47023.41
577.74	46947.64
577.94	46796.09
578.14	47269.17
578.34	47637.80
578.54	46884.15
578.74	47217.97
578.94	47453.48
579.14	46900.53
579.34	47082.80
579.54	47691.05
579.74	47609.13
579.94	47766.82
580.13	47590.70
580.33	47678.76
580.53	47783.21
580.73	47959.33
580.93	47711.53
581.13	47469.87
581.33	48143.65
581.53	48000.29
581.73	48035.11
581.93	48100.64
582.13	48190.75
582.33	48411.93
582.53	48014.63
582.73	48172.32
582.92	48387.36
583.12	48434.46
583.32	48145.70
583.52	48170.27
583.72	48702.74
583.92	48383.26
584.12	48981.27
584.32	48936.21
584.52	48690.46
584.72	48377.12
584.92	48837.91
585.11	49321.23
585.31	48842.01
585.51	48870.68
585.71	48923.93
585.91	49405.20
586.11	49016.08
586.31	48698.65
586.51	48995.60
586.71	49087.76
586.91	49460.49
587.10	49431.82
587.30	49493.26
587.50	49380.62
587.70	49181.97
587.90	49003.80
588.10	49257.74
588.30	49636.62
588.50	50089.22
