SpectraSuite Data File
++++++++++++++++++++++++++++++++++++
Date: Fri Jun 02 14:53:34 CEST 2017
User: INFO_000
Dark Spectrum Present: No
Reference Spectrum Present: No
Number of Sampled Component Spectra: 1
Spectrometers: USB4H00879
Integration Time (usec): 80000 (USB4H00879)
Spectra Averaged: 1 (USB4H00879)
Boxcar Smoothing: 0 (USB4H00879)
Correct for Electrical Dark: No (USB4H00879)
Strobe/Lamp Enabled: No (USB4H00879)
Correct for Detector Non-linearity: No (USB4H00879)
Correct for Stray Light: No (USB4H00879)
Number of Pixels in Processed Spectrum: 3648
>>>>>Begin Processed Spectral Data<<<<<
345.13	1251.31
345.34	1251.31
345.56	1251.31
345.78	1298.41
345.99	1245.16
346.21	1746.92
346.42	1679.33
346.64	1691.62
346.86	1818.60
347.07	1630.18
347.29	1677.29
347.50	1624.04
347.72	1734.63
347.94	1832.93
348.15	1601.51
348.37	1581.03
348.59	1748.97
348.80	1646.57
349.02	1808.36
349.23	1912.80
349.45	1953.76
349.67	1914.85
349.88	1834.98
350.10	1896.42
350.31	1900.52
350.53	1849.32
350.75	1912.80
350.96	1755.11
351.18	1925.09
351.39	1847.27
351.61	1744.87
351.82	1902.56
352.04	1841.12
352.26	1855.46
352.47	1859.56
352.69	1966.05
352.90	1794.02
353.12	1880.04
353.34	1845.22
353.55	1935.33
353.77	1910.75
353.98	1839.08
354.20	1894.37
354.41	1949.67
354.63	2025.44
354.85	1986.53
355.06	1837.03
355.28	1839.08
355.49	1861.60
355.71	1896.42
355.92	1880.04
356.14	1994.72
356.35	1851.36
356.57	1849.32
356.79	1873.89
357.00	1869.80
357.22	1959.91
357.43	1810.40
357.65	1957.86
357.86	1912.80
358.08	2017.25
358.29	1951.71
358.51	1943.52
358.72	2002.91
358.94	1949.67
359.16	1929.19
359.37	1966.05
359.59	1982.43
359.80	1968.10
360.02	1837.03
360.23	1982.43
360.45	2074.59
360.66	1970.15
360.88	1859.56
361.09	1871.84
361.31	1972.19
361.52	1943.52
361.74	2084.83
361.95	2037.73
362.17	1935.33
362.38	2129.89
362.60	2080.74
362.81	1996.77
363.03	1970.15
363.24	1910.75
363.46	2082.78
363.67	2004.96
363.89	2011.11
364.10	1935.33
364.32	1968.10
364.53	1992.67
364.75	1910.75
364.96	1990.63
365.18	2011.11
365.39	1986.53
365.61	2058.21
365.82	2160.61
366.04	2103.26
366.25	1955.81
366.47	2074.59
366.68	1957.86
366.90	1941.47
367.11	2093.02
367.33	2105.31
367.54	2103.26
367.76	1976.29
367.97	2109.41
368.19	1970.15
368.40	2019.30
368.62	1953.76
368.83	1957.86
369.05	2039.78
369.26	1990.63
369.48	1968.10
369.69	2033.63
369.91	1988.58
370.12	2082.78
370.33	2240.48
370.55	2017.25
370.76	2111.46
370.98	2068.45
371.19	2105.31
371.41	2086.88
371.62	2015.20
371.84	1978.34
372.05	2183.13
372.27	2015.20
372.48	2062.30
372.69	2136.03
372.91	2142.18
373.12	2176.99
373.34	2117.60
373.55	2150.37
373.77	2236.38
373.98	2224.09
374.20	2183.13
374.41	2244.57
374.62	2101.22
374.84	2146.27
375.05	2203.61
375.27	2201.57
375.48	2158.56
375.70	2142.18
375.91	2140.13
376.12	2269.15
376.34	2185.18
376.55	2119.65
376.77	2250.72
376.98	2093.02
377.19	2107.36
377.41	2154.46
377.62	2183.13
377.84	2279.39
378.05	2385.88
378.27	2314.20
378.48	2260.96
378.69	2381.79
378.91	2293.72
379.12	2318.30
379.34	2291.68
379.55	2267.10
379.76	2201.57
379.98	2303.96
380.19	2324.44
380.41	2252.77
380.62	2299.87
380.83	2224.09
381.05	2312.16
381.26	2441.18
381.47	2246.62
381.69	2265.05
381.90	2459.61
382.12	2361.31
382.33	2248.67
382.54	2318.30
382.76	2367.45
382.97	2394.08
383.19	2269.15
383.40	2371.55
383.61	2306.01
383.83	2334.68
384.04	2248.67
384.25	2402.27
384.47	2428.89
384.68	2392.03
384.89	2379.74
385.11	2353.12
385.32	2385.88
385.54	2381.79
385.75	2379.74
385.96	2375.64
386.18	2420.70
386.39	2355.16
386.60	2338.78
386.82	2422.75
387.03	2402.27
387.24	2543.58
387.46	2504.67
387.67	2486.23
387.88	2498.52
388.10	2465.75
388.31	2510.81
388.52	2574.30
388.74	2666.46
388.95	2465.75
389.16	2539.48
389.38	2486.23
389.59	2584.54
389.80	2623.45
390.02	2555.86
390.23	2572.25
390.44	2557.91
390.66	2617.30
390.87	2533.34
391.08	2578.39
391.30	2787.29
391.51	2670.55
391.72	2645.98
391.94	2709.46
392.15	2666.46
392.36	2580.44
392.58	2615.26
392.79	2713.56
393.00	2750.42
393.22	2742.23
393.43	2795.48
393.64	2861.01
393.85	2758.61
394.07	2764.76
394.28	2727.89
394.49	2717.65
394.71	2764.76
394.92	2762.71
395.13	2686.94
395.35	2713.56
395.56	2818.00
395.77	2801.62
395.98	2904.02
396.20	2895.83
396.41	2799.57
396.62	2848.72
396.84	2844.63
397.05	2750.42
397.26	2877.40
397.47	3002.32
397.69	2813.91
397.90	3006.42
398.11	2938.84
398.32	2869.20
398.54	2836.44
398.75	2934.74
398.96	2899.92
399.18	3074.00
399.39	2967.51
399.60	3004.37
399.81	2979.79
400.03	3069.91
400.24	3264.46
400.45	2985.94
400.66	3170.26
400.88	3022.80
401.09	3112.91
401.30	2928.60
401.51	3174.35
401.73	3178.45
401.94	3172.30
402.15	3147.73
402.36	3174.35
402.58	3141.58
402.79	3207.12
403.00	3147.73
403.21	3162.06
403.43	3276.75
403.64	3350.48
403.85	3114.96
404.06	3186.64
404.27	3123.15
404.49	3252.17
404.70	3225.55
404.91	3286.99
405.12	3323.85
405.34	3293.13
405.55	3330.00
405.76	3141.58
405.97	3313.61
406.19	3360.72
406.40	3274.70
406.61	3313.61
406.82	3432.40
407.03	3387.34
407.25	3260.37
407.46	3420.11
407.67	3377.10
407.88	3495.88
408.09	3321.81
408.31	3313.61
408.52	3471.31
408.73	3401.68
408.94	3411.92
409.15	3493.83
409.37	3590.09
409.58	3573.71
409.79	3542.99
410.00	3565.51
410.21	3452.88
410.43	3596.23
410.64	3438.54
410.85	3522.51
411.06	3493.83
411.27	3575.75
411.48	3659.72
411.70	3506.12
411.91	3538.89
412.12	3649.48
412.33	3667.91
412.54	3692.49
412.76	3702.73
412.97	3661.77
413.18	3594.19
413.39	3661.77
413.60	3676.10
413.81	3688.39
414.03	3667.91
414.24	3590.09
414.45	3852.23
414.66	3686.34
414.87	3721.16
415.08	3719.11
415.30	3725.26
415.51	3850.18
415.72	3735.50
415.93	3755.97
416.14	3794.89
416.35	3876.80
416.56	3772.36
416.78	3764.17
416.99	3895.24
417.20	3882.95
417.41	3921.86
417.62	3940.29
417.83	3932.10
418.04	3854.28
418.26	4038.59
418.47	3870.66
418.68	3911.62
418.89	4050.88
419.10	4177.86
419.31	4124.61
419.52	4032.45
419.73	4052.93
419.95	4128.70
420.16	4079.55
420.37	4057.03
420.58	4067.27
420.79	4063.17
421.00	4018.11
421.21	4216.77
421.42	4087.75
421.63	4190.14
421.85	4083.65
422.06	4296.64
422.27	4390.84
422.48	4220.86
422.69	4278.21
422.90	4308.93
423.11	4323.26
423.32	4349.89
423.53	4427.71
423.75	4370.37
423.96	4575.16
424.17	4483.00
424.38	4556.73
424.59	4452.28
424.80	4540.35
425.01	4523.96
425.22	4487.10
425.43	4507.58
425.64	4810.68
425.85	4689.85
426.06	4751.29
426.28	4708.28
426.49	4616.12
426.70	4536.25
426.91	4587.45
427.12	4755.38
427.33	4786.10
427.54	4798.39
427.75	4700.09
427.96	4886.45
428.17	4710.33
428.38	4888.50
428.59	4970.42
428.80	4759.48
429.01	4925.36
429.23	4868.02
429.44	5072.82
429.65	5052.34
429.86	5087.15
430.07	4810.68
430.28	4904.89
430.49	5031.86
430.70	5095.35
430.91	5250.99
431.12	5105.59
431.33	5212.08
431.54	5224.37
431.75	5236.66
431.96	5240.75
432.17	5105.59
432.38	5171.12
432.59	5361.58
432.80	5169.07
433.01	5330.86
433.22	5357.49
433.43	5355.44
433.64	5275.57
433.85	5285.81
434.06	5435.31
434.27	5416.88
434.49	5418.93
434.70	5615.53
434.91	5449.64
435.12	5570.48
435.33	5418.93
435.54	5285.81
435.75	5427.12
435.96	5496.75
436.17	5441.45
436.38	5527.47
436.59	5584.81
436.80	5468.08
437.01	5742.50
437.22	5810.09
437.43	5760.94
437.64	5566.38
437.85	5789.61
438.06	5767.08
438.27	5562.28
438.48	5621.67
438.69	5949.35
438.90	5750.70
439.11	5670.83
439.32	5947.30
439.53	5941.16
439.74	5810.09
439.95	5949.35
440.16	5900.20
440.37	5910.44
440.57	5820.33
440.78	5953.45
440.99	5941.16
441.20	5973.92
441.41	5869.48
441.62	6119.33
441.83	5781.42
442.04	6066.08
442.25	6072.23
442.46	6006.69
442.67	6270.88
442.88	6442.91
443.09	6045.60
443.30	6086.56
443.51	6289.31
443.72	6420.38
443.93	6125.47
444.14	6537.12
444.35	6139.81
444.56	6432.67
444.77	6213.54
444.98	6387.61
445.19	6451.10
445.40	6461.34
445.61	6381.47
445.81	6416.29
446.02	6483.87
446.23	6594.46
446.44	6369.18
446.65	6592.41
446.86	6653.85
447.07	6625.18
447.28	6770.58
447.49	6764.44
447.70	6578.08
447.91	6633.37
448.12	6664.09
448.33	6999.96
448.54	6739.87
448.74	6762.39
448.95	6799.26
449.16	6832.02
449.37	7079.83
449.58	6754.20
449.79	6959.00
450.00	6793.11
450.21	6975.38
450.42	6999.96
450.63	6971.29
450.84	7004.05
451.05	7004.05
451.25	7073.68
451.46	6909.85
451.67	7036.82
451.88	7167.89
452.09	7262.10
452.30	7112.60
452.51	7114.64
452.72	7186.32
452.93	7360.40
453.13	7208.85
453.34	7278.48
453.55	7317.39
453.76	7387.02
453.97	7671.69
454.18	7356.30
454.39	7546.76
454.60	7387.02
454.81	7628.68
455.01	7718.79
455.22	7479.18
455.43	7651.21
455.64	7849.86
455.85	7954.31
456.06	8028.04
456.27	7872.39
456.48	7849.86
456.68	8023.94
456.89	7919.50
457.10	7962.50
457.31	8146.82
457.52	7948.17
457.73	8210.31
457.94	8179.59
458.14	8011.65
458.35	8335.23
458.56	8353.66
458.77	8345.47
458.98	8576.89
459.19	8384.38
459.39	8503.17
459.60	8644.48
459.81	8521.60
460.02	8738.68
460.23	8535.93
460.44	8871.80
460.65	8884.09
460.85	8791.93
461.06	8986.49
461.27	8589.18
461.48	8943.48
461.69	9154.42
461.89	8793.98
462.10	8968.06
462.31	8970.10
462.52	8853.37
462.73	9019.25
462.94	9295.73
463.14	9256.82
463.35	9140.08
463.56	9850.73
463.77	9346.93
463.98	9344.88
464.18	9582.45
464.39	9570.16
464.60	9971.56
464.81	9772.91
465.02	9836.39
465.23	9987.94
465.43	9797.48
465.64	10035.05
465.85	9916.26
466.06	9801.58
466.27	10172.26
466.47	10114.92
466.68	10213.22
466.89	10278.76
467.10	10276.71
467.30	10250.08
467.51	10424.16
467.72	10710.88
467.93	10354.53
468.14	10368.87
468.34	10626.91
468.55	10641.25
468.76	10766.17
468.97	10442.59
469.17	10913.63
469.38	10970.97
469.59	11038.55
469.80	10997.59
470.01	10954.58
470.21	10880.86
470.42	11081.56
470.63	11321.17
470.84	11401.04
471.04	11487.06
471.25	11558.74
471.46	11403.09
471.67	11810.64
471.87	11589.46
472.08	11818.83
472.29	11808.59
472.50	11757.39
472.70	11771.72
472.91	11919.18
473.12	12037.96
473.33	12185.41
473.53	12250.95
473.74	12255.04
473.95	12316.48
474.16	12697.41
474.36	12580.67
474.57	12754.75
474.78	12701.50
474.99	12758.85
475.19	12601.15
475.40	12971.83
475.61	13039.42
475.81	13170.49
476.02	13322.04
476.23	13063.99
476.44	13338.42
476.64	13555.51
476.85	13688.62
477.06	13518.64
477.27	13821.74
477.47	13754.16
477.68	14059.31
477.89	14274.34
478.09	14159.66
478.30	14272.29
478.51	14268.20
478.71	14458.66
478.92	14528.29
479.13	14454.56
479.34	14655.26
479.54	14737.18
479.75	14673.70
479.96	14919.45
480.16	14884.64
480.37	15040.28
480.58	15138.58
480.78	15482.64
480.99	15177.50
481.20	15423.25
481.41	15666.96
481.61	15752.98
481.82	16019.21
482.03	15769.36
482.23	15615.76
482.44	15757.07
482.65	16158.47
482.85	16060.17
483.06	16076.55
483.27	16353.03
483.47	16363.27
483.68	16529.16
483.89	16660.23
484.09	16369.41
484.30	16781.06
484.51	16951.04
484.71	17053.44
484.92	17090.30
485.13	17057.53
485.33	17100.54
485.54	17299.19
485.75	17467.13
485.95	17561.33
486.16	17516.28
486.37	17706.74
486.57	17553.14
486.78	17835.76
486.98	17856.24
487.19	18147.05
487.40	17960.69
487.60	18204.39
487.81	18265.83
488.02	18310.89
488.22	17870.58
488.43	18685.67
488.64	18624.23
488.84	18695.91
489.05	18898.66
489.25	18591.46
489.46	19134.17
489.67	18747.11
489.87	19095.26
490.08	19103.45
490.29	19130.08
490.49	19719.89
490.70	19562.20
490.90	19574.49
491.11	19703.51
491.32	19816.15
491.52	19572.44
491.73	19793.62
491.94	19775.19
492.14	19930.83
492.35	20301.51
492.55	20235.98
492.76	20307.66
492.97	20651.72
493.17	20303.56
493.38	20580.04
493.58	20747.97
493.79	20582.09
494.00	20549.32
494.20	20911.81
494.41	21290.68
494.61	21223.10
494.82	21083.84
495.02	20829.89
495.23	21362.36
495.44	21683.89
495.64	21548.73
495.85	21470.90
496.05	21515.96
496.26	21520.06
496.47	22101.68
496.67	21614.26
496.88	21986.99
497.08	22023.86
497.29	22376.11
497.49	22156.97
497.70	22427.31
497.91	22458.03
498.11	22351.53
498.32	22595.24
498.52	22668.97
498.73	22775.46
498.93	22752.93
499.14	23260.83
499.34	22687.40
499.55	23019.17
499.76	22884.00
499.96	23068.32
500.17	23221.92
500.37	23287.45
500.58	23295.64
500.78	23283.36
500.99	23467.67
501.19	23629.46
501.40	23600.79
501.60	23711.38
501.81	23760.53
502.02	23881.36
502.22	23735.96
502.43	23967.38
502.63	24155.79
502.84	24192.65
503.04	23787.16
503.25	24057.49
503.45	24297.10
503.66	24422.03
503.86	24293.01
504.07	24401.55
504.27	24235.66
504.48	24549.00
504.68	24618.63
504.89	24721.03
505.09	24653.45
505.30	24878.72
505.50	25147.01
505.71	25044.61
505.91	25325.18
506.12	25120.38
506.32	25153.15
506.53	25163.39
506.73	25204.35
506.94	25484.92
507.14	25435.77
507.35	25386.62
507.55	25742.97
507.76	25835.13
507.96	25450.11
508.17	25831.03
508.37	25597.56
508.58	26103.41
508.78	25941.62
508.99	26388.08
509.19	26357.36
509.40	25949.81
509.60	26332.78
509.81	26375.79
510.01	26281.58
510.22	26211.95
510.42	26416.75
510.63	26594.92
510.83	26513.00
511.04	26490.48
511.24	26445.42
511.44	26799.72
511.65	26910.31
511.85	26752.62
512.06	26818.15
512.26	26990.18
512.47	27051.62
512.67	27012.71
512.88	27203.17
513.08	27254.37
513.29	27297.38
513.49	27246.18
513.69	27111.01
513.90	27549.28
514.10	27485.79
514.31	27424.35
514.51	27317.86
514.72	27616.86
514.92	27690.59
515.13	27782.74
515.33	27889.24
515.53	28081.75
515.74	28132.95
515.94	27979.35
516.15	27887.19
516.35	27901.53
516.56	28370.51
516.76	28188.24
516.96	28210.77
517.17	28538.44
517.37	28413.52
517.58	28710.47
517.78	28939.85
517.99	28589.64
518.19	28849.74
518.39	28847.69
518.60	28896.84
518.80	28927.56
519.01	29230.66
519.21	29087.30
519.41	29404.74
519.62	29154.88
519.82	29488.70
520.03	29374.02
520.23	29533.76
520.43	29625.92
520.64	29486.65
520.84	29605.44
521.05	29685.31
521.25	30080.56
521.45	29838.90
521.66	30187.06
521.86	29939.26
522.07	30123.57
522.27	30174.77
522.47	30201.40
522.68	30449.20
522.88	30723.63
523.08	30707.24
523.29	30385.71
523.49	30455.34
523.70	30725.68
523.90	30897.70
524.10	30850.60
524.31	30912.04
524.51	30834.22
524.71	31407.65
524.92	31292.96
525.12	31321.63
525.33	31313.44
525.53	31421.98
525.73	31735.32
525.94	32026.14
526.14	31680.03
526.34	31931.93
526.55	31979.03
526.75	31882.78
526.95	32112.15
527.16	32112.15
527.36	31841.82
527.56	32472.59
527.77	32392.72
527.97	32122.39
528.17	32411.15
528.38	32742.92
528.58	32683.53
528.78	33009.16
528.99	32611.85
529.19	33224.20
529.39	32525.84
529.60	33263.11
529.80	33363.46
530.00	33230.34
530.21	33275.40
530.41	33418.75
530.61	33682.94
530.82	33410.56
531.02	33983.99
531.22	33699.33
531.43	34276.85
531.63	34483.70
531.83	34008.57
532.04	34452.98
532.24	34227.70
532.44	34784.75
532.64	34508.27
532.85	35007.98
533.05	34858.48
533.25	34915.82
533.46	34758.13
533.66	35079.66
533.86	34915.82
534.07	35714.53
534.27	34958.83
534.47	35577.31
534.67	35673.57
534.88	35263.97
535.08	35589.60
535.28	35874.27
535.49	35763.68
535.69	35976.67
535.89	36001.24
536.09	36494.80
536.30	36369.88
536.50	36195.80
536.70	36570.58
536.91	36396.50
537.11	36511.19
537.31	36537.81
537.51	36386.26
537.72	36996.56
537.92	36916.68
538.12	36963.79
538.32	36853.20
538.53	37416.39
538.73	37096.91
538.93	37359.05
539.13	37213.64
539.34	37227.98
539.54	37488.07
539.74	37643.71
539.94	37621.19
540.15	37307.85
540.35	37780.93
540.55	38127.03
540.75	38278.58
540.96	38041.02
541.16	37744.06
541.36	38344.12
541.56	38092.22
541.77	38100.41
541.97	38432.18
542.17	38325.69
542.37	38696.37
542.58	38579.64
542.78	38827.44
542.98	38815.15
543.18	38788.53
543.38	39130.54
543.59	38972.85
543.79	38954.41
543.99	39040.43
544.19	38884.78
544.40	39112.11
544.60	39480.74
544.80	39105.96
545.00	39329.19
545.20	39357.86
545.41	38917.55
545.61	39126.44
545.81	39728.55
546.01	39794.08
546.21	39542.18
546.42	39413.16
546.62	39755.17
546.82	39548.32
547.02	40035.74
547.22	39849.38
547.43	39564.71
547.63	40197.53
547.83	40267.16
548.03	40074.65
548.23	40330.65
548.44	40105.37
548.64	40428.95
548.84	40496.53
549.04	40625.56
549.24	40537.49
549.45	40588.69
549.65	40506.77
549.85	40252.83
550.05	41008.53
550.25	40809.87
550.45	41145.74
550.66	41145.74
550.86	41045.39
551.06	41033.10
551.26	41133.45
551.46	40762.77
551.66	41041.29
551.87	40891.79
552.07	40932.75
552.27	41080.21
552.47	41276.81
552.67	41649.54
552.87	41467.27
553.07	41088.40
553.28	41596.29
553.48	41788.80
553.68	41817.47
553.88	41874.82
554.08	41897.34
554.28	42167.68
554.48	41532.81
554.69	41809.28
554.89	41571.72
555.09	41907.58
555.29	41889.15
555.49	41887.10
555.69	42296.70
555.89	41813.38
556.10	42005.89
556.30	41846.15
556.50	42376.57
556.70	41811.33
556.90	42407.29
557.10	42349.95
557.30	42128.77
557.50	42222.97
557.70	42442.10
557.91	42431.86
558.11	42530.17
558.31	42835.31
558.51	42354.04
558.71	42767.73
558.91	42564.98
559.11	42642.81
559.31	42671.48
559.51	42562.93
559.72	42927.47
559.92	43079.02
560.12	42646.90
560.32	42694.00
560.52	42741.11
560.72	42984.82
560.92	43429.23
561.12	43226.48
561.32	42786.16
561.52	43167.09
561.72	43578.73
561.93	43203.95
562.13	43111.79
562.33	43111.79
562.53	44041.57
562.73	42966.38
562.93	42972.53
563.13	43308.40
563.33	43005.30
563.53	43484.52
563.73	43140.46
563.93	43316.59
564.13	44082.53
564.33	43804.00
564.53	43400.55
564.74	43965.79
564.94	43558.25
565.14	43634.02
565.34	43554.15
565.54	43742.56
565.74	43711.84
565.94	44301.66
566.14	43861.35
566.34	43607.40
566.54	44438.87
566.74	43617.64
566.94	44002.66
567.14	44385.63
567.34	44111.20
567.54	44225.89
567.74	43939.17
567.94	44051.81
568.14	44242.27
568.34	44762.45
568.54	44260.70
568.74	44442.97
568.94	44393.82
569.14	44567.90
569.34	44528.98
569.54	44569.94
569.75	44250.46
569.95	44864.85
570.15	44694.87
570.35	44369.24
570.55	45040.98
570.75	44729.69
570.95	44842.32
571.15	44799.32
571.35	44713.30
571.55	44899.67
571.75	44551.51
571.95	45264.21
572.15	45090.13
572.35	45053.26
572.55	45149.52
572.75	45065.55
572.95	45241.68
573.15	45495.63
573.35	45251.92
573.55	45339.98
573.75	45071.70
573.95	45573.45
574.15	45342.03
574.35	45528.39
574.55	45768.01
574.75	45630.79
574.95	45417.80
575.15	45638.98
575.34	46001.47
575.54	45634.89
575.74	45792.58
575.94	46075.20
576.14	45485.39
576.34	46001.47
576.54	46095.68
576.74	46245.18
576.94	45856.07
577.14	46388.54
577.34	46525.75
577.54	45931.84
577.74	45878.60
577.94	46581.05
578.14	46122.30
578.34	46964.02
578.54	46087.49
578.74	46288.19
578.94	46609.72
579.14	46679.35
579.34	46196.03
579.54	46878.00
579.74	47127.86
579.94	46742.84
580.13	47383.85
580.33	47062.32
580.53	47291.69
580.73	46796.09
580.93	47179.06
581.13	47160.62
581.33	47703.34
581.53	47545.64
581.73	47293.74
581.93	47832.36
582.13	47383.85
582.33	47242.54
582.53	47410.48
582.73	47637.80
582.92	47596.84
583.12	48252.19
583.32	47936.80
583.52	47134.00
583.72	48102.69
583.92	47947.04
584.12	48172.32
584.32	48407.84
584.52	48123.17
584.72	47912.23
584.92	48252.19
585.11	48643.35
585.31	48452.89
585.51	48518.43
585.71	48448.80
585.91	48452.89
586.11	48776.47
586.31	48092.45
586.51	48571.67
586.71	48866.58
586.91	48854.29
587.10	48854.29
587.30	48663.83
587.50	49220.88
587.70	49339.66
587.90	49282.32
588.10	48901.40
588.30	49370.38
588.50	49048.85
