SpectraSuite Data File
++++++++++++++++++++++++++++++++++++
Date: Fri Jun 02 14:53:32 CEST 2017
User: INFO_000
Dark Spectrum Present: No
Reference Spectrum Present: No
Number of Sampled Component Spectra: 1
Spectrometers: USB4H00879
Integration Time (usec): 80000 (USB4H00879)
Spectra Averaged: 1 (USB4H00879)
Boxcar Smoothing: 0 (USB4H00879)
Correct for Electrical Dark: No (USB4H00879)
Strobe/Lamp Enabled: No (USB4H00879)
Correct for Detector Non-linearity: No (USB4H00879)
Correct for Stray Light: No (USB4H00879)
Number of Pixels in Processed Spectrum: 3648
>>>>>Begin Processed Spectral Data<<<<<
345.13	1275.88
345.34	1275.88
345.56	1275.88
345.78	1290.22
345.99	1329.13
346.21	1705.96
346.42	1712.10
346.64	1665.00
346.86	1822.69
347.07	1681.38
347.29	1691.62
347.50	1615.85
347.72	1665.00
347.94	1888.23
348.15	1564.65
348.37	1611.75
348.59	1708.01
348.80	1605.61
349.02	1742.82
349.23	1871.84
349.45	1748.97
349.67	1861.60
349.88	1814.50
350.10	1959.91
350.31	1826.79
350.53	1765.35
350.75	1970.15
350.96	1722.34
351.18	1847.27
351.39	1828.84
351.61	1773.54
351.82	1996.77
352.04	1873.89
352.26	1900.52
352.47	1910.75
352.69	1875.94
352.90	1804.26
353.12	1853.41
353.34	1875.94
353.55	1953.76
353.77	1843.17
353.98	1843.17
354.20	1871.84
354.41	1939.43
354.63	1959.91
354.85	2047.97
355.06	1875.94
355.28	1775.59
355.49	1920.99
355.71	1875.94
355.92	1880.04
356.14	1961.95
356.35	1820.64
356.57	1794.02
356.79	1943.52
357.00	1912.80
357.22	1964.00
357.43	1900.52
357.65	1935.33
357.86	1849.32
358.08	1914.85
358.29	1951.71
358.51	2041.82
358.72	1910.75
358.94	2066.40
359.16	1886.18
359.37	1947.62
359.59	1923.04
359.80	1990.63
360.02	1896.42
360.23	2004.96
360.45	2064.35
360.66	1890.28
360.88	1814.50
361.09	1933.28
361.31	1955.81
361.52	1994.72
361.74	2056.16
361.95	2119.65
362.17	1976.29
362.38	2054.11
362.60	2076.64
362.81	2019.30
363.03	1955.81
363.24	1996.77
363.46	2121.70
363.67	1978.34
363.89	2029.54
364.10	1966.05
364.32	1978.34
364.53	2050.02
364.75	1945.57
364.96	2025.44
365.18	2009.06
365.39	2025.44
365.61	1970.15
365.82	2109.41
366.04	1998.82
366.25	1947.62
366.47	2095.07
366.68	2035.68
366.90	1976.29
367.11	2054.11
367.33	2115.55
367.54	2123.74
367.76	2033.63
367.97	2027.49
368.19	2043.87
368.40	2052.06
368.62	2058.21
368.83	1945.57
369.05	2115.55
369.26	1986.53
369.48	2000.87
369.69	2029.54
369.91	1994.72
370.12	1998.82
370.33	2076.64
370.55	1914.85
370.76	1955.81
370.98	2068.45
371.19	1992.67
371.41	2060.26
371.62	2043.87
371.84	1996.77
372.05	2205.66
372.27	2000.87
372.48	2072.54
372.69	2109.41
372.91	2203.61
373.12	2203.61
373.34	2117.60
373.55	2170.85
373.77	2136.03
373.98	2066.40
374.20	2185.18
374.41	2181.09
374.62	2090.98
374.84	2156.51
375.05	2164.70
375.27	2191.33
375.48	2195.42
375.70	2181.09
375.91	2207.71
376.12	2291.68
376.34	2170.85
376.55	2174.94
376.77	2189.28
376.98	2146.27
377.19	2123.74
377.41	2154.46
377.62	2260.96
377.84	2246.62
378.05	2291.68
378.27	2318.30
378.48	2275.29
378.69	2385.88
378.91	2293.72
379.12	2254.81
379.34	2191.33
379.55	2273.25
379.76	2242.53
379.98	2271.20
380.19	2308.06
380.41	2312.16
380.62	2357.21
380.83	2318.30
381.05	2240.48
381.26	2322.40
381.47	2226.14
381.69	2351.07
381.90	2430.94
382.12	2211.81
382.33	2224.09
382.54	2232.29
382.76	2232.29
382.97	2355.16
383.19	2201.57
383.40	2445.27
383.61	2254.81
383.83	2301.92
384.04	2342.88
384.25	2461.66
384.47	2334.68
384.68	2412.51
384.89	2387.93
385.11	2369.50
385.32	2375.64
385.54	2387.93
385.75	2385.88
385.96	2367.45
386.18	2488.28
386.39	2381.79
386.60	2369.50
386.82	2383.84
387.03	2400.22
387.24	2449.37
387.46	2443.23
387.67	2549.72
387.88	2482.14
388.10	2420.70
388.31	2486.23
388.52	2574.30
388.74	2510.81
388.95	2465.75
389.16	2457.56
389.38	2525.15
389.59	2533.34
389.80	2615.26
390.02	2596.82
390.23	2596.82
390.44	2482.14
390.66	2506.71
390.87	2658.26
391.08	2582.49
391.30	2693.08
391.51	2594.78
391.72	2613.21
391.94	2652.12
392.15	2564.06
392.36	2758.61
392.58	2529.24
392.79	2650.07
393.00	2729.94
393.22	2717.65
393.43	2877.40
393.64	2832.34
393.85	2830.29
394.07	2703.32
394.28	2766.81
394.49	2746.33
394.71	2838.48
394.92	2801.62
395.13	2697.17
395.35	2736.09
395.56	2807.77
395.77	2901.97
395.98	2858.96
396.20	2836.44
396.41	2801.62
396.62	2965.46
396.84	2906.07
397.05	2779.09
397.26	2893.78
397.47	2998.23
397.69	2795.48
397.90	3114.96
398.11	3020.75
398.32	2877.40
398.54	2883.54
398.75	2891.73
398.96	2975.70
399.18	3227.60
399.39	3024.85
399.60	3080.14
399.81	3059.67
400.03	2865.11
400.24	3309.52
400.45	2936.79
400.66	3051.47
400.88	3028.95
401.09	3192.78
401.30	3110.86
401.51	3250.13
401.73	3168.21
401.94	3182.54
402.15	3063.76
402.36	3172.30
402.58	3145.68
402.79	3229.65
403.00	3125.20
403.21	3157.97
403.43	3229.65
403.64	3233.74
403.85	3213.26
404.06	3217.36
404.27	3256.27
404.49	3211.22
404.70	3307.47
404.91	3362.76
405.12	3354.57
405.34	3358.67
405.55	3323.85
405.76	3237.84
405.97	3342.28
406.19	3379.15
406.40	3307.47
406.61	3416.01
406.82	3428.30
407.03	3397.58
407.25	3366.86
407.46	3389.39
407.67	3438.54
407.88	3502.03
408.09	3411.92
408.31	3401.68
408.52	3463.12
408.73	3391.44
408.94	3438.54
409.15	3395.53
409.37	3510.22
409.58	3592.14
409.79	3522.51
410.00	3649.48
410.21	3526.60
410.43	3481.55
410.64	3469.26
410.85	3499.98
411.06	3565.51
411.27	3602.38
411.48	3700.68
411.70	3516.36
411.91	3645.38
412.12	3524.55
412.33	3678.15
412.54	3598.28
412.76	3649.48
412.97	3753.93
413.18	3579.85
413.39	3672.01
413.60	3798.98
413.81	3698.63
414.03	3817.41
414.24	3727.30
414.45	3764.17
414.66	3559.37
414.87	3649.48
415.08	3866.56
415.30	3612.62
415.51	3829.70
415.72	3841.99
415.93	3751.88
416.14	3825.61
416.35	3807.17
416.56	3815.37
416.78	3841.99
416.99	3880.90
417.20	3796.93
417.41	3878.85
417.62	3911.62
417.83	4026.31
418.04	3932.10
418.26	3909.57
418.47	3991.49
418.68	3958.72
418.89	3989.44
419.10	4054.98
419.31	3952.58
419.52	4079.55
419.73	4024.26
419.95	4050.88
420.16	4018.11
420.37	3995.59
420.58	4163.52
420.79	3897.28
421.00	3991.49
421.21	4145.09
421.42	4118.47
421.63	4159.42
421.85	4122.56
422.06	4194.24
422.27	4075.46
422.48	4065.22
422.69	4198.34
422.90	4208.58
423.11	4364.22
423.32	4315.07
423.53	4505.53
423.75	4378.56
423.96	4458.43
424.17	4437.95
424.38	4634.55
424.59	4444.09
424.80	4593.59
425.01	4423.61
425.22	4456.38
425.43	4394.94
425.64	4601.79
425.85	4695.99
426.06	4614.07
426.28	4403.13
426.49	4562.87
426.70	4497.34
426.91	4517.82
427.12	4792.25
427.33	4618.17
427.54	4626.36
427.75	4652.98
427.96	4863.93
428.17	4734.90
428.38	4786.10
428.59	4925.36
428.80	4779.96
429.01	4868.02
429.23	4810.68
429.44	5046.20
429.65	4990.90
429.86	5038.00
430.07	4935.60
430.28	4890.55
430.49	5001.14
430.70	5189.55
430.91	5138.35
431.12	4990.90
431.33	5304.24
431.54	5111.73
431.75	5255.09
431.96	5185.46
432.17	5216.18
432.38	5115.83
432.59	5375.92
432.80	5191.60
433.01	5220.27
433.22	5361.58
433.43	5357.49
433.64	5281.71
433.85	5222.32
434.06	5283.76
434.27	5242.80
434.49	5484.46
434.70	5658.54
434.91	5423.02
435.12	5504.94
435.33	5416.88
435.54	5543.85
435.75	5361.58
435.96	5427.12
436.17	5367.73
436.38	5621.67
436.59	5746.60
436.80	5631.91
437.01	5826.47
437.22	5900.20
437.43	5515.18
437.64	5562.28
437.85	5779.37
438.06	5914.53
438.27	5715.88
438.48	5672.87
438.69	5973.92
438.90	5838.76
439.11	5711.78
439.32	5820.33
439.53	5789.61
439.74	5963.68
439.95	5955.49
440.16	6023.08
440.37	6014.88
440.57	5812.14
440.78	6076.32
440.99	6170.53
441.20	6178.72
441.41	5820.33
441.62	6135.71
441.83	5930.92
442.04	6096.80
442.25	6141.86
442.46	6143.91
442.67	6207.39
442.88	6533.02
443.09	6254.50
443.30	6164.39
443.51	6291.36
443.72	6530.97
443.93	6201.25
444.14	6557.60
444.35	6270.88
444.56	6414.24
444.77	6270.88
444.98	6598.56
445.19	6455.20
445.40	6553.50
445.61	6508.44
445.81	6727.58
446.02	6723.48
446.23	6610.84
446.44	6369.18
446.65	6696.86
446.86	6578.08
447.07	6571.93
447.28	6870.94
447.49	6727.58
447.70	6670.23
447.91	6684.57
448.12	6803.35
448.33	6870.94
448.54	6676.38
448.74	6844.31
448.95	7004.05
449.16	6694.81
449.37	6956.95
449.58	6883.22
449.79	7063.44
450.00	6758.30
450.21	6954.90
450.42	7161.75
450.63	6872.98
450.84	7198.61
451.05	7235.47
451.25	7026.58
451.46	7055.25
451.67	7266.19
451.88	7270.29
452.09	7253.91
452.30	7307.15
452.51	7278.48
452.72	7372.69
452.93	7649.16
453.13	7325.58
453.34	7346.06
453.55	7407.50
453.76	7395.22
453.97	7804.81
454.18	7274.38
454.39	7618.44
454.60	7475.09
454.81	7694.22
455.01	7755.66
455.22	7470.99
455.43	7688.07
455.64	7942.02
455.85	8001.41
456.06	8144.77
456.27	7712.65
456.48	8003.46
456.68	8015.75
456.89	8007.56
457.10	8071.04
457.31	8005.51
457.52	8109.96
457.73	8157.06
457.94	8368.00
458.14	7978.89
458.35	8662.91
458.56	8290.18
458.77	8245.12
458.98	8437.63
459.19	8357.76
459.39	8472.45
459.60	8472.45
459.81	8458.11
460.02	8699.77
460.23	8662.91
460.44	8814.46
460.65	8859.51
460.85	8761.21
461.06	8810.36
461.27	8587.13
461.48	8937.34
461.69	8925.05
461.89	8705.92
462.10	8884.09
462.31	8873.85
462.52	8982.39
462.73	9140.08
462.94	9308.02
463.14	9174.90
463.35	9172.85
463.56	9678.70
463.77	9504.62
463.98	9164.66
464.18	9537.39
464.39	9494.38
464.60	9813.87
464.81	9566.06
465.02	9502.58
465.23	9863.02
465.43	9627.50
465.64	10104.68
465.85	9774.95
466.06	9830.25
466.27	10190.69
466.47	10086.25
466.68	10116.97
466.89	9916.26
467.10	10352.48
467.30	9969.51
467.51	10399.59
467.72	10540.90
467.93	10237.80
468.14	10461.02
468.34	10598.24
468.55	10657.63
468.76	10690.40
468.97	10506.08
469.17	10717.02
469.38	10821.47
469.59	10930.01
469.80	10827.61
470.01	10993.50
470.21	10866.52
470.42	11036.50
470.63	11255.64
470.84	11235.16
471.04	11347.79
471.25	11427.67
471.46	11464.53
471.67	11675.47
471.87	11409.23
472.08	11698.00
472.29	11763.53
472.50	11460.43
472.70	11718.48
472.91	11824.97
473.12	11921.23
473.33	12195.65
473.53	12359.49
473.74	12033.86
473.95	12414.79
474.16	12402.50
474.36	12465.99
474.57	12521.28
474.78	12689.21
474.99	12502.85
475.19	12734.27
475.40	12869.44
475.61	13061.94
475.81	13029.18
476.02	13047.61
476.23	13102.90
476.44	13264.69
476.64	13647.66
476.85	13618.99
477.06	13688.62
477.27	13737.77
477.47	13856.56
477.68	13662.00
477.89	13958.96
478.09	13963.05
478.30	13993.77
478.51	14038.83
478.71	14386.98
478.92	14559.01
479.13	14436.13
479.34	14774.05
479.54	14589.73
479.75	14563.11
479.96	14763.81
480.16	14802.72
480.37	14792.48
480.58	15150.87
480.78	15140.63
480.99	15085.34
481.20	15406.87
481.41	15488.79
481.61	15470.36
481.82	15589.14
482.03	15611.67
482.23	15728.40
482.44	16037.64
482.65	16056.08
482.85	15976.20
483.06	15908.62
483.27	16080.65
483.47	16228.10
483.68	16250.63
483.89	16373.51
484.09	16391.94
484.30	16555.78
484.51	16926.46
484.71	16879.36
484.92	17067.77
485.13	17118.97
485.33	17147.64
485.54	17243.90
485.75	17286.90
485.95	17372.92
486.16	17555.19
486.37	17813.23
486.57	17364.73
486.78	17725.17
486.98	17835.76
487.19	17882.86
487.40	17893.10
487.60	18013.93
487.81	18499.30
488.02	18007.79
488.22	18267.88
488.43	18558.69
488.64	18294.50
488.84	18650.85
489.05	18822.88
489.25	18677.48
489.46	18906.85
489.67	18949.85
489.87	19207.90
490.08	19107.55
490.29	19355.35
490.49	19543.77
490.70	19556.05
490.90	19689.17
491.11	19672.79
491.32	19478.23
491.52	19568.34
491.73	19879.63
491.94	19961.55
492.14	20113.10
492.35	20283.08
492.55	20334.28
492.76	20418.25
492.97	20285.13
493.17	20657.86
493.38	20784.83
493.58	21163.71
493.79	20784.83
494.00	20729.54
494.20	20907.71
494.41	21188.28
494.61	21253.82
494.82	21116.61
495.02	21063.36
495.23	21378.75
495.44	21397.18
495.64	21761.72
495.85	21575.35
496.05	21825.20
496.26	21954.22
496.47	22052.53
496.67	22032.05
496.88	22169.26
497.08	21937.84
497.29	22580.90
497.49	22279.85
497.70	22294.19
497.91	22517.42
498.11	22726.31
498.32	22797.99
498.52	22914.72
498.73	23125.66
498.93	22865.57
499.14	23051.94
499.34	23244.45
499.55	23330.46
499.76	23158.43
499.96	23301.79
500.17	23611.03
500.37	23479.96
500.58	23608.98
500.78	23402.14
500.99	23555.74
501.19	23910.04
501.40	23965.33
501.60	23758.49
501.81	23963.28
502.02	24030.87
502.22	23684.76
502.43	24168.08
502.63	24393.36
502.84	24458.89
503.04	24338.06
503.25	24342.16
503.45	24757.89
503.66	24561.29
503.86	24811.14
504.07	24917.64
504.27	24528.52
504.48	25028.23
504.68	25034.37
504.89	25333.37
505.09	25241.21
505.30	25155.20
505.50	25204.35
505.71	25392.76
505.91	25443.96
506.12	25603.71
506.32	25759.35
506.53	25951.86
506.73	26013.30
506.94	25822.84
507.14	25728.63
507.35	26095.22
507.55	25945.72
507.76	25917.04
507.96	26130.03
508.17	25831.03
508.37	26283.63
508.58	26130.03
508.78	26148.46
508.99	26426.99
509.19	26586.73
509.40	26199.66
509.60	26310.25
509.81	26422.89
510.01	26482.28
510.22	26613.35
510.42	26553.96
510.63	26498.67
510.83	26910.31
511.04	26936.93
511.24	27156.07
511.44	26832.49
511.65	26836.58
511.85	27203.17
512.06	27068.00
512.26	27131.49
512.47	27266.66
512.67	27469.40
512.88	27258.46
513.08	27102.82
513.29	27584.09
513.49	27479.64
513.69	27858.52
513.90	27809.37
514.10	27733.59
514.31	27940.44
514.51	27887.19
514.72	27895.38
514.92	28057.17
515.13	27952.73
515.33	27934.29
515.53	28268.11
515.74	28122.71
515.94	28032.60
516.15	28167.76
516.35	28081.75
516.56	28278.35
516.76	28341.84
516.96	28640.84
517.17	28749.39
517.37	28649.03
517.58	28683.85
517.78	28520.01
517.99	28724.81
518.19	28980.81
518.39	28933.70
518.60	29062.72
518.80	29025.86
519.01	29058.63
519.21	29453.89
519.41	29353.54
519.62	29079.11
519.82	29646.40
520.03	29587.00
520.23	29578.81
520.43	29431.36
520.64	29922.87
520.84	30029.37
521.05	29673.02
521.25	29847.10
521.45	29783.61
521.66	30271.03
521.86	29783.61
522.07	30438.96
522.27	30049.85
522.47	30438.96
522.68	30496.30
522.88	30348.85
523.08	30553.65
523.29	30567.98
523.49	30916.14
523.70	30578.22
523.90	31264.29
524.10	30862.89
524.31	30821.93
524.51	30866.98
524.71	31518.24
524.92	31360.55
525.12	31342.11
525.33	31096.36
525.53	31381.03
525.73	31512.10
525.94	31493.66
526.14	31784.48
526.34	31378.98
526.55	31712.80
526.75	31598.11
526.95	32015.90
527.16	31991.32
527.36	31911.45
527.56	32136.73
527.77	32546.32
527.97	32187.92
528.17	32126.49
528.38	32785.93
528.58	32302.61
528.78	32914.95
528.99	32966.15
529.19	32806.41
529.39	32460.30
529.60	33148.42
529.80	33068.55
530.00	33230.34
530.21	33273.35
530.41	33871.36
530.61	33310.21
530.82	33572.35
531.02	33451.52
531.22	33713.66
531.43	33426.95
531.63	33943.03
531.83	34135.54
532.04	34483.70
532.24	33799.68
532.44	34434.55
532.64	34422.26
532.85	34356.72
533.05	34342.39
533.25	34694.64
533.46	34405.88
533.66	35032.55
533.86	34911.72
534.07	35405.28
534.27	34981.35
534.47	35360.23
534.67	35159.53
534.88	35466.72
535.08	35155.43
535.28	35458.53
535.49	35847.64
535.69	35634.66
535.89	35653.09
536.09	35710.43
536.30	36001.24
536.50	36330.97
536.70	36251.09
536.91	36091.35
537.11	36349.40
537.31	36507.09
537.51	36627.92
537.72	36492.76
537.92	36779.47
538.12	36877.77
538.32	36730.32
538.53	36947.40
538.73	36996.56
538.93	36396.50
539.13	36984.27
539.34	37041.61
539.54	36689.36
539.74	37443.01
539.94	37350.85
540.15	37012.94
540.35	37653.95
540.55	37664.19
540.75	37311.94
540.96	37776.83
541.16	37717.44
541.36	38000.06
541.56	38008.25
541.77	38282.68
541.97	37881.28
542.17	38276.54
542.37	38059.45
542.58	37711.30
542.78	38004.16
542.98	38034.88
543.18	38659.51
543.38	38464.95
543.59	38778.29
543.79	38944.17
543.99	38655.41
544.19	39069.10
544.40	38675.89
544.60	39284.14
544.80	39069.10
545.00	38911.41
545.20	39257.51
545.41	38706.61
545.61	38921.65
545.81	39490.98
546.01	39419.30
546.21	39144.87
546.42	39519.65
546.62	40000.93
546.82	39439.78
547.02	39386.54
547.22	39884.19
547.43	39767.46
547.63	40185.24
547.83	40041.88
548.03	39908.77
548.23	40011.17
548.44	39839.14
548.64	40142.24
548.84	39744.93
549.04	40314.26
549.24	40676.76
549.45	40713.62
549.65	40242.59
549.85	40506.77
550.05	40768.91
550.25	40392.09
550.45	41297.29
550.66	40785.30
550.86	40750.48
551.06	40809.87
551.26	41260.43
551.46	41282.95
551.66	40762.77
551.87	41108.88
552.07	40945.04
552.27	41074.06
552.47	41147.79
552.67	41346.44
552.87	41252.23
553.07	41186.70
553.28	41622.92
553.48	41725.32
553.68	41473.42
553.88	41829.76
554.08	41649.54
554.28	41733.51
554.48	41354.63
554.69	41831.81
554.89	41751.94
555.09	41330.06
555.29	41960.83
555.49	41919.87
555.69	42055.04
555.89	42231.16
556.10	42634.61
556.30	42079.61
556.50	42268.03
556.70	41893.25
556.90	42202.49
557.10	42272.12
557.30	42253.69
557.50	42751.35
557.70	42878.32
557.91	42630.52
558.11	42526.07
558.31	42743.16
558.51	42474.87
558.71	43103.60
558.91	42487.16
559.11	42255.74
559.31	42763.64
559.51	42784.12
559.72	42827.12
559.92	42689.91
560.12	42886.51
560.32	42726.77
560.52	42788.21
560.72	43439.47
560.92	42851.70
561.12	43269.48
561.32	43603.30
561.52	42659.19
561.72	43302.25
561.93	42800.50
562.13	43332.97
562.33	43177.33
562.53	43609.45
562.73	42882.42
562.93	43263.34
563.13	43423.08
563.33	43259.24
563.53	43697.51
563.73	43353.45
563.93	43457.90
564.13	44062.05
564.33	43849.06
564.53	43816.29
564.74	43726.18
564.94	43447.66
565.14	43765.09
565.34	43498.86
565.54	44359.00
565.74	44129.63
565.94	44168.54
566.14	44014.94
566.34	44139.87
566.54	44582.23
566.74	43941.22
566.94	44004.70
567.14	44598.62
567.34	44037.47
567.54	44277.08
567.74	44217.69
567.94	44123.49
568.14	44653.91
568.34	44522.84
568.54	44492.12
568.74	44670.29
568.94	44508.50
569.14	44817.75
569.34	44438.87
569.54	44709.21
569.75	44242.27
569.95	44662.10
570.15	45012.31
570.35	44580.18
570.55	45071.70
570.75	44784.98
570.95	44803.41
571.15	44819.80
571.35	44655.96
571.55	45405.52
571.75	44903.76
571.95	45522.25
572.15	44948.82
572.35	45264.21
572.55	45126.99
572.75	45245.77
572.95	45276.49
573.15	45436.23
573.35	46071.10
573.55	45501.77
573.75	45235.53
573.95	45725.00
574.15	45258.06
574.35	45876.55
574.55	45632.84
574.75	45317.45
574.95	45911.36
575.15	45849.92
575.34	46036.29
575.54	46251.33
575.74	46077.25
575.94	46538.04
576.14	46189.89
576.34	46257.47
576.54	46748.98
576.74	46423.36
576.94	46060.87
577.14	46398.78
577.34	46648.63
577.54	46216.51
577.74	46562.62
577.94	46777.65
578.14	46822.71
578.34	46714.17
578.54	46146.88
578.74	46968.12
578.94	46886.20
579.14	46748.98
579.34	46519.61
579.54	47058.23
579.74	47375.66
579.94	47043.89
580.13	47543.59
580.33	47441.20
580.53	47441.20
580.73	47242.54
580.93	47316.27
581.13	47314.22
581.33	47770.92
581.53	48266.53
581.73	47781.16
581.93	47805.73
582.13	47842.60
582.33	48071.97
582.53	47961.38
582.73	47977.76
582.92	48170.27
583.12	48157.99
583.32	47828.26
583.52	48162.08
583.72	48401.69
583.92	48084.26
584.12	48598.30
584.32	49083.67
584.52	48354.59
584.72	48252.19
584.92	48944.41
585.11	49308.94
585.31	48600.35
585.51	48768.28
585.71	48817.43
585.91	48850.20
586.11	48659.74
586.31	49073.43
586.51	48846.10
586.71	49220.88
586.91	49321.23
587.10	49362.19
587.30	49302.80
587.50	49091.86
587.70	49284.37
587.90	49265.94
588.10	49401.10
588.30	49339.66
588.50	49489.16
