SpectraSuite Data File
++++++++++++++++++++++++++++++++++++
Date: Fri Jun 02 14:53:29 CEST 2017
User: INFO_000
Dark Spectrum Present: No
Reference Spectrum Present: No
Number of Sampled Component Spectra: 1
Spectrometers: USB4H00879
Integration Time (usec): 80000 (USB4H00879)
Spectra Averaged: 1 (USB4H00879)
Boxcar Smoothing: 0 (USB4H00879)
Correct for Electrical Dark: No (USB4H00879)
Strobe/Lamp Enabled: No (USB4H00879)
Correct for Detector Non-linearity: No (USB4H00879)
Correct for Stray Light: No (USB4H00879)
Number of Pixels in Processed Spectrum: 3648
>>>>>Begin Processed Spectral Data<<<<<
345.13	1300.46
345.34	1300.46
345.56	1300.46
345.78	1228.78
345.99	1261.55
346.21	1720.29
346.42	1685.48
346.64	1640.42
346.86	1742.82
347.07	1642.47
347.29	1726.44
347.50	1628.14
347.72	1617.90
347.94	1734.63
348.15	1634.28
348.37	1632.23
348.59	1736.68
348.80	1687.53
349.02	1830.88
349.23	1869.80
349.45	1800.16
349.67	1896.42
349.88	1763.30
350.10	1939.43
350.31	1816.55
350.53	1781.73
350.75	1941.47
350.96	1861.60
351.18	1837.03
351.39	1920.99
351.61	1841.12
351.82	1918.95
352.04	1863.65
352.26	1781.73
352.47	1855.46
352.69	1822.69
352.90	1796.07
353.12	1853.41
353.34	1798.12
353.55	1925.09
353.77	1880.04
353.98	1847.27
354.20	1824.74
354.41	1912.80
354.63	1914.85
354.85	1986.53
355.06	1916.90
355.28	1783.78
355.49	1855.46
355.71	1867.75
355.92	1908.71
356.14	1894.37
356.35	1849.32
356.57	1882.08
356.79	1961.95
357.00	1871.84
357.22	1970.15
357.43	1841.12
357.65	1968.10
357.86	1814.50
358.08	1961.95
358.29	1920.99
358.51	1904.61
358.72	1964.00
358.94	1955.81
359.16	1925.09
359.37	1953.76
359.59	2023.39
359.80	2031.58
360.02	2007.01
360.23	1908.71
360.45	1970.15
360.66	1955.81
360.88	1880.04
361.09	1902.56
361.31	2017.25
361.52	1970.15
361.74	2072.54
361.95	2123.74
362.17	1947.62
362.38	2054.11
362.60	1968.10
362.81	2043.87
363.03	1992.67
363.24	1998.82
363.46	2111.46
363.67	2054.11
363.89	1996.77
364.10	1941.47
364.32	1892.32
364.53	1984.48
364.75	1925.09
364.96	2029.54
365.18	2013.15
365.39	2013.15
365.61	2017.25
365.82	2195.42
366.04	2019.30
366.25	2015.20
366.47	2060.26
366.68	2086.88
366.90	2013.15
367.11	2093.02
367.33	2136.03
367.54	2099.17
367.76	2060.26
367.97	2095.07
368.19	2107.36
368.40	2066.40
368.62	2033.63
368.83	1951.71
369.05	2086.88
369.26	1898.47
369.48	1933.28
369.69	2023.39
369.91	2035.68
370.12	2029.54
370.33	2142.18
370.55	1947.62
370.76	2078.69
370.98	2076.64
371.19	2101.22
371.41	2064.35
371.62	2050.02
371.84	2011.11
372.05	2150.37
372.27	1998.82
372.48	2084.83
372.69	2113.50
372.91	2117.60
373.12	2078.69
373.34	2158.56
373.55	2136.03
373.77	2099.17
373.98	2066.40
374.20	2142.18
374.41	2322.40
374.62	2195.42
374.84	2115.55
375.05	2142.18
375.27	2115.55
375.48	2150.37
375.70	2121.70
375.91	2240.48
376.12	2244.57
376.34	2113.50
376.55	2111.46
376.77	2230.24
376.98	2125.79
377.19	2230.24
377.41	2224.09
377.62	2256.86
377.84	2215.90
378.05	2365.40
378.27	2269.15
378.48	2279.39
378.69	2324.44
378.91	2287.58
379.12	2246.62
379.34	2220.00
379.55	2238.43
379.76	2308.06
379.98	2238.43
380.19	2336.73
380.41	2295.77
380.62	2357.21
380.83	2281.44
381.05	2236.38
381.26	2365.40
381.47	2228.19
381.69	2330.59
381.90	2508.76
382.12	2326.49
382.33	2299.87
382.54	2377.69
382.76	2308.06
382.97	2351.07
383.19	2281.44
383.40	2394.08
383.61	2381.79
383.83	2306.01
384.04	2328.54
384.25	2326.49
384.47	2519.00
384.68	2469.85
384.89	2260.96
385.11	2260.96
385.32	2293.72
385.54	2402.27
385.75	2320.35
385.96	2367.45
386.18	2408.41
386.39	2486.23
386.60	2420.70
386.82	2445.27
387.03	2455.51
387.24	2451.42
387.46	2426.84
387.67	2478.04
387.88	2502.62
388.10	2416.60
388.31	2480.09
388.52	2576.34
388.74	2510.81
388.95	2541.53
389.16	2562.01
389.38	2455.51
389.59	2613.21
389.80	2641.88
390.02	2590.68
390.23	2621.40
390.44	2541.53
390.66	2611.16
390.87	2582.49
391.08	2598.87
391.30	2729.94
391.51	2658.26
391.72	2662.36
391.94	2631.64
392.15	2588.63
392.36	2670.55
392.58	2627.54
392.79	2627.54
393.00	2838.48
393.22	2777.05
393.43	2664.41
393.64	2717.65
393.85	2785.24
394.07	2727.89
394.28	2731.99
394.49	2789.33
394.71	2809.81
394.92	2920.40
395.13	2781.14
395.35	2748.37
395.56	2795.48
395.77	2826.20
395.98	2889.68
396.20	2914.26
396.41	2856.92
396.62	2932.69
396.84	2881.49
397.05	2891.73
397.26	2947.03
397.47	2990.03
397.69	2791.38
397.90	3004.37
398.11	2940.88
398.32	2904.02
398.54	2795.48
398.75	2934.74
398.96	2904.02
399.18	3123.15
399.39	2959.31
399.60	3000.27
399.81	2918.36
400.03	2985.94
400.24	3289.04
400.45	2961.36
400.66	3010.51
400.88	3020.75
401.09	3198.93
401.30	3108.82
401.51	3153.87
401.73	3149.78
401.94	3153.87
402.15	3053.52
402.36	3076.05
402.58	3145.68
402.79	3117.01
403.00	3246.03
403.21	3153.87
403.43	3258.32
403.64	3160.02
403.85	3037.14
404.06	3289.04
404.27	3080.14
404.49	3235.79
404.70	3178.45
404.91	3334.09
405.12	3282.89
405.34	3280.85
405.55	3397.58
405.76	3266.51
405.97	3284.94
406.19	3448.78
406.40	3311.57
406.61	3229.65
406.82	3354.57
407.03	3387.34
407.25	3381.20
407.46	3448.78
407.67	3487.69
407.88	3518.41
408.09	3313.61
408.31	3360.72
408.52	3471.31
408.73	3286.99
408.94	3399.63
409.15	3416.01
409.37	3551.18
409.58	3557.32
409.79	3590.09
410.00	3598.28
410.21	3506.12
410.43	3573.71
410.64	3499.98
410.85	3530.70
411.06	3530.70
411.27	3622.86
411.48	3667.91
411.70	3559.37
411.91	3575.75
412.12	3657.67
412.33	3635.14
412.54	3680.20
412.76	3723.21
412.97	3706.82
413.18	3733.45
413.39	3739.59
413.60	3676.10
413.81	3737.54
414.03	3733.45
414.24	3758.02
414.45	3837.89
414.66	3618.76
414.87	3813.32
415.08	3798.98
415.30	3798.98
415.51	3850.18
415.72	3739.59
415.93	3764.17
416.14	3788.74
416.35	3745.73
416.56	3885.00
416.78	3844.04
416.99	3905.48
417.20	3938.24
417.41	3917.76
417.62	4030.40
417.83	4003.78
418.04	3919.81
418.26	3993.54
418.47	4048.83
418.68	4110.27
418.89	4034.50
419.10	4091.84
419.31	4069.31
419.52	4126.66
419.73	4046.79
419.95	4179.90
420.16	3936.20
420.37	4052.93
420.58	4104.13
420.79	3964.87
421.00	4081.60
421.21	4173.76
421.42	4167.62
421.63	4179.90
421.85	4179.90
422.06	4212.67
422.27	4198.34
422.48	4229.06
422.69	4134.85
422.90	4239.30
423.11	4233.15
423.32	4243.39
423.53	4444.09
423.75	4495.29
423.96	4448.19
424.17	4421.56
424.38	4595.64
424.59	4429.76
424.80	4599.74
425.01	4442.04
425.22	4415.42
425.43	4483.00
425.64	4718.52
425.85	4663.22
426.06	4558.78
426.28	4550.59
426.49	4550.59
426.70	4718.52
426.91	4640.70
427.12	4661.18
427.33	4667.32
427.54	4698.04
427.75	4751.29
427.96	4933.56
428.17	4777.91
428.38	4796.34
428.59	4894.65
428.80	4853.69
429.01	4851.64
429.23	4812.73
429.44	4984.76
429.65	5003.19
429.86	5029.81
430.07	4929.46
430.28	4847.54
430.49	5033.91
430.70	5058.48
430.91	5023.67
431.12	5099.44
431.33	5271.47
431.54	5078.96
431.75	5109.68
431.96	5083.06
432.17	5152.69
432.38	5015.48
432.59	5207.98
432.80	5146.55
433.01	5318.57
433.22	5357.49
433.43	5316.53
433.64	5234.61
433.85	5326.77
434.06	5437.36
434.27	5230.51
434.49	5414.83
434.70	5472.17
434.91	5550.00
435.12	5595.05
435.33	5343.15
435.54	5373.87
435.75	5300.14
435.96	5468.08
436.17	5459.88
436.38	5537.71
436.59	5693.35
436.80	5531.56
437.01	5787.56
437.22	5832.62
437.43	5648.30
437.64	5564.33
437.85	5781.42
438.06	5726.12
438.27	5676.97
438.48	5685.16
438.69	5988.26
438.90	5906.34
439.11	5699.50
439.32	5994.40
439.53	5734.31
439.74	5849.00
439.95	5955.49
440.16	5869.48
440.37	6033.32
440.57	5998.50
440.78	5916.58
440.99	6100.90
441.20	5990.31
441.41	5992.36
441.62	5967.78
441.83	5896.10
442.04	6018.98
442.25	6213.54
442.46	6014.88
442.67	6143.91
442.88	6533.02
443.09	6090.66
443.30	6277.02
443.51	6109.09
443.72	6606.75
443.93	6365.09
444.14	6440.86
444.35	6301.60
444.56	6377.37
444.77	6410.14
444.98	6500.25
445.19	6496.16
445.40	6338.46
445.61	6444.96
445.81	6549.40
446.02	6535.07
446.23	6678.43
446.44	6518.68
446.65	6541.21
446.86	6559.64
447.07	6721.43
447.28	6789.02
447.49	6817.69
447.70	6500.25
447.91	6832.02
448.12	6766.49
448.33	6930.33
448.54	6924.18
448.74	6870.94
448.95	6838.17
449.16	6834.07
449.37	7194.51
449.58	6954.90
449.79	7120.79
450.00	6877.08
450.21	6950.81
450.42	7290.77
450.63	7186.32
450.84	7124.88
451.05	7303.06
451.25	7262.10
451.46	7237.52
451.67	7303.06
451.88	7333.78
452.09	7251.86
452.30	7258.00
452.51	7378.83
452.72	7393.17
452.93	7704.46
453.13	7126.93
453.34	7313.30
453.55	7427.98
453.76	7393.17
453.97	7921.54
454.18	7544.72
454.39	7821.19
454.60	7729.03
454.81	7704.46
455.01	7882.63
455.22	7593.87
455.43	7905.16
455.64	8011.65
455.85	8030.09
456.06	8177.54
456.27	7841.67
456.48	8069.00
456.68	8056.71
456.89	7903.11
457.10	8249.22
457.31	8234.88
457.52	8150.92
457.73	8175.49
457.94	8331.14
458.14	8132.48
458.35	8726.39
458.56	8474.49
458.77	8343.42
458.98	8337.28
459.19	8454.02
459.39	8599.42
459.60	8556.41
459.81	8505.21
460.02	8867.70
460.23	8761.21
460.44	9097.08
460.65	8810.36
460.85	8656.76
461.06	8935.29
461.27	8580.99
461.48	9142.13
461.69	9144.18
461.89	8718.20
462.10	9031.54
462.31	8906.62
462.52	9109.36
462.73	9219.96
462.94	9260.91
463.14	9234.29
463.35	9252.72
463.56	9627.50
463.77	9584.49
463.98	9447.28
464.18	9377.65
464.39	9768.81
464.60	9781.10
464.81	9588.59
465.02	9744.24
465.23	9891.69
465.43	9678.70
465.64	9908.07
465.85	9918.31
466.06	9897.83
466.27	10078.05
466.47	10106.73
466.68	10162.02
466.89	10207.08
467.10	10121.06
467.30	9985.90
467.51	10278.76
467.72	10614.62
467.93	10153.83
468.14	10262.37
468.34	10639.20
468.55	10688.35
468.76	10463.07
468.97	10542.94
469.17	10753.88
469.38	10966.87
469.59	11214.68
469.80	10884.95
470.01	10872.67
470.21	10858.33
470.42	11183.96
470.63	11374.42
470.84	11067.22
471.04	11224.92
471.25	11343.70
471.46	11128.66
471.67	11714.38
471.87	11456.34
472.08	11525.97
472.29	12064.58
472.50	11280.21
472.70	11693.90
472.91	11845.45
473.12	11863.88
473.33	11925.32
473.53	12111.69
473.74	11999.05
473.95	12285.76
474.16	12302.15
474.36	12322.63
474.57	12502.85
474.78	12672.83
474.99	12525.38
475.19	12492.61
475.40	12666.69
475.61	12709.69
475.81	13113.14
476.02	13020.99
476.23	13004.60
476.44	13129.53
476.64	13565.74
476.85	13436.72
477.06	13512.50
477.27	13586.22
477.47	13705.01
477.68	13612.85
477.89	13909.80
478.09	13827.88
478.30	13844.27
478.51	13905.71
478.71	14165.80
478.92	14317.35
479.13	14270.25
479.34	14462.76
479.54	14552.87
479.75	14462.76
479.96	14634.78
480.16	14685.98
480.37	14606.11
480.58	14941.98
480.78	15003.42
480.99	14927.64
481.20	15042.33
481.41	15386.39
481.61	15537.94
481.82	15499.03
482.03	15499.03
482.23	15386.39
482.44	15920.91
482.65	16041.74
482.85	15982.35
483.06	15953.68
483.27	16121.61
483.47	16324.36
483.68	16232.20
483.89	16498.44
484.09	16398.09
484.30	16455.43
484.51	16625.41
484.71	16795.39
484.92	16803.58
485.13	17002.24
485.33	17166.07
485.54	17008.38
485.75	17293.05
485.95	17430.26
486.16	17266.42
486.37	17616.63
486.57	17508.08
486.78	17510.13
486.98	17540.85
487.19	17817.33
487.40	18190.06
487.60	17831.66
487.81	18429.67
488.02	18310.89
488.22	18104.04
488.43	18444.01
488.64	18505.45
488.84	18536.17
489.05	18706.15
489.25	18657.00
489.46	19062.49
489.67	18921.18
489.87	19013.34
490.08	19355.35
490.29	19146.46
490.49	19470.04
490.70	19668.69
490.90	19580.63
491.11	19338.97
491.32	19578.58
491.52	19572.44
491.73	19771.09
491.94	19877.58
492.14	19973.84
492.35	20307.66
492.55	20141.77
492.76	20598.47
492.97	20500.17
493.17	20745.92
493.38	20592.33
493.58	20633.29
493.79	20903.62
494.00	20924.10
494.20	20879.04
494.41	21202.62
494.61	21376.70
494.82	21235.39
495.02	21214.91
495.23	21364.41
495.44	21544.63
495.64	21571.25
495.85	21696.18
496.05	21722.80
496.26	22249.13
496.47	22267.56
496.67	22167.21
496.88	22283.95
497.08	22126.25
497.29	22372.01
497.49	22689.45
497.70	22834.85
497.91	22541.99
498.11	22752.93
498.32	22871.72
498.52	22927.01
498.73	23279.26
498.93	23172.77
499.14	23584.41
499.34	23500.44
499.55	23459.48
499.76	23381.66
499.96	23322.27
500.17	23527.06
500.37	23885.46
500.58	23881.36
500.78	23987.86
500.99	24139.41
501.19	24379.02
501.40	24034.96
501.60	23953.04
501.81	23938.71
502.02	24239.76
502.22	24362.64
502.43	24374.92
502.63	24594.06
502.84	25138.82
503.04	24714.89
503.25	24815.24
503.45	24755.85
503.66	25069.19
503.86	24862.34
504.07	25378.43
504.27	24999.55
504.48	25282.17
504.68	25300.61
504.89	25538.17
505.09	25671.29
505.30	25581.18
505.50	25615.99
505.71	25671.29
505.91	25642.62
506.12	25863.80
506.32	25890.42
506.53	25915.00
506.73	26107.51
506.94	26330.73
507.14	26183.28
507.35	26142.32
507.55	26115.70
507.76	26314.35
507.96	26111.60
508.17	26482.28
508.37	26494.57
508.58	26730.09
508.78	26642.03
508.99	26680.94
509.19	26596.97
509.40	26869.35
509.60	26584.68
509.81	26676.84
510.01	26723.94
510.22	26963.56
510.42	27022.95
510.63	27043.43
510.83	27166.31
511.04	26838.63
511.24	27360.86
511.44	27332.19
511.65	27682.39
511.85	27170.40
512.06	27577.95
512.26	27729.50
512.47	27502.17
512.67	27823.70
512.88	27702.87
513.08	27553.37
513.29	27715.16
513.49	27862.61
513.69	27899.48
513.90	27991.64
514.10	28059.22
514.31	28380.75
514.51	28171.86
514.72	28298.83
514.92	27795.03
515.13	28024.40
515.33	28434.00
515.53	28472.91
515.74	28307.02
515.94	28044.88
516.15	28608.08
516.35	28309.07
516.56	28565.07
516.76	28350.03
516.96	28458.57
517.17	28911.17
517.37	29009.48
517.58	28773.96
517.78	28708.43
517.99	28773.96
518.19	28843.59
518.39	29257.28
518.60	29544.00
518.80	29161.03
519.01	29007.43
519.21	29378.11
519.41	29210.18
519.62	29146.69
519.82	29601.34
520.03	29574.72
520.23	29832.76
520.43	29544.00
520.64	29685.31
520.84	29980.21
521.05	29886.01
521.25	29793.85
521.45	30012.98
521.66	30025.27
521.86	29783.61
522.07	29785.66
522.27	29976.12
522.47	30230.07
522.68	30215.73
522.88	30301.75
523.08	30354.99
523.29	30643.76
523.49	30352.94
523.70	30721.58
523.90	30905.90
524.10	30504.49
524.31	30823.98
524.51	30746.15
524.71	31131.17
524.92	30690.86
525.12	31307.30
525.33	31071.78
525.53	31323.68
525.73	31475.23
525.94	31546.91
526.14	31446.56
526.34	31618.59
526.55	31751.71
526.75	31325.73
526.95	31999.51
527.16	31888.92
527.36	32028.18
527.56	31970.84
527.77	32232.98
527.97	32212.50
528.17	32032.28
528.38	32433.68
528.58	32179.73
528.78	32398.87
528.99	32419.35
529.19	32677.39
529.39	32257.56
529.60	32640.53
529.80	32581.13
530.00	32675.34
530.21	33025.54
530.41	32921.10
530.61	32830.99
530.82	32818.70
531.02	33115.65
531.22	33140.23
531.43	33125.89
531.63	33347.08
531.83	33240.58
532.04	33578.50
532.24	33281.54
532.44	33625.60
532.64	33932.79
532.85	34174.45
533.05	34248.18
533.25	33863.16
533.46	33793.53
533.66	34397.68
533.86	34592.24
534.07	34616.82
534.27	34409.97
534.47	34760.17
534.67	34782.70
534.88	34743.79
535.08	34737.65
535.28	35040.75
535.49	34620.91
535.69	35198.44
535.89	35403.24
536.09	35468.77
536.30	35354.08
536.50	35087.85
536.70	35704.29
536.91	35276.26
537.11	35775.97
537.31	35651.04
537.51	35468.77
537.72	36070.87
537.92	36091.35
538.12	36642.26
538.32	36066.78
538.53	36335.06
538.73	35788.25
538.93	36322.77
539.13	36451.80
539.34	36453.84
539.54	36550.10
539.74	36853.20
539.94	36509.14
540.15	36726.22
540.35	37031.37
540.55	36820.43
540.75	36969.93
540.96	37217.74
541.16	37139.91
541.36	37391.81
541.56	37221.83
541.77	37141.96
541.97	37346.76
542.17	37797.31
542.37	37516.74
542.58	37500.36
542.78	37565.89
542.98	37457.35
543.18	38024.64
543.38	38186.43
543.59	38061.50
543.79	37971.39
543.99	38139.32
544.19	38266.30
544.40	38239.67
544.60	38483.38
544.80	38526.39
545.00	38364.60
545.20	38915.50
545.41	38555.06
545.61	38612.40
545.81	39321.00
546.01	39220.65
546.21	39126.44
546.42	38641.07
546.62	38854.06
546.82	39167.40
547.02	38962.61
547.22	39400.87
547.43	39318.95
547.63	39095.72
547.83	39966.11
548.03	39273.90
548.23	39445.93
548.44	39794.08
548.64	39912.86
548.84	39755.17
549.04	39622.05
549.24	40000.93
549.45	40351.13
549.65	40076.70
549.85	39751.07
550.05	40293.79
550.25	39976.35
550.45	40836.50
550.66	40392.09
550.86	40396.18
551.06	40283.55
551.26	40910.22
551.46	40805.78
551.66	40895.89
551.87	40754.58
552.07	40967.57
552.27	40818.07
552.47	41000.33
552.67	41170.32
552.87	40938.90
553.07	41272.71
553.28	41104.78
553.48	41502.09
553.68	41098.64
553.88	41747.84
554.08	41557.38
554.28	41772.42
554.48	41332.11
554.69	41590.15
554.89	41457.03
555.09	41651.59
555.29	41352.58
555.49	42075.52
555.69	41903.49
555.89	42116.48
556.10	42124.67
556.30	41915.78
556.50	42372.47
556.70	41876.86
556.90	42065.28
557.10	42319.23
557.30	41708.93
557.50	42407.29
557.70	42571.13
557.91	42931.57
558.11	42644.85
558.31	42890.61
558.51	42560.89
558.71	42931.57
558.91	43015.54
559.11	43009.39
559.31	42915.19
559.51	43068.78
559.72	42792.31
559.92	42927.47
560.12	42937.71
560.32	43220.33
560.52	43156.85
560.72	43335.02
560.92	43369.83
561.12	43341.16
561.32	43562.34
561.52	43490.66
561.72	43902.31
561.93	43193.71
562.13	43597.16
562.33	43398.51
562.53	44135.77
562.73	43644.26
562.93	43828.58
563.13	43627.88
563.33	43951.46
563.53	44283.23
563.73	43709.80
563.93	44100.96
564.13	44291.42
564.33	43806.05
564.53	44070.24
564.74	44502.36
564.94	44287.32
565.14	44655.96
565.34	44490.07
565.54	44627.29
565.74	45266.25
565.94	45186.38
566.14	44641.62
566.34	44410.20
566.54	45104.46
566.74	44911.95
566.94	44748.12
567.14	45090.13
567.34	44864.85
567.54	45163.85
567.74	45178.19
567.94	45081.94
568.14	45454.67
568.34	45669.70
568.54	45094.22
568.74	45262.16
568.94	45235.53
569.14	45612.36
569.34	45593.93
569.54	45956.42
569.75	45356.36
569.95	45641.03
570.15	45772.10
570.35	46048.58
570.55	45634.89
570.75	45978.95
570.95	45872.45
571.15	46085.44
571.35	46312.77
571.55	46073.15
571.75	46161.22
571.95	46587.19
572.15	46079.30
572.35	46212.41
572.55	46077.25
572.75	46439.74
572.95	46259.52
573.15	46531.90
573.35	46331.20
573.55	46359.87
573.75	46791.99
573.95	46619.96
574.15	46398.78
574.35	46527.80
574.55	46832.95
574.75	46849.33
574.95	47230.26
575.15	46636.34
575.34	47338.80
575.54	47080.75
575.74	47705.38
575.94	47457.58
576.14	47254.83
576.34	47660.33
576.54	47109.43
576.74	47367.47
576.94	47211.82
577.14	47535.40
577.34	48074.02
577.54	47549.74
577.74	47621.42
577.94	47772.97
578.14	47723.82
578.34	47895.85
578.54	47238.45
578.74	47887.65
578.94	48006.44
579.14	47551.79
579.34	48010.53
579.54	48000.29
579.74	48241.95
579.94	48039.20
580.13	48348.45
580.33	48303.39
580.53	48805.14
580.73	48373.02
580.93	48340.25
581.13	48516.38
581.33	48424.22
581.53	48655.64
581.73	48592.15
581.93	49263.89
582.13	48823.58
582.33	48895.25
582.53	49233.17
582.73	49100.05
582.92	49003.80
583.12	49048.85
583.32	48631.07
583.52	48354.59
583.72	48885.01
583.92	49276.18
584.12	49378.57
584.32	49728.78
584.52	49116.43
584.72	49407.25
584.92	49560.84
585.11	50009.35
585.31	49562.89
585.51	49401.10
585.71	49016.08
585.91	49954.05
586.11	49315.09
586.31	49354.00
586.51	49599.76
586.71	49747.21
586.91	50072.84
587.10	49802.50
587.30	49749.26
587.50	50119.94
587.70	50113.80
587.90	50115.84
588.10	50203.91
588.30	50353.41
588.50	50386.18
