SpectraSuite Data File
++++++++++++++++++++++++++++++++++++
Date: Fri Jun 02 14:53:29 CEST 2017
User: INFO_000
Dark Spectrum Present: No
Reference Spectrum Present: No
Number of Sampled Component Spectra: 1
Spectrometers: USB4H00879
Integration Time (usec): 80000 (USB4H00879)
Spectra Averaged: 1 (USB4H00879)
Boxcar Smoothing: 0 (USB4H00879)
Correct for Electrical Dark: No (USB4H00879)
Strobe/Lamp Enabled: No (USB4H00879)
Correct for Detector Non-linearity: No (USB4H00879)
Correct for Stray Light: No (USB4H00879)
Number of Pixels in Processed Spectrum: 3648
>>>>>Begin Processed Spectral Data<<<<<
345.13	1302.51
345.34	1302.51
345.56	1302.51
345.78	1298.41
345.99	1341.42
346.21	1751.01
346.42	1708.01
346.64	1673.19
346.86	1816.55
347.07	1638.38
347.29	1677.29
347.50	1689.57
347.72	1652.71
347.94	1728.49
348.15	1599.46
348.37	1585.13
348.59	1675.24
348.80	1673.19
349.02	1843.17
349.23	1839.08
349.45	1779.68
349.67	1871.84
349.88	1765.35
350.10	1966.05
350.31	1834.98
350.53	1794.02
350.75	1896.42
350.96	1728.49
351.18	1908.71
351.39	1839.08
351.61	1834.98
351.82	1894.37
352.04	1908.71
352.26	1777.64
352.47	1912.80
352.69	1912.80
352.90	1771.49
353.12	1888.23
353.34	1841.12
353.55	1904.61
353.77	1845.22
353.98	1742.82
354.20	1794.02
354.41	1853.41
354.63	1861.60
354.85	1980.39
355.06	1902.56
355.28	1746.92
355.49	1927.14
355.71	1875.94
355.92	1857.51
356.14	1875.94
356.35	1853.41
356.57	1808.36
356.79	1964.00
357.00	1742.82
357.22	1920.99
357.43	1839.08
357.65	1933.28
357.86	1806.31
358.08	1839.08
358.29	1873.89
358.51	1882.08
358.72	1972.19
358.94	1871.84
359.16	1947.62
359.37	1890.28
359.59	1918.95
359.80	1988.58
360.02	1853.41
360.23	1927.14
360.45	2015.20
360.66	1957.86
360.88	1841.12
361.09	1851.36
361.31	2072.54
361.52	1886.18
361.74	2029.54
361.95	2072.54
362.17	1896.42
362.38	1988.58
362.60	2009.06
362.81	1925.09
363.03	1873.89
363.24	1892.32
363.46	2068.45
363.67	1990.63
363.89	1892.32
364.10	2043.87
364.32	1937.38
364.53	2000.87
364.75	1923.04
364.96	1955.81
365.18	2043.87
365.39	2031.58
365.61	1929.19
365.82	2127.84
366.04	2017.25
366.25	1966.05
366.47	2054.11
366.68	2033.63
366.90	1972.19
367.11	2062.30
367.33	1968.10
367.54	2074.59
367.76	1966.05
367.97	2129.89
368.19	2043.87
368.40	2039.78
368.62	1994.72
368.83	2023.39
369.05	2035.68
369.26	2000.87
369.48	1945.57
369.69	1970.15
369.91	1992.67
370.12	1943.52
370.33	2105.31
370.55	1992.67
370.76	1920.99
370.98	2099.17
371.19	2095.07
371.41	1908.71
371.62	2068.45
371.84	2050.02
372.05	2146.27
372.27	2060.26
372.48	2009.06
372.69	2052.06
372.91	2193.37
373.12	2136.03
373.34	2195.42
373.55	2160.61
373.77	2115.55
373.98	2150.37
374.20	2117.60
374.41	2215.90
374.62	2136.03
374.84	2179.04
375.05	2222.05
375.27	2211.81
375.48	2142.18
375.70	2150.37
375.91	2199.52
376.12	2222.05
376.34	2080.74
376.55	2179.04
376.77	2250.72
376.98	2056.16
377.19	2205.66
377.41	2187.23
377.62	2185.18
377.84	2168.80
378.05	2357.21
378.27	2140.13
378.48	2375.64
378.69	2353.12
378.91	2273.25
379.12	2181.09
379.34	2230.24
379.55	2183.13
379.76	2285.53
379.98	2248.67
380.19	2316.25
380.41	2230.24
380.62	2254.81
380.83	2215.90
381.05	2189.28
381.26	2420.70
381.47	2310.11
381.69	2236.38
381.90	2439.13
382.12	2353.12
382.33	2312.16
382.54	2242.53
382.76	2346.97
382.97	2445.27
383.19	2303.96
383.40	2377.69
383.61	2318.30
383.83	2254.81
384.04	2424.80
384.25	2330.59
384.47	2484.19
384.68	2396.12
384.89	2297.82
385.11	2365.40
385.32	2394.08
385.54	2346.97
385.75	2377.69
385.96	2449.37
386.18	2416.60
386.39	2447.32
386.60	2367.45
386.82	2432.99
387.03	2361.31
387.24	2506.71
387.46	2439.13
387.67	2519.00
387.88	2541.53
388.10	2529.24
388.31	2410.46
388.52	2490.33
388.74	2592.73
388.95	2500.57
389.16	2539.48
389.38	2365.40
389.59	2648.02
389.80	2590.68
390.02	2439.13
390.23	2715.61
390.44	2480.09
390.66	2621.40
390.87	2453.47
391.08	2682.84
391.30	2662.36
391.51	2672.60
391.72	2686.94
391.94	2734.04
392.15	2619.35
392.36	2582.49
392.58	2617.30
392.79	2607.06
393.00	2713.56
393.22	2623.45
393.43	2787.29
393.64	2856.92
393.85	2793.43
394.07	2564.06
394.28	2750.42
394.49	2801.62
394.71	2740.18
394.92	2924.50
395.13	2607.06
395.35	2734.04
395.56	2795.48
395.77	2775.00
395.98	2801.62
396.20	2891.73
396.41	2813.91
396.62	2879.44
396.84	2830.29
397.05	2801.62
397.26	2901.97
397.47	2922.45
397.69	2877.40
397.90	3145.68
398.11	2936.79
398.32	2867.16
398.54	2897.88
398.75	2967.51
398.96	2961.36
399.18	3078.10
399.39	3059.67
399.60	3049.43
399.81	2914.26
400.03	2924.50
400.24	3147.73
400.45	3063.76
400.66	3053.52
400.88	3035.09
401.09	3315.66
401.30	3123.15
401.51	3131.34
401.73	3170.26
401.94	3112.91
402.15	3145.68
402.36	3196.88
402.58	3149.78
402.79	3205.07
403.00	3192.78
403.21	3166.16
403.43	3276.75
403.64	3246.03
403.85	3186.64
404.06	3256.27
404.27	3135.44
404.49	3188.69
404.70	3117.01
404.91	3368.91
405.12	3264.46
405.34	3309.52
405.55	3393.48
405.76	3170.26
405.97	3299.28
406.19	3338.19
406.40	3211.22
406.61	3262.41
406.82	3395.53
407.03	3295.18
407.25	3352.52
407.46	3387.34
407.67	3493.83
407.88	3495.88
408.09	3330.00
408.31	3510.22
408.52	3352.52
408.73	3424.20
408.94	3397.58
409.15	3430.35
409.37	3510.22
409.58	3528.65
409.79	3590.09
410.00	3637.19
410.21	3438.54
410.43	3461.07
410.64	3413.96
410.85	3547.08
411.06	3583.95
411.27	3510.22
411.48	3624.90
411.70	3569.61
411.91	3661.77
412.12	3600.33
412.33	3577.80
412.54	3585.99
412.76	3704.78
412.97	3721.16
413.18	3676.10
413.39	3600.33
413.60	3669.96
413.81	3835.85
414.03	3653.58
414.24	3604.42
414.45	3827.65
414.66	3753.93
414.87	3841.99
415.08	3753.93
415.30	3651.53
415.51	3794.89
415.72	3774.41
415.93	3784.65
416.14	3831.75
416.35	3862.47
416.56	3889.09
416.78	3780.55
416.99	3925.96
417.20	3891.14
417.41	4036.55
417.62	3913.67
417.83	3909.57
418.04	3952.58
418.26	3958.72
418.47	3905.48
418.68	4007.87
418.89	3903.43
419.10	4050.88
419.31	3995.59
419.52	4118.47
419.73	4018.11
419.95	4110.27
420.16	4011.97
420.37	4014.02
420.58	4145.09
420.79	3968.96
421.00	4059.07
421.21	4204.48
421.42	4075.46
421.63	4184.00
421.85	4073.41
422.06	4270.01
422.27	4140.99
422.48	4132.80
422.69	4257.73
422.90	4151.23
423.11	4317.12
423.32	4257.73
423.53	4472.76
423.75	4380.61
423.96	4345.79
424.17	4472.76
424.38	4546.49
424.59	4431.80
424.80	4460.48
425.01	4440.00
425.22	4419.52
425.43	4368.32
425.64	4612.03
425.85	4624.31
426.06	4593.59
426.28	4540.35
426.49	4489.15
426.70	4597.69
426.91	4564.92
427.12	4655.03
427.33	4730.81
427.54	4689.85
427.75	4695.99
427.96	4749.24
428.17	4829.11
428.38	4759.48
428.59	4876.21
428.80	4835.25
429.01	4960.18
429.23	4882.36
429.44	5066.67
429.65	5078.96
429.86	5013.43
430.07	4810.68
430.28	5015.48
430.49	5009.33
430.70	5263.28
430.91	5007.28
431.12	4931.51
431.33	5283.76
431.54	5171.12
431.75	5294.00
431.96	5177.26
432.17	5318.57
432.38	5203.89
432.59	5445.55
432.80	5222.32
433.01	5332.91
433.22	5367.73
433.43	5269.42
433.64	5337.01
433.85	5400.49
434.06	5343.15
434.27	5224.37
434.49	5699.50
434.70	5539.76
434.91	5480.36
435.12	5595.05
435.33	5642.15
435.54	5425.07
435.75	5449.64
435.96	5400.49
436.17	5459.88
436.38	5605.29
436.59	5672.87
436.80	5760.94
437.01	5967.78
437.22	5736.36
437.43	5730.22
437.64	5459.88
437.85	5785.51
438.06	5836.71
438.27	5662.63
438.48	5769.13
438.69	5957.54
438.90	5975.97
439.11	5758.89
439.32	5941.16
439.53	5857.19
439.74	5924.77
439.95	5846.95
440.16	5943.21
440.37	5885.86
440.57	5988.26
440.78	6039.46
440.99	6047.65
441.20	5967.78
441.41	5928.87
441.62	6016.93
441.83	5935.01
442.04	6193.06
442.25	6223.78
442.46	6053.80
442.67	6283.17
442.88	6447.01
443.09	6152.10
443.30	6154.15
443.51	6270.88
443.72	6377.37
443.93	6143.91
444.14	6342.56
444.35	6047.65
444.56	6342.56
444.77	6322.08
444.98	6502.30
445.19	6408.09
445.40	6393.76
445.61	6436.77
445.81	6535.07
446.02	6606.75
446.23	6463.39
446.44	6395.81
446.65	6565.79
446.86	6598.56
447.07	6725.53
447.28	6838.17
447.49	6813.59
447.70	6590.36
447.91	6772.63
448.12	6827.93
448.33	6764.44
448.54	6809.50
448.74	6715.29
448.95	6707.10
449.16	6743.96
449.37	7059.35
449.58	6936.47
449.79	7157.65
450.00	6733.72
450.21	7053.20
450.42	7212.95
450.63	7016.34
450.84	6963.09
451.05	6872.98
451.25	6997.91
451.46	6895.51
451.67	7110.55
451.88	7229.33
452.09	7286.67
452.30	7069.59
452.51	7149.46
452.72	7194.51
452.93	7604.11
453.13	7098.26
453.34	7516.05
453.55	7384.98
453.76	7440.27
453.97	7657.36
454.18	7468.94
454.39	7616.40
454.60	7423.89
454.81	7514.00
455.01	7737.23
455.22	7448.46
455.43	7735.18
455.64	7923.59
455.85	7980.93
456.06	7978.89
456.27	7944.07
456.48	7751.56
456.68	7851.91
456.89	8107.91
457.10	8093.57
457.31	8048.52
457.52	8007.56
457.73	8023.94
457.94	8380.29
458.14	8114.05
458.35	8351.62
458.56	8302.47
458.77	8200.07
458.98	8427.39
459.19	8357.76
459.39	8359.81
459.60	8482.69
459.81	8351.62
460.02	8710.01
460.23	8533.89
460.44	8679.29
460.65	8753.02
460.85	8781.69
461.06	8836.99
461.27	8613.76
461.48	9082.74
461.69	9115.51
461.89	8677.24
462.10	9054.07
462.31	8937.34
462.52	8750.97
462.73	8988.53
462.94	9203.57
463.14	9244.53
463.35	9062.26
463.56	9555.82
463.77	9576.30
463.98	9318.26
464.18	9365.36
464.39	9531.25
464.60	9645.93
464.81	9787.24
465.02	9531.25
465.23	9881.45
465.43	9838.44
465.64	9799.53
465.85	10106.73
466.06	9856.87
466.27	10239.84
466.47	10245.99
466.68	10194.79
466.89	10252.13
467.10	10370.91
467.30	9998.18
467.51	10223.46
467.72	10542.94
467.93	10299.23
468.14	10336.10
468.34	10665.82
468.55	10714.97
468.76	10682.20
468.97	10661.73
469.17	10919.77
469.38	10917.72
469.59	11040.60
469.80	10925.91
470.01	10776.41
470.21	11030.36
470.42	11388.75
470.63	11300.69
470.84	11304.79
471.04	11456.34
471.25	11392.85
471.46	11360.08
471.67	11841.36
471.87	11523.92
472.08	11759.44
472.29	11814.73
472.50	11648.85
472.70	11829.07
472.91	11822.92
473.12	12214.09
473.33	12080.97
473.53	12201.80
473.74	12275.52
473.95	12472.13
474.16	12576.58
474.36	12617.54
474.57	12724.03
474.78	12791.61
474.99	12621.63
475.19	12730.17
475.40	13168.44
475.61	13383.48
475.81	13449.01
476.02	13459.25
476.23	13029.18
476.44	13360.95
476.64	13586.22
476.85	13569.84
477.06	13709.10
477.27	13872.94
477.47	13780.78
477.68	14077.74
477.89	14116.65
478.09	14008.11
478.30	14268.20
478.51	14184.23
478.71	14354.21
478.92	14577.44
479.13	14251.81
479.34	14462.76
479.54	14610.21
479.75	14550.82
479.96	14608.16
480.16	15036.19
480.37	15118.11
480.58	15322.90
480.78	15675.15
480.99	15283.99
481.20	15580.95
481.41	15699.73
481.61	15673.10
481.82	15761.17
482.03	15550.23
482.23	15752.98
482.44	15939.34
482.65	16232.20
482.85	16224.01
483.06	16137.99
483.27	16025.36
483.47	16314.12
483.68	16465.67
483.89	16717.57
484.09	16512.77
484.30	16875.26
484.51	16934.65
484.71	16973.56
484.92	16850.69
485.13	17338.10
485.33	17102.59
485.54	17098.49
485.75	17610.48
485.95	17794.80
486.16	17739.51
486.37	17809.14
486.57	17528.56
486.78	17925.87
486.98	17768.18
487.19	18026.22
487.40	18028.27
487.60	18081.52
487.81	18001.65
488.02	18357.99
488.22	18228.97
488.43	18425.57
488.64	18376.42
488.84	18622.18
489.05	18638.56
489.25	18740.96
489.46	18990.81
489.67	18919.14
489.87	19175.13
490.08	18982.62
490.29	19285.72
490.49	19418.84
490.70	19345.11
490.90	19660.50
491.11	19269.34
491.32	19949.26
491.52	19824.34
491.73	19939.02
491.94	19941.07
492.14	20057.81
492.35	20510.41
492.55	20440.78
492.76	20467.40
492.97	20451.02
493.17	20399.82
493.38	20758.21
493.58	20737.73
493.79	20752.07
494.00	20711.11
494.20	20934.34
494.41	21204.67
494.61	21114.56
494.82	20981.44
495.02	21151.42
495.23	21386.94
495.44	21454.52
495.64	21440.18
495.85	21718.71
496.05	21558.97
496.26	21677.75
496.47	21776.05
496.67	21960.37
496.88	21943.99
497.08	21898.93
497.29	22306.48
497.49	22351.53
497.70	22537.90
497.91	22679.21
498.11	22519.46
498.32	22642.34
498.52	22628.01
498.73	22828.71
498.93	22967.97
499.14	22757.03
499.34	22994.59
499.55	23223.97
499.76	22996.64
499.96	23221.92
500.17	23148.19
500.37	23211.68
500.58	23396.00
500.78	23455.39
500.99	23570.07
501.19	23811.73
501.40	23787.16
501.60	23991.95
501.81	23594.65
502.02	23807.64
502.22	23991.95
502.43	24385.16
502.63	24516.23
502.84	24643.21
503.04	24088.21
503.25	24401.55
503.45	24934.02
503.66	24880.77
503.86	24718.98
504.07	25052.80
504.27	24602.25
504.48	24895.11
504.68	25003.65
504.89	25128.58
505.09	25239.17
505.30	25017.99
505.50	25392.76
505.71	25368.19
505.91	25486.97
506.12	25462.40
506.32	25833.08
506.53	25546.36
506.73	25720.44
506.94	25886.32
507.14	25982.58
507.35	25665.14
507.55	25972.34
507.76	25822.84
507.96	26160.75
508.17	25863.80
508.37	26205.81
508.58	26158.70
508.78	26273.39
508.99	26177.14
509.19	26506.86
509.40	26295.92
509.60	26359.41
509.81	26535.53
510.01	26723.94
510.22	26824.29
510.42	26971.75
510.63	26769.00
510.83	26764.90
511.04	26979.94
511.24	27135.59
511.44	26781.29
511.65	27078.24
511.85	27256.42
512.06	27278.94
512.26	27301.47
512.47	27342.43
512.67	27332.19
512.88	27479.64
513.08	27418.21
513.29	27256.42
513.49	27870.81
513.69	27627.10
513.90	27651.67
514.10	27655.77
514.31	27885.14
514.51	27735.64
514.72	28137.04
514.92	27803.22
515.13	28008.02
515.33	28042.84
515.53	28382.80
515.74	27942.49
515.94	28071.51
516.15	28288.59
516.35	28272.21
516.56	28595.79
516.76	28374.61
516.96	28649.03
517.17	28870.22
517.37	28681.80
517.58	28585.55
517.78	28876.36
517.99	28771.91
518.19	29093.44
518.39	29257.28
518.60	29253.19
518.80	28999.24
519.01	29550.14
519.21	29539.90
519.41	29515.33
519.62	29161.03
519.82	29343.30
520.03	29709.88
520.23	29519.42
520.43	29359.68
520.64	29812.28
520.84	29775.42
521.05	29560.38
521.25	30164.53
521.45	30027.32
521.66	30099.00
521.86	29988.41
522.07	29986.36
522.27	30715.44
522.47	30510.64
522.68	30570.03
522.88	30006.84
523.08	30680.62
523.29	30561.84
523.49	30783.02
523.70	30918.18
523.90	30873.13
524.10	30823.98
524.31	30871.08
524.51	30344.75
524.71	31383.07
524.92	31192.61
525.12	31249.96
525.33	31493.66
525.53	31745.56
525.73	31850.01
525.94	31434.27
526.14	31897.11
526.34	31440.42
526.55	31567.39
526.75	31716.89
526.95	32009.75
527.16	31901.21
527.36	31913.50
527.56	32126.49
527.77	32419.35
527.97	32253.46
528.17	31954.46
528.38	32669.20
528.58	32615.95
528.78	32681.49
528.99	32587.28
529.19	33046.02
529.39	32787.98
529.60	32921.10
529.80	33015.30
530.00	32755.21
530.21	33097.22
530.41	33586.69
530.61	32947.72
530.82	33232.39
531.02	33351.17
531.22	33496.58
531.43	33551.87
531.63	33648.13
531.83	33994.23
532.04	33977.85
532.24	33617.41
532.44	34170.36
532.64	34287.09
532.85	34586.10
533.05	34516.47
533.25	34536.94
533.46	34166.26
533.66	34754.03
533.86	34536.94
534.07	34831.85
534.27	35102.18
534.47	35141.10
534.67	34799.08
534.88	35137.00
535.08	35237.35
535.28	35065.32
535.49	35483.11
535.69	35853.79
535.89	35407.33
536.09	35610.08
536.30	35911.13
536.50	35610.08
536.70	35890.65
536.91	36140.50
537.11	36208.09
537.31	36285.91
537.51	36154.84
537.72	36726.22
537.92	36576.72
538.12	36777.42
538.32	36480.47
538.53	36881.87
538.73	36435.41
538.93	36580.82
539.13	36955.60
539.34	36769.23
539.54	36650.45
539.74	37275.08
539.94	37051.85
540.15	36828.62
540.35	37565.89
540.55	37232.07
540.75	37342.66
540.96	37696.96
541.16	37393.86
541.36	37447.11
541.56	38014.40
541.77	37754.30
541.97	38067.64
542.17	37856.70
542.37	38006.20
542.58	38200.76
542.78	37825.98
542.98	38622.64
543.18	38049.21
543.38	38657.46
543.59	38415.80
543.79	38483.38
543.99	38124.99
544.19	38372.79
544.40	38663.60
544.60	39089.58
544.80	38565.30
545.00	38917.55
545.20	39241.13
545.41	38935.98
545.61	38831.54
545.81	39478.69
546.01	39599.52
546.21	39392.68
546.42	39300.52
546.62	39931.29
546.82	39560.61
547.02	39558.56
547.22	39634.34
547.43	39841.18
547.63	40035.74
547.83	40220.06
548.03	39978.40
548.23	39984.54
548.44	40498.58
548.64	40125.85
548.84	40107.42
549.04	40340.89
549.24	39908.77
549.45	40899.98
549.65	40261.02
549.85	40506.77
550.05	40871.31
550.25	40498.58
550.45	40990.09
550.66	40756.63
550.86	40951.18
551.06	40619.41
551.26	40949.14
551.46	41112.97
551.66	41133.45
551.87	40912.27
552.07	41143.69
552.27	41170.32
552.47	41203.08
552.67	41246.09
552.87	41452.94
553.07	41411.98
553.28	41604.49
553.48	41391.50
553.68	41450.89
553.88	42444.15
554.08	42171.77
554.28	42171.77
554.48	41772.42
554.69	41842.05
554.89	42091.90
555.09	42399.10
555.29	42075.52
555.49	42210.68
555.69	42028.41
555.89	42175.87
556.10	42628.47
556.30	42210.68
556.50	42825.07
556.70	42390.91
556.90	42653.05
557.10	42747.25
557.30	42161.53
557.50	42253.69
557.70	42728.82
557.91	42812.79
558.11	42902.90
558.31	43054.45
558.51	42802.55
558.71	43126.13
558.91	42972.53
559.11	42933.62
559.31	42708.34
559.51	43052.40
559.72	43181.42
559.92	42999.15
560.12	43603.30
560.32	43208.04
560.52	42835.31
560.72	43335.02
560.92	43472.23
561.12	43930.98
561.32	43722.08
561.52	43351.40
561.72	44209.50
561.93	43337.07
562.13	43967.84
562.33	43763.04
562.53	44191.07
562.73	43887.97
562.93	43570.54
563.13	43840.87
563.33	43922.79
563.53	43963.75
563.73	43599.21
563.93	44180.83
564.13	44367.20
564.33	44113.25
564.53	44389.72
564.74	44393.82
564.94	43728.23
565.14	44723.54
565.34	44217.69
565.54	44334.43
565.74	44725.59
565.94	44844.37
566.14	44199.26
566.34	44252.51
566.54	45040.98
566.74	44406.11
566.94	44805.46
567.14	45172.05
567.34	44766.55
567.54	45057.36
567.74	44997.97
567.94	44897.62
568.14	44905.81
568.34	45280.59
568.54	45174.09
568.74	45053.26
568.94	44961.11
569.14	45450.57
569.34	45049.17
569.54	45305.16
569.75	44815.70
569.95	45673.80
570.15	45862.21
570.35	45440.33
570.55	45346.12
570.75	45393.23
570.95	45315.40
571.15	45610.31
571.35	45659.46
571.55	46036.29
571.75	45425.99
571.95	45489.48
572.15	45514.06
572.35	46187.84
572.55	45655.37
572.75	45440.33
572.95	45743.43
573.15	46015.81
573.35	46425.40
573.55	45962.56
573.75	46200.13
573.95	46030.15
574.15	46044.48
574.35	46173.50
574.55	46454.08
574.75	46128.45
574.95	46503.23
575.15	46054.72
575.34	46193.98
575.54	46716.22
575.74	46650.68
575.94	46894.39
576.14	46572.86
576.34	46667.06
576.54	47019.31
576.74	47013.17
576.94	46503.23
577.14	47199.54
577.34	47064.37
577.54	46949.68
577.74	47031.60
577.94	46837.05
578.14	47338.80
578.34	47504.68
578.54	46757.17
578.74	46972.21
578.94	47580.46
579.14	47439.15
579.34	47170.86
579.54	47017.27
579.74	47557.93
579.94	47752.49
580.13	47492.40
580.33	47617.32
580.53	47629.61
580.73	47762.73
580.93	47478.06
581.13	47611.18
581.33	48141.60
581.53	48037.16
581.73	47920.42
581.93	47590.70
582.13	47873.32
582.33	48139.55
582.53	47805.73
582.73	47787.30
582.92	48129.31
583.12	48815.38
583.32	47908.13
583.52	48104.74
583.72	48450.84
583.92	48362.78
584.12	48409.89
584.32	49145.11
584.52	48653.59
584.72	48518.43
584.92	48753.94
585.11	48960.79
585.31	48471.32
585.51	48653.59
585.71	48465.18
585.91	49100.05
586.11	48325.92
586.31	48833.81
586.51	48903.45
586.71	49313.04
586.91	49411.34
587.10	49407.25
587.30	49179.92
587.50	49050.90
587.70	49263.89
587.90	49288.46
588.10	49599.76
588.30	49409.29
588.50	49294.61
