SpectraSuite Data File
++++++++++++++++++++++++++++++++++++
Date: Fri Jun 02 14:53:34 CEST 2017
User: INFO_000
Dark Spectrum Present: No
Reference Spectrum Present: No
Number of Sampled Component Spectra: 1
Spectrometers: USB4H00879
Integration Time (usec): 80000 (USB4H00879)
Spectra Averaged: 1 (USB4H00879)
Boxcar Smoothing: 0 (USB4H00879)
Correct for Electrical Dark: No (USB4H00879)
Strobe/Lamp Enabled: No (USB4H00879)
Correct for Detector Non-linearity: No (USB4H00879)
Correct for Stray Light: No (USB4H00879)
Number of Pixels in Processed Spectrum: 3648
>>>>>Begin Processed Spectral Data<<<<<
345.13	1243.12
345.34	1243.12
345.56	1243.12
345.78	1318.89
345.99	1312.75
346.21	1669.09
346.42	1710.05
346.64	1675.24
346.86	1722.34
347.07	1732.58
347.29	1734.63
347.50	1605.61
347.72	1701.86
347.94	1703.91
348.15	1624.04
348.37	1589.22
348.59	1683.43
348.80	1636.33
349.02	1794.02
349.23	1822.69
349.45	1851.36
349.67	1888.23
349.88	1759.21
350.10	1964.00
350.31	1794.02
350.53	1818.60
350.75	1931.23
350.96	1820.64
351.18	1898.47
351.39	1871.84
351.61	1751.01
351.82	1912.80
352.04	1912.80
352.26	1832.93
352.47	1871.84
352.69	1892.32
352.90	1757.16
353.12	1808.36
353.34	1845.22
353.55	1863.65
353.77	1834.98
353.98	1824.74
354.20	1837.03
354.41	1904.61
354.63	1970.15
354.85	2056.16
355.06	1892.32
355.28	1789.92
355.49	1877.99
355.71	1918.95
355.92	1955.81
356.14	1916.90
356.35	1890.28
356.57	1886.18
356.79	1923.04
357.00	1902.56
357.22	1939.43
357.43	1853.41
357.65	1945.57
357.86	1918.95
358.08	1972.19
358.29	1923.04
358.51	2007.01
358.72	2031.58
358.94	1968.10
359.16	1964.00
359.37	1910.75
359.59	1994.72
359.80	1927.14
360.02	1929.19
360.23	2015.20
360.45	2035.68
360.66	1916.90
360.88	1918.95
361.09	1906.66
361.31	1986.53
361.52	1961.95
361.74	2052.06
361.95	2062.30
362.17	1984.48
362.38	2109.41
362.60	2000.87
362.81	1947.62
363.03	1957.86
363.24	1900.52
363.46	2045.92
363.67	2027.49
363.89	2002.91
364.10	1992.67
364.32	2004.96
364.53	1929.19
364.75	1892.32
364.96	2025.44
365.18	2107.36
365.39	1935.33
365.61	1906.66
365.82	2138.08
366.04	1976.29
366.25	2007.01
366.47	2050.02
366.68	2047.97
366.90	1923.04
367.11	2045.92
367.33	2111.46
367.54	2084.83
367.76	1974.24
367.97	2072.54
368.19	1953.76
368.40	2115.55
368.62	1927.14
368.83	1974.24
369.05	2027.49
369.26	2015.20
369.48	2039.78
369.69	1996.77
369.91	2095.07
370.12	2090.98
370.33	2066.40
370.55	2007.01
370.76	1976.29
370.98	2119.65
371.19	2033.63
371.41	2013.15
371.62	2109.41
371.84	1937.38
372.05	2203.61
372.27	2101.22
372.48	2095.07
372.69	2152.42
372.91	2168.80
373.12	2150.37
373.34	2113.50
373.55	2136.03
373.77	2115.55
373.98	2041.82
374.20	2220.00
374.41	2209.76
374.62	2125.79
374.84	2105.31
375.05	2174.94
375.27	2185.18
375.48	2166.75
375.70	2234.33
375.91	2187.23
376.12	2338.78
376.34	2248.67
376.55	2205.66
376.77	2174.94
376.98	2142.18
377.19	2140.13
377.41	2181.09
377.62	2187.23
377.84	2201.57
378.05	2320.35
378.27	2166.75
378.48	2344.92
378.69	2334.68
378.91	2281.44
379.12	2283.49
379.34	2224.09
379.55	2312.16
379.76	2338.78
379.98	2303.96
380.19	2285.53
380.41	2355.16
380.62	2334.68
380.83	2291.68
381.05	2252.77
381.26	2447.32
381.47	2242.53
381.69	2318.30
381.90	2408.41
382.12	2271.20
382.33	2351.07
382.54	2308.06
382.76	2293.72
382.97	2363.36
383.19	2248.67
383.40	2336.73
383.61	2297.82
383.83	2250.72
384.04	2385.88
384.25	2351.07
384.47	2338.78
384.68	2367.45
384.89	2306.01
385.11	2338.78
385.32	2330.59
385.54	2293.72
385.75	2402.27
385.96	2424.80
386.18	2482.14
386.39	2500.57
386.60	2306.01
386.82	2453.47
387.03	2435.03
387.24	2463.71
387.46	2588.63
387.67	2652.12
387.88	2516.95
388.10	2525.15
388.31	2539.48
388.52	2611.16
388.74	2621.40
388.95	2512.86
389.16	2631.64
389.38	2533.34
389.59	2633.69
389.80	2633.69
390.02	2592.73
390.23	2572.25
390.44	2629.59
390.66	2508.76
390.87	2582.49
391.08	2580.44
391.30	2727.89
391.51	2600.92
391.72	2682.84
391.94	2650.07
392.15	2635.74
392.36	2680.79
392.58	2633.69
392.79	2699.22
393.00	2676.70
393.22	2805.72
393.43	2770.90
393.64	2846.68
393.85	2770.90
394.07	2699.22
394.28	2811.86
394.49	2781.14
394.71	2787.29
394.92	2838.48
395.13	2752.47
395.35	2684.89
395.56	2895.83
395.77	2844.63
395.98	2863.06
396.20	2885.59
396.41	2901.97
396.62	2961.36
396.84	2850.77
397.05	2797.53
397.26	2971.60
397.47	2953.17
397.69	2918.36
397.90	3141.58
398.11	2926.55
398.32	2981.84
398.54	2969.55
398.75	3008.47
398.96	2994.13
399.18	3186.64
399.39	2920.40
399.60	3092.43
399.81	3049.43
400.03	3006.42
400.24	3256.27
400.45	3108.82
400.66	3071.95
400.88	3039.19
401.09	3217.36
401.30	3088.34
401.51	3313.61
401.73	3102.67
401.94	3215.31
402.15	3194.83
402.36	3030.99
402.58	3223.50
402.79	3248.08
403.00	3237.84
403.21	3268.56
403.43	3295.18
403.64	3227.60
403.85	3080.14
404.06	3303.37
404.27	3090.38
404.49	3215.31
404.70	3145.68
404.91	3241.93
405.12	3307.47
405.34	3262.41
405.55	3469.26
405.76	3229.65
405.97	3243.98
406.19	3364.81
406.40	3305.42
406.61	3416.01
406.82	3413.96
407.03	3317.71
407.25	3278.80
407.46	3434.44
407.67	3477.45
407.88	3545.03
408.09	3319.76
408.31	3360.72
408.52	3373.00
408.73	3465.16
408.94	3360.72
409.15	3469.26
409.37	3553.23
409.58	3530.70
409.79	3549.13
410.00	3526.60
410.21	3420.11
410.43	3430.35
410.64	3436.49
410.85	3645.38
411.06	3506.12
411.27	3577.80
411.48	3733.45
411.70	3684.30
411.91	3608.52
412.12	3770.31
412.33	3581.90
412.54	3450.83
412.76	3801.03
412.97	3676.10
413.18	3569.61
413.39	3532.75
413.60	3631.05
413.81	3629.00
414.03	3674.06
414.24	3559.37
414.45	3772.36
414.66	3559.37
414.87	3813.32
415.08	3751.88
415.30	3647.43
415.51	3676.10
415.72	3721.16
415.93	3735.50
416.14	3747.78
416.35	3858.37
416.56	3694.54
416.78	3846.09
416.99	3948.48
417.20	3848.13
417.41	3901.38
417.62	3952.58
417.83	3958.72
418.04	3735.50
418.26	4003.78
418.47	3934.15
418.68	3938.24
418.89	3975.11
419.10	4218.82
419.31	4073.41
419.52	4020.16
419.73	3973.06
419.95	4091.84
420.16	4020.16
420.37	4102.08
420.58	3981.25
420.79	3913.67
421.00	4112.32
421.21	4157.38
421.42	4108.23
421.63	4208.58
421.85	4192.19
422.06	4188.10
422.27	4294.59
422.48	4208.58
422.69	4220.86
422.90	4257.73
423.11	4280.25
423.32	4286.40
423.53	4417.47
423.75	4390.84
423.96	4442.04
424.17	4362.17
424.38	4399.04
424.59	4474.81
424.80	4521.92
425.01	4562.87
425.22	4523.96
425.43	4554.68
425.64	4624.31
425.85	4636.60
426.06	4624.31
426.28	4528.06
426.49	4454.33
426.70	4663.22
426.91	4648.89
427.12	4665.27
427.33	4646.84
427.54	4675.51
427.75	4794.29
427.96	4859.83
428.17	4724.66
428.38	4825.01
428.59	4915.12
428.80	4837.30
429.01	4982.71
429.23	4812.73
429.44	5017.52
429.65	5038.00
429.86	5058.48
430.07	4829.11
430.28	4960.18
430.49	5074.87
430.70	5302.19
430.91	5111.73
431.12	5058.48
431.33	5197.74
431.54	5330.86
431.75	5132.21
431.96	5189.55
432.17	5167.03
432.38	5167.03
432.59	5463.98
432.80	5294.00
433.01	5308.34
433.22	5304.24
433.43	5349.29
433.64	5365.68
433.85	5402.54
434.06	5447.60
434.27	5476.27
434.49	5478.32
434.70	5500.84
434.91	5584.81
435.12	5490.60
435.33	5580.71
435.54	5527.47
435.75	5380.01
435.96	5488.56
436.17	5574.57
436.38	5554.09
436.59	5734.31
436.80	5654.44
437.01	5967.78
437.22	5658.54
437.43	5820.33
437.64	5525.42
437.85	5832.62
438.06	5951.40
438.27	5791.66
438.48	5965.73
438.69	5803.94
438.90	5846.95
439.11	5894.05
439.32	6023.08
439.53	5881.77
439.74	5984.16
439.95	6006.69
440.16	5902.25
440.37	6080.42
440.57	6148.00
440.78	6133.67
440.99	6078.37
441.20	6084.52
441.41	6023.08
441.62	6113.19
441.83	5867.43
442.04	6221.73
442.25	6164.39
442.46	6041.51
442.67	6494.11
442.88	6592.41
443.09	6201.25
443.30	6295.46
443.51	6338.46
443.72	6510.49
443.93	6414.24
444.14	6569.88
444.35	6274.98
444.56	6584.22
444.77	6459.29
444.98	6522.78
445.19	6473.63
445.40	6522.78
445.61	6553.50
445.81	6729.63
446.02	6703.00
446.23	6543.26
446.44	6424.48
446.65	6748.06
446.86	6537.12
447.07	6754.20
447.28	6776.73
447.49	6793.11
447.70	6598.56
447.91	6926.23
448.12	6735.77
448.33	6832.02
448.54	6776.73
448.74	6729.63
448.95	6870.94
449.16	6920.09
449.37	7163.79
449.58	7071.64
449.79	7063.44
450.00	6776.73
450.21	7063.44
450.42	7200.66
450.63	7014.29
450.84	6944.66
451.05	7122.84
451.25	7098.26
451.46	7036.82
451.67	7249.81
451.88	7243.67
452.09	7290.77
452.30	7137.17
452.51	7184.27
452.72	7266.19
452.93	7530.38
453.13	7131.03
453.34	7243.67
453.55	7288.72
453.76	7438.22
453.97	7763.85
454.18	7438.22
454.39	7606.16
454.60	7622.54
454.81	7389.07
455.01	7550.86
455.22	7333.78
455.43	7597.96
455.64	7915.40
455.85	7980.93
456.06	8052.61
456.27	7833.48
456.48	7876.49
456.68	7909.26
456.89	7755.66
457.10	7901.06
457.31	7989.13
457.52	8032.13
457.73	8263.55
457.94	8216.45
458.14	7989.13
458.35	8546.17
458.56	8251.27
458.77	8021.89
458.98	8212.35
459.19	8265.60
459.39	8368.00
459.60	8382.34
459.81	8310.66
460.02	8421.25
460.23	8392.58
460.44	8677.24
460.65	8714.11
460.85	8568.70
461.06	8658.81
461.27	8234.88
461.48	9113.46
461.69	8882.04
461.89	8628.09
462.10	8871.80
462.31	8615.80
462.52	8781.69
462.73	8918.90
462.94	9213.81
463.14	8906.62
463.35	9039.73
463.56	9545.58
463.77	9465.71
463.98	9234.29
464.18	9172.85
464.39	9490.29
464.60	9547.63
464.81	9496.43
465.02	9557.87
465.23	9707.37
465.43	9451.38
465.64	9834.35
465.85	9703.28
466.06	9576.30
466.27	10047.33
466.47	9817.96
466.68	9822.06
466.89	9748.33
467.10	10039.14
467.30	9908.07
467.51	10041.19
467.72	10354.53
467.93	9889.64
468.14	10270.56
468.34	10295.14
468.55	10508.13
468.76	10366.82
468.97	10303.33
469.17	10694.49
469.38	10772.32
469.59	10880.86
469.80	10557.28
470.01	10747.74
470.21	10751.84
470.42	11183.96
470.63	11009.88
470.84	10989.40
471.04	11026.26
471.25	11347.79
471.46	11288.40
471.67	11489.10
471.87	11493.20
472.08	11650.89
472.29	11581.26
472.50	11657.04
472.70	11528.02
472.91	11595.60
473.12	11708.24
473.33	11816.78
473.53	11943.75
473.74	12111.69
473.95	12042.06
474.16	12224.33
474.36	12115.78
474.57	12617.54
474.78	12476.23
474.99	12339.01
475.19	12595.01
475.40	12601.15
475.61	13004.60
475.81	13086.52
476.02	13029.18
476.23	12818.24
476.44	13383.48
476.64	13285.17
476.85	13434.68
477.06	13467.44
477.27	13539.12
477.47	13924.14
477.68	13967.15
477.89	14100.26
478.09	14124.84
478.30	13889.32
478.51	13938.48
478.71	14163.75
478.92	14253.86
479.13	14219.05
479.34	14843.68
479.54	14536.48
479.75	14552.87
479.96	14790.43
480.16	14788.38
480.37	15001.37
480.58	15103.77
480.78	15392.53
480.99	15339.29
481.20	15427.35
481.41	15705.87
481.61	15757.07
481.82	15703.82
482.03	15652.63
482.23	15785.74
482.44	15955.72
482.65	16387.85
482.85	16443.14
483.06	16086.79
483.27	16183.05
483.47	16365.32
483.68	16371.46
483.89	16729.86
484.09	16666.37
484.30	16932.61
484.51	17131.26
484.71	17243.90
484.92	16934.65
485.13	17082.11
485.33	17305.34
485.54	17239.80
485.75	17594.10
485.95	17530.61
486.16	17663.73
486.37	17809.14
486.57	18097.90
486.78	18050.80
486.98	18120.43
487.19	18159.34
487.40	18165.48
487.60	18425.57
487.81	18591.46
488.02	18425.57
488.22	18611.94
488.43	18835.17
488.64	19101.40
488.84	19209.95
489.05	19037.92
489.25	19152.60
489.46	19306.20
489.67	19154.65
489.87	19693.27
490.08	19537.62
490.29	19580.63
490.49	20002.51
490.70	20131.53
490.90	20059.85
491.11	20053.71
491.32	20291.27
491.52	20508.36
491.73	20133.58
491.94	20346.57
492.14	20365.00
492.35	20778.69
492.55	21024.45
492.76	20774.60
492.97	20862.66
493.17	21024.45
493.38	21200.57
493.58	21333.69
493.79	21276.35
494.00	21118.65
494.20	21415.61
494.41	21712.56
494.61	21636.79
494.82	21647.03
495.02	21700.28
495.23	21855.92
495.44	21802.68
495.64	21974.70
495.85	22087.34
496.05	22372.01
496.26	22267.56
496.47	22484.65
496.67	22298.28
496.88	22830.76
497.08	22433.45
497.29	22750.88
497.49	22617.77
497.70	22705.83
497.91	23045.79
498.11	23047.84
498.32	23119.52
498.52	23244.45
498.73	23651.99
498.93	23494.30
499.14	23570.07
499.34	23527.06
499.55	23676.57
499.76	23647.90
499.96	23842.45
500.17	23666.33
500.37	24061.58
500.58	23799.44
500.78	24282.77
500.99	23701.14
501.19	24061.58
501.40	24387.21
501.60	24374.92
501.81	24370.83
502.02	24264.33
502.22	24260.24
502.43	24604.30
502.63	24561.29
502.84	24579.72
503.04	24585.86
503.25	24721.03
503.45	24575.62
503.66	25200.26
503.86	24970.88
504.07	25366.14
504.27	25212.54
504.48	25480.83
504.68	25108.10
504.89	25544.31
505.09	25601.66
505.30	25476.73
505.50	25507.45
505.71	25908.85
505.91	25904.76
506.12	25640.57
506.32	25800.31
506.53	25785.97
506.73	26175.09
506.94	26146.42
507.14	26031.73
507.35	26109.55
507.55	25976.44
507.76	26453.61
507.96	25642.62
508.17	26308.21
508.37	26326.64
508.58	26496.62
508.78	26459.76
508.99	26470.00
509.19	26580.59
509.40	26672.74
509.60	26308.21
509.81	26625.64
510.01	26476.14
510.22	26801.77
510.42	26676.84
510.63	26713.70
510.83	26938.98
511.04	26699.37
511.24	26981.99
511.44	27106.91
511.65	27057.76
511.85	26834.53
512.06	27201.12
512.26	27045.48
512.47	27242.08
512.67	27291.23
512.88	27364.96
513.08	27121.25
513.29	27592.28
513.49	27268.70
513.69	27266.66
513.90	27403.87
514.10	27782.74
514.31	27539.04
514.51	27534.94
514.72	27536.99
514.92	27481.69
515.13	27516.51
515.33	27692.63
515.53	27876.95
515.74	27799.13
515.94	28036.69
516.15	27960.92
516.35	27915.86
516.56	27979.35
516.76	28108.37
516.96	28122.71
517.17	28378.70
517.37	28620.36
517.58	28237.39
517.78	28458.57
517.99	28180.05
518.19	28298.83
518.39	28581.45
518.60	28847.69
518.80	28683.85
519.01	28618.32
519.21	28624.46
519.41	28931.65
519.62	28827.21
519.82	28753.48
520.03	28872.26
520.23	28939.85
520.43	29013.57
520.64	29132.36
520.84	29236.80
521.05	29314.62
521.25	29410.88
521.45	29259.33
521.66	29564.48
521.86	29343.30
522.07	29709.88
522.27	29732.41
522.47	29849.14
522.68	29941.30
522.88	29523.52
523.08	30064.18
523.29	29861.43
523.49	30062.13
523.70	30119.48
523.90	29935.16
524.10	30195.25
524.31	30477.87
524.51	30090.80
524.71	30746.15
524.92	30697.00
525.12	30809.64
525.33	30768.68
525.53	30709.29
525.73	31104.55
525.94	31014.44
526.14	31024.68
526.34	30866.98
526.55	30924.33
526.75	31073.83
526.95	31239.72
527.16	31321.63
527.36	31120.93
527.56	31462.94
527.77	31868.44
527.97	31546.91
528.17	31659.55
528.38	31753.76
528.58	31571.49
528.78	32337.43
528.99	32003.61
529.19	31983.13
529.39	31833.63
529.60	32484.88
529.80	32087.57
530.00	32345.62
530.21	32431.63
530.41	32450.06
530.61	32380.43
530.82	32249.36
531.02	32939.53
531.22	32998.92
531.43	32605.71
531.63	33089.03
531.83	33160.71
532.04	33433.09
532.24	33244.68
532.44	33736.19
532.64	33811.96
532.85	33764.86
533.05	33801.72
533.25	33789.44
533.46	33553.92
533.66	34153.97
533.86	34293.24
534.07	34428.40
534.27	34481.65
534.47	34555.38
534.67	34719.21
534.88	34426.35
535.08	34747.89
535.28	34606.58
535.49	34762.22
535.69	34977.26
535.89	35192.30
536.09	35220.97
536.30	35229.16
536.50	35225.06
536.70	35565.03
536.91	35229.16
537.11	35440.10
537.31	35669.47
537.51	35362.28
537.72	35816.93
537.92	35980.76
538.12	36048.35
538.32	35923.42
538.53	36324.82
538.73	35997.15
538.93	36216.28
539.13	36701.65
539.34	36263.38
539.54	36236.76
539.74	36914.64
539.94	37131.72
540.15	36591.06
540.35	36933.07
540.55	36595.15
540.75	36980.17
540.96	37508.55
541.16	37330.37
541.36	37492.16
541.56	37068.23
541.77	37991.87
541.97	37490.12
542.17	37539.27
542.37	37600.71
542.58	38043.07
542.78	37854.65
542.98	37793.22
543.18	38000.06
543.38	38620.59
543.59	38419.89
543.79	38098.36
543.99	38403.51
544.19	38346.17
544.40	38452.66
544.60	38821.30
544.80	38428.09
545.00	38598.07
545.20	39148.97
545.41	38778.29
545.61	38813.10
545.81	39323.05
546.01	39171.50
546.21	39138.73
546.42	39189.93
546.62	39333.29
546.82	39339.43
547.02	39318.95
547.22	39669.15
547.43	39239.08
547.63	39853.47
547.83	39450.02
548.03	39574.95
548.23	39957.92
548.44	39898.53
548.64	39759.27
548.84	40404.38
549.04	40258.97
549.24	40453.53
549.45	40377.75
549.65	40152.48
549.85	40555.93
550.05	40361.37
550.25	40758.67
550.45	41231.75
550.66	40742.29
550.86	40619.41
551.06	40838.54
551.26	41395.59
551.46	41409.93
551.66	41217.42
551.87	41086.35
552.07	41407.88
552.27	41131.40
552.47	41358.73
552.67	41235.85
552.87	41545.09
553.07	41559.43
553.28	41508.23
553.48	41774.47
553.68	41637.25
553.88	42016.13
554.08	41760.13
554.28	41887.10
554.48	41624.96
554.69	42235.26
554.89	42167.68
555.09	42456.44
555.29	42030.46
555.49	42612.09
555.69	42399.10
555.89	42313.08
556.10	42667.38
556.30	42384.76
556.50	42554.74
556.70	42728.82
556.90	42802.55
557.10	42913.14
557.30	42704.24
557.50	43103.60
557.70	42972.53
557.91	43134.32
558.11	43052.40
558.31	43515.24
558.51	42841.46
558.71	42853.75
558.91	43459.94
559.11	43146.61
559.31	43294.06
559.51	43275.63
559.72	43410.79
559.92	43605.35
560.12	43355.50
560.32	43748.71
560.52	43644.26
560.72	43453.80
560.92	44070.24
561.12	43750.76
561.32	44127.58
561.52	43527.53
561.72	44176.73
561.93	43478.38
562.13	44049.76
562.33	44014.94
562.53	44901.71
562.73	43955.55
562.93	44475.74
563.13	44420.44
563.33	44088.67
563.53	44643.67
563.73	43937.12
563.93	44475.74
564.13	44942.67
564.33	44635.48
564.53	44477.79
564.74	44797.27
564.94	44580.18
565.14	44836.18
565.34	44324.19
565.54	45014.35
565.74	44782.93
565.94	44983.63
566.14	44973.39
566.34	44668.25
566.54	45477.19
566.74	45026.64
566.94	45116.75
567.14	45434.19
567.34	45204.81
567.54	45118.80
567.74	45368.65
567.94	45307.21
568.14	45315.40
568.34	45577.54
568.54	45555.02
568.74	45765.96
568.94	45681.99
569.14	45671.75
569.34	45514.06
569.54	45819.20
569.75	45489.48
569.95	45305.16
570.15	45851.97
570.35	45626.70
570.55	45907.27
570.75	45954.37
570.95	45970.75
571.15	46257.47
571.35	46312.77
571.55	46396.73
571.75	46544.19
571.95	46497.08
572.15	45868.36
572.35	46257.47
572.55	46284.09
572.75	46777.65
572.95	46417.21
573.15	46464.32
573.35	46404.92
573.55	46335.29
573.75	46320.96
573.95	46593.34
574.15	46837.05
574.35	47271.21
574.55	46560.57
574.75	46615.86
574.95	46615.86
575.15	46998.83
575.34	46861.62
575.54	47152.43
575.74	47150.38
575.94	47152.43
576.14	46998.83
576.34	47506.73
576.54	47463.72
576.74	47684.90
576.94	47340.85
577.14	47447.34
577.34	47781.16
577.54	47430.96
577.74	47390.00
577.94	47783.21
578.14	47306.03
578.34	48014.63
578.54	47543.59
578.74	47734.06
578.94	48059.68
579.14	47562.03
579.34	47725.86
579.54	48268.58
579.74	47969.57
579.94	48194.85
580.13	48334.11
580.33	48379.17
580.53	47967.52
580.73	48276.77
580.93	47975.72
581.13	48145.70
581.33	48788.76
581.53	48483.61
581.73	48512.28
581.93	48508.19
582.13	48811.29
582.33	48825.62
582.53	48747.80
582.73	48870.68
582.92	48850.20
583.12	49276.18
583.32	49050.90
583.52	48583.96
583.72	48751.90
583.92	48809.24
584.12	48817.43
584.32	49341.71
584.52	49198.35
584.72	49267.98
584.92	49196.31
585.11	49747.21
585.31	49116.43
585.51	49349.90
585.71	49059.09
585.91	49419.53
586.11	49575.18
586.31	48852.25
586.51	49382.67
586.71	49446.16
586.91	49542.41
587.10	49534.22
587.30	49579.28
587.50	49865.99
587.70	49599.76
587.90	49589.52
588.10	49626.38
588.30	49736.97
588.50	49882.37
