SpectraSuite Data File
++++++++++++++++++++++++++++++++++++
Date: Fri Jun 02 14:51:09 CEST 2017
User: INFO_000
Dark Spectrum Present: No
Reference Spectrum Present: No
Number of Sampled Component Spectra: 1
Spectrometers: USB4H00879
Integration Time (usec): 80000 (USB4H00879)
Spectra Averaged: 1 (USB4H00879)
Boxcar Smoothing: 0 (USB4H00879)
Correct for Electrical Dark: No (USB4H00879)
Strobe/Lamp Enabled: No (USB4H00879)
Correct for Detector Non-linearity: No (USB4H00879)
Correct for Stray Light: No (USB4H00879)
Number of Pixels in Processed Spectrum: 3648
>>>>>Begin Processed Spectral Data<<<<<
345.13	1302.51
345.34	1302.51
345.56	1302.51
345.78	1320.94
345.99	1271.79
346.21	1673.19
346.42	1615.85
346.64	1640.42
346.86	1769.44
347.07	1650.66
347.29	1705.96
347.50	1677.29
347.72	1638.38
347.94	1712.10
348.15	1642.47
348.37	1652.71
348.59	1703.91
348.80	1697.77
349.02	1806.31
349.23	1912.80
349.45	1755.11
349.67	1910.75
349.88	1814.50
350.10	1904.61
350.31	1810.40
350.53	1767.40
350.75	1984.48
350.96	1710.05
351.18	1865.70
351.39	1873.89
351.61	1796.07
351.82	1904.61
352.04	1976.29
352.26	1796.07
352.47	1931.23
352.69	1961.95
352.90	1814.50
353.12	1857.51
353.34	1892.32
353.55	1929.19
353.77	1855.46
353.98	1855.46
354.20	1857.51
354.41	1961.95
354.63	1925.09
354.85	1978.34
355.06	1964.00
355.28	1753.06
355.49	1851.36
355.71	1847.27
355.92	1830.88
356.14	1888.23
356.35	1886.18
356.57	1859.56
356.79	1865.70
357.00	1871.84
357.22	1937.38
357.43	1787.88
357.65	1961.95
357.86	1849.32
358.08	1898.47
358.29	1976.29
358.51	1986.53
358.72	1990.63
358.94	1888.23
359.16	1945.57
359.37	1877.99
359.59	1902.56
359.80	1937.38
360.02	1929.19
360.23	1953.76
360.45	1968.10
360.66	1937.38
360.88	1804.26
361.09	1896.42
361.31	2002.91
361.52	1964.00
361.74	1980.39
361.95	2068.45
362.17	1937.38
362.38	2076.64
362.60	1992.67
362.81	1943.52
363.03	1949.67
363.24	1996.77
363.46	2164.70
363.67	2060.26
363.89	2052.06
364.10	1964.00
364.32	2021.35
364.53	2056.16
364.75	1875.94
364.96	1961.95
365.18	2029.54
365.39	2066.40
365.61	1951.71
365.82	2043.87
366.04	1984.48
366.25	1941.47
366.47	1953.76
366.68	2017.25
366.90	1935.33
367.11	2043.87
367.33	2068.45
367.54	2060.26
367.76	2023.39
367.97	2142.18
368.19	1984.48
368.40	2033.63
368.62	2025.44
368.83	1982.43
369.05	1949.67
369.26	1951.71
369.48	1982.43
369.69	2002.91
369.91	2025.44
370.12	1992.67
370.33	2072.54
370.55	1939.43
370.76	2031.58
370.98	2133.98
371.19	2007.01
371.41	1966.05
371.62	2037.73
371.84	1933.28
372.05	2103.26
372.27	2086.88
372.48	2072.54
372.69	2058.21
372.91	2027.49
373.12	2084.83
373.34	2115.55
373.55	2076.64
373.77	2172.89
373.98	2070.50
374.20	2213.85
374.41	2250.72
374.62	2154.46
374.84	2066.40
375.05	2164.70
375.27	2166.75
375.48	2125.79
375.70	2125.79
375.91	2166.75
376.12	2246.62
376.34	2156.51
376.55	2107.36
376.77	2197.47
376.98	2152.42
377.19	2080.74
377.41	2189.28
377.62	2174.94
377.84	2172.89
378.05	2314.20
378.27	2078.69
378.48	2320.35
378.69	2342.88
378.91	2318.30
379.12	2230.24
379.34	2144.22
379.55	2303.96
379.76	2187.23
379.98	2166.75
380.19	2172.89
380.41	2217.95
380.62	2267.10
380.83	2211.81
381.05	2156.51
381.26	2344.92
381.47	2242.53
381.69	2271.20
381.90	2424.80
382.12	2244.57
382.33	2234.33
382.54	2281.44
382.76	2256.86
382.97	2265.05
383.19	2162.66
383.40	2326.49
383.61	2283.49
383.83	2228.19
384.04	2359.26
384.25	2299.87
384.47	2344.92
384.68	2308.06
384.89	2240.48
385.11	2273.25
385.32	2215.90
385.54	2289.63
385.75	2334.68
385.96	2330.59
386.18	2301.92
386.39	2303.96
386.60	2295.77
386.82	2392.03
387.03	2408.41
387.24	2439.13
387.46	2412.51
387.67	2471.90
387.88	2486.23
388.10	2408.41
388.31	2443.23
388.52	2605.02
388.74	2502.62
388.95	2422.75
389.16	2453.47
389.38	2478.04
389.59	2486.23
389.80	2562.01
390.02	2461.66
390.23	2586.58
390.44	2428.89
390.66	2502.62
390.87	2498.52
391.08	2605.02
391.30	2539.48
391.51	2570.20
391.72	2695.13
391.94	2578.39
392.15	2580.44
392.36	2574.30
392.58	2570.20
392.79	2592.73
393.00	2666.46
393.22	2605.02
393.43	2729.94
393.64	2750.42
393.85	2799.57
394.07	2629.59
394.28	2697.17
394.49	2805.72
394.71	2648.02
394.92	2734.04
395.13	2672.60
395.35	2619.35
395.56	2723.80
395.77	2764.76
395.98	2762.71
396.20	2824.15
396.41	2818.00
396.62	2842.58
396.84	2758.61
397.05	2697.17
397.26	2697.17
397.47	2838.48
397.69	2711.51
397.90	2961.36
398.11	2818.00
398.32	2838.48
398.54	2865.11
398.75	2834.39
398.96	2879.44
399.18	3010.51
399.39	2799.57
399.60	2928.60
399.81	2873.30
400.03	2883.54
400.24	3170.26
400.45	2879.44
400.66	3002.32
400.88	2926.55
401.09	3043.28
401.30	2977.75
401.51	3067.86
401.73	3041.23
401.94	3094.48
402.15	2912.21
402.36	2901.97
402.58	2961.36
402.79	3108.82
403.00	3125.20
403.21	3030.99
403.43	3106.77
403.64	3080.14
403.85	2934.74
404.06	3147.73
404.27	3016.66
404.49	3100.62
404.70	3022.80
404.91	3180.50
405.12	3162.06
405.34	3157.97
405.55	3315.66
405.76	3067.86
405.97	3254.22
406.19	3182.54
406.40	3162.06
406.61	3205.07
406.82	3252.17
407.03	3184.59
407.25	3160.02
407.46	3366.86
407.67	3248.08
407.88	3366.86
408.09	3307.47
408.31	3084.24
408.52	3305.42
408.73	3250.13
408.94	3299.28
409.15	3438.54
409.37	3403.72
409.58	3510.22
409.79	3286.99
410.00	3436.49
410.21	3313.61
410.43	3315.66
410.64	3282.89
410.85	3563.47
411.06	3434.44
411.27	3491.79
411.48	3536.84
411.70	3456.97
411.91	3403.72
412.12	3522.51
412.33	3598.28
412.54	3473.36
412.76	3698.63
412.97	3534.79
413.18	3430.35
413.39	3454.92
413.60	3661.77
413.81	3585.99
414.03	3592.14
414.24	3493.83
414.45	3694.54
414.66	3508.17
414.87	3733.45
415.08	3571.66
415.30	3612.62
415.51	3688.39
415.72	3770.31
415.93	3626.95
416.14	3733.45
416.35	3776.45
416.56	3659.72
416.78	3719.11
416.99	3743.69
417.20	3706.82
417.41	3784.65
417.62	3825.61
417.83	3903.43
418.04	3891.14
418.26	3837.89
418.47	3891.14
418.68	3909.57
418.89	3811.27
419.10	3893.19
419.31	3919.81
419.52	3940.29
419.73	3981.25
419.95	3938.24
420.16	3919.81
420.37	3938.24
420.58	3999.68
420.79	3860.42
421.00	3985.35
421.21	3880.90
421.42	4079.55
421.63	4120.51
421.85	4040.64
422.06	4128.70
422.27	3987.40
422.48	4007.87
422.69	4040.64
422.90	4075.46
423.11	4224.96
423.32	4177.86
423.53	4308.93
423.75	4249.54
423.96	4364.22
424.17	4276.16
424.38	4396.99
424.59	4237.25
424.80	4409.28
425.01	4261.82
425.22	4222.91
425.43	4272.06
425.64	4483.00
425.85	4515.77
426.06	4468.67
426.28	4360.13
426.49	4440.00
426.70	4278.21
426.91	4513.72
427.12	4552.63
427.33	4538.30
427.54	4392.89
427.75	4573.11
427.96	4655.03
428.17	4620.22
428.38	4571.07
428.59	4679.61
428.80	4650.94
429.01	4628.41
429.23	4730.81
429.44	4870.07
429.65	4902.84
429.86	4829.11
430.07	4648.89
430.28	4806.58
430.49	4800.44
430.70	4966.32
430.91	4976.56
431.12	4726.71
431.33	4915.12
431.54	5029.81
431.75	4949.94
431.96	4902.84
432.17	4947.89
432.38	4902.84
432.59	5066.67
432.80	4874.17
433.01	4982.71
433.22	5109.68
433.43	5128.11
433.64	5078.96
433.85	5001.14
434.06	5152.69
434.27	4988.85
434.49	5078.96
434.70	5189.55
434.91	5218.22
435.12	5283.76
435.33	5234.61
435.54	5304.24
435.75	5048.24
435.96	5300.14
436.17	5128.11
436.38	5371.82
436.59	5316.53
436.80	5162.93
437.01	5470.12
437.22	5429.17
437.43	5439.40
437.64	5199.79
437.85	5623.72
438.06	5513.13
438.27	5478.32
438.48	5521.32
438.69	5631.91
438.90	5554.09
439.11	5490.60
439.32	5558.19
439.53	5525.42
439.74	5570.48
439.95	5588.91
440.16	5613.48
440.37	5642.15
440.57	5431.21
440.78	5722.02
440.99	5818.28
441.20	5713.83
441.41	5646.25
441.62	5660.59
441.83	5631.91
442.04	5625.77
442.25	5754.79
442.46	5820.33
442.67	5805.99
442.88	6025.12
443.09	5816.23
443.30	5859.24
443.51	5889.96
443.72	6133.67
443.93	5840.81
444.14	6324.13
444.35	5812.14
444.56	6109.09
444.77	5937.06
444.98	6059.94
445.19	6186.91
445.40	5949.35
445.61	6152.10
445.81	6213.54
446.02	6283.17
446.23	6184.87
446.44	6059.94
446.65	6166.43
446.86	6188.96
447.07	6291.36
447.28	6573.98
447.49	6264.74
447.70	6248.35
447.91	6291.36
448.12	6297.50
448.33	6627.23
448.54	6354.85
448.74	6334.37
448.95	6547.36
449.16	6287.26
449.37	6696.86
449.58	6344.61
449.79	6637.47
450.00	6569.88
450.21	6631.32
450.42	6854.55
450.63	6764.44
450.84	6567.84
451.05	6946.71
451.25	6723.48
451.46	6637.47
451.67	6872.98
451.88	6842.26
452.09	6993.81
452.30	6711.19
452.51	6913.94
452.72	7034.77
452.93	7276.43
453.13	6932.37
453.34	6809.50
453.55	7128.98
453.76	6997.91
453.97	7333.78
454.18	7214.99
454.39	7196.56
454.60	7128.98
454.81	7241.62
455.01	7466.89
455.22	7055.25
455.43	7296.91
455.64	7497.61
455.85	7483.28
456.06	7683.98
456.27	7618.44
456.48	7528.33
456.68	7608.20
456.89	7579.53
457.10	7696.27
457.31	7671.69
457.52	7786.38
457.73	7804.81
457.94	7944.07
458.14	7784.33
458.35	8087.43
458.56	8021.89
458.77	7954.31
458.98	8150.92
459.19	8048.52
459.39	8126.34
459.60	8230.79
459.81	8132.48
460.02	8429.44
460.23	8249.22
460.44	8505.21
460.65	8531.84
460.85	8540.03
461.06	8572.80
461.27	8337.28
461.48	8640.38
461.69	8777.59
461.89	8425.34
462.10	8609.66
462.31	8742.78
462.52	8867.70
462.73	8859.51
462.94	8959.86
463.14	8857.46
463.35	8814.46
463.56	9131.89
463.77	9154.42
463.98	8828.79
464.18	9041.78
464.39	9154.42
464.60	9363.31
464.81	9367.41
465.02	9170.80
465.23	9310.07
465.43	9269.11
465.64	9574.25
465.85	9537.39
466.06	9549.68
466.27	9789.29
466.47	9725.80
466.68	9676.65
466.89	9664.36
467.10	9949.03
467.30	9613.17
467.51	9985.90
467.72	10256.23
467.93	9828.20
468.14	9981.80
468.34	10209.12
468.55	10092.39
468.76	10149.73
468.97	10022.76
469.17	10338.15
469.38	10366.82
469.59	10477.41
469.80	10250.08
470.01	10364.77
470.21	10530.66
470.42	10930.01
470.63	10682.20
470.84	10671.97
471.04	11124.57
471.25	10850.14
471.46	10981.21
471.67	11132.76
471.87	11081.56
472.08	11329.36
472.29	11372.37
472.50	11194.20
472.70	11407.19
472.91	11347.79
473.12	11548.50
473.33	11372.37
473.53	11773.77
473.74	11335.51
473.95	11702.09
474.16	11925.32
474.36	11745.10
474.57	12105.54
474.78	12128.07
474.99	12050.25
475.19	12029.77
475.40	12388.16
475.61	12582.72
475.81	12670.78
476.02	12695.36
476.23	12525.38
476.44	12504.90
476.64	12889.92
476.85	13129.53
477.06	12721.98
477.27	13195.06
477.47	13260.60
477.68	12857.15
477.89	13492.02
478.09	13262.65
478.30	13387.57
478.51	13418.29
478.71	13403.96
478.92	13500.21
479.13	13705.01
479.34	13717.29
479.54	13872.94
479.75	13924.14
479.96	14225.19
480.16	13963.05
480.37	14167.85
480.58	14210.86
480.78	14563.11
480.99	14165.80
481.20	14677.79
481.41	14634.78
481.61	14638.88
481.82	14792.48
482.03	14898.97
482.23	14815.01
482.44	15046.43
482.65	15118.11
482.85	15263.51
483.06	15060.76
483.27	15220.50
483.47	15292.18
483.68	15376.15
483.89	15705.87
484.09	15357.72
484.30	15513.36
484.51	15994.64
484.71	15775.50
484.92	16178.95
485.13	16013.07
485.33	16176.91
485.54	16056.08
485.75	16535.30
485.95	16301.83
486.16	16416.52
486.37	16740.10
486.57	16523.01
486.78	16572.16
486.98	16750.34
487.19	16834.30
487.40	17153.79
487.60	17022.72
487.81	17362.68
488.02	16865.02
488.22	17215.23
488.43	17319.67
488.64	17202.94
488.84	17563.38
489.05	17530.61
489.25	17663.73
489.46	17774.32
489.67	17741.55
489.87	17987.31
490.08	18134.76
490.29	18132.72
490.49	18071.28
490.70	18335.46
490.90	18335.46
491.11	18403.05
491.32	18468.58
491.52	18474.73
491.73	18681.57
491.94	18663.14
492.14	18745.06
492.35	19085.02
492.55	19158.75
492.76	19089.12
492.97	19273.43
493.17	18919.14
493.38	19330.78
493.58	19549.91
493.79	19494.61
494.00	19566.29
494.20	19420.89
494.41	20037.33
494.61	19842.77
494.82	19709.65
495.02	19721.94
495.23	19947.22
495.44	20066.00
495.64	20182.73
495.85	20190.92
496.05	20543.17
496.26	20412.10
496.47	20870.85
496.67	20645.57
496.88	21145.28
497.08	20526.79
497.29	20936.38
497.49	21124.80
497.70	20901.57
497.91	21221.05
498.11	21288.64
498.32	21366.46
498.52	21364.41
498.73	21993.14
498.93	21475.00
499.14	21741.24
499.34	21870.26
499.55	21765.81
499.76	21874.35
499.96	22081.20
500.17	21880.50
500.37	22087.34
500.58	22150.83
500.78	21997.23
500.99	22509.22
501.19	22541.99
501.40	22398.63
501.60	22421.16
501.81	22793.89
502.02	22615.72
502.22	22990.50
502.43	22931.11
502.63	22994.59
502.84	22787.75
503.04	23029.41
503.25	22976.16
503.45	23240.35
503.66	23275.16
503.86	23260.83
504.07	23588.50
504.27	23410.33
504.48	24094.35
504.68	23365.28
504.89	23938.71
505.09	23811.73
505.30	24022.67
505.50	23766.68
505.71	24106.64
505.91	24303.25
506.12	24133.26
506.32	24213.13
506.53	24278.67
506.73	24340.11
506.94	24469.13
507.14	24614.54
507.35	24503.95
507.55	24819.33
507.76	24743.56
507.96	24792.71
508.17	24852.10
508.37	24880.77
508.58	25130.62
508.78	25206.40
508.99	25630.33
509.19	25570.94
509.40	25190.02
509.60	25181.82
509.81	25525.88
510.01	25462.40
510.22	25656.95
510.42	25529.98
510.63	25706.10
510.83	25683.58
511.04	25644.66
511.24	26074.74
511.44	25898.61
511.65	25878.13
511.85	25933.43
512.06	26103.41
512.26	26142.32
512.47	26156.66
512.67	26246.77
512.88	26375.79
513.08	25994.87
513.29	26447.47
513.49	26517.10
513.69	26377.84
513.90	26689.13
514.10	26662.51
514.31	26605.16
514.51	26705.51
514.72	26713.70
514.92	26594.92
515.13	26785.38
515.33	27082.34
515.53	26986.08
515.74	27149.92
515.94	27217.50
516.15	27276.90
516.35	26963.56
516.56	27252.32
516.76	27334.24
516.96	27514.46
517.17	27948.63
517.37	27336.29
517.58	27545.18
517.78	27835.99
517.99	27612.76
518.19	27508.32
518.39	27872.85
518.60	28288.59
518.80	27778.65
519.01	28001.88
519.21	27942.49
519.41	28081.75
519.62	28259.92
519.82	28286.54
520.03	28319.31
520.23	28362.32
520.43	28274.26
520.64	28704.33
520.84	28477.01
521.05	28517.96
521.25	28966.47
521.45	28825.16
521.66	28943.94
521.86	28956.23
522.07	29099.59
522.27	29300.29
522.47	29011.53
522.68	29535.81
522.88	29298.24
523.08	29750.84
523.29	29511.23
523.49	29304.38
523.70	29644.35
523.90	29886.01
524.10	29517.37
524.31	29726.27
524.51	29509.18
524.71	30144.05
524.92	30432.82
525.12	30297.65
525.33	30172.72
525.53	30406.19
525.73	30357.04
525.94	30223.92
526.14	30232.11
526.34	30545.45
526.55	30899.75
526.75	30684.72
526.95	30580.27
527.16	30768.68
527.36	30770.73
527.56	31139.36
527.77	31215.14
527.97	31323.68
528.17	30897.70
528.38	30940.71
528.58	31307.30
528.78	31481.38
528.99	31448.61
529.19	31546.91
529.39	31358.50
529.60	31594.01
529.80	31559.20
530.00	31489.57
530.21	31841.82
530.41	31706.65
530.61	31888.92
530.82	32151.06
531.02	31876.63
531.22	32468.50
531.43	32015.90
531.63	31995.42
531.83	32437.78
532.04	32982.54
532.24	32394.77
532.44	32900.62
532.64	32806.41
532.85	33267.20
533.05	33041.93
533.25	33015.30
533.46	32953.87
533.66	33338.88
533.86	33003.02
534.07	33385.99
534.27	33062.41
534.47	33267.20
534.67	33592.83
534.88	33238.53
535.08	33469.95
535.28	33924.60
535.49	33951.23
535.69	34270.71
535.89	34110.97
536.09	33908.22
536.30	34192.89
536.50	34397.68
536.70	34758.13
536.91	33928.70
537.11	34340.34
537.31	34461.17
537.51	34369.01
537.72	34973.16
537.92	34887.15
538.12	34854.38
538.32	34563.57
538.53	35157.48
538.73	34690.54
538.93	35313.13
539.13	34616.82
539.34	35356.13
539.54	35212.77
539.74	35528.16
539.94	35241.45
540.15	35327.46
540.35	35593.70
540.55	35673.57
540.75	35485.15
540.96	35722.72
541.16	35743.20
541.36	35907.04
541.56	35550.69
541.77	35806.69
541.97	35775.97
542.17	36105.69
542.37	36120.02
542.58	35982.81
542.78	35829.21
542.98	36271.57
543.18	36365.78
543.38	36644.30
543.59	36546.00
543.79	36173.27
543.99	36306.39
544.19	36789.71
544.40	36550.10
544.60	36726.22
544.80	36638.16
545.00	36865.49
545.20	37182.92
545.41	36412.88
545.61	36777.42
545.81	37041.61
546.01	37000.65
546.21	37277.13
546.42	37381.57
546.62	37313.99
546.82	37135.82
547.02	37029.32
547.22	37553.60
547.43	37107.15
547.63	37307.85
547.83	37780.93
548.03	37160.39
548.23	37635.52
548.44	37367.24
548.64	37627.33
548.84	37705.15
549.04	37492.16
549.24	38118.84
549.45	38086.07
549.65	37795.26
549.85	38081.98
550.05	38180.28
550.25	38325.69
550.45	38534.58
550.66	38041.02
550.86	38098.36
551.06	38297.02
551.26	37823.93
551.46	38249.91
551.66	38303.16
551.87	38544.82
552.07	38579.64
552.27	38688.18
552.47	38815.15
552.67	39019.95
552.87	38694.32
553.07	39056.81
553.28	38700.47
553.48	39089.58
553.68	38841.78
553.88	39265.70
554.08	39056.81
554.28	39005.61
554.48	39030.19
554.69	39290.28
554.89	39003.56
555.09	39034.28
555.29	39654.82
555.49	39237.03
555.69	39249.32
555.89	39368.10
556.10	39597.48
556.30	39280.04
556.50	39390.63
556.70	39517.60
556.90	39511.46
557.10	39531.94
557.30	39372.20
557.50	39912.86
557.70	40289.69
557.91	39724.45
558.11	39818.66
558.31	40213.91
558.51	39789.98
558.71	40072.60
558.91	40068.51
559.11	40228.25
559.31	40404.38
559.51	39986.59
559.72	40162.72
559.92	40525.21
560.12	40486.29
560.32	40719.76
560.52	40539.54
560.72	40697.24
560.92	40910.22
561.12	40412.57
561.32	40705.43
561.52	40576.40
561.72	41080.21
561.93	41024.91
562.13	40959.38
562.33	40727.95
562.53	41377.16
562.73	40883.60
562.93	41127.31
563.13	41063.82
563.33	41291.15
563.53	41373.06
563.73	40856.98
563.93	41487.75
564.13	41850.24
564.33	41446.79
564.53	41246.09
564.74	41743.75
564.94	41051.53
565.14	41643.40
565.34	41383.30
565.54	41428.36
565.74	41780.61
565.94	41778.56
566.14	41954.69
566.34	41723.27
566.54	42196.35
566.74	42179.96
566.94	42124.67
567.14	42360.19
567.34	41960.83
567.54	41919.87
567.74	42331.51
567.94	42388.86
568.14	42388.86
568.34	42685.81
568.54	42505.59
568.74	42534.26
568.94	42786.16
569.14	42628.47
569.34	42562.93
569.54	42863.99
569.75	42759.54
569.95	42892.66
570.15	43375.98
570.35	43048.30
570.55	43005.30
570.75	43222.38
570.95	43201.90
571.15	42923.38
571.35	43443.56
571.55	43445.61
571.75	43271.53
571.95	43607.40
572.15	43529.58
572.35	43627.88
572.55	43591.01
572.75	43468.14
572.95	43761.00
573.15	43885.92
573.35	43595.11
573.55	43584.87
573.75	43971.94
573.95	44004.70
574.15	43806.05
574.35	44242.27
574.55	44455.26
574.75	43951.46
574.95	44268.89
575.15	44320.09
575.34	44309.85
575.54	44709.21
575.74	44201.31
575.94	44676.44
576.14	44625.24
576.34	44791.12
576.54	45188.43
576.74	44922.19
576.94	45096.27
577.14	45051.22
577.34	45231.44
577.54	44797.27
577.74	45479.24
577.94	45407.56
578.14	45208.91
578.34	45968.71
578.54	44799.32
578.74	45264.21
578.94	45407.56
579.14	45153.62
579.34	45774.15
579.54	45958.47
579.74	45839.68
579.94	45843.78
580.13	45700.42
580.33	46107.97
580.53	46200.13
580.73	46241.09
580.93	45878.60
581.13	46130.50
581.33	46808.37
581.53	46789.94
581.73	46550.33
581.93	46785.85
582.13	46423.36
582.33	46918.96
582.53	46316.86
582.73	46904.63
582.92	46863.67
583.12	46775.61
583.32	47174.96
583.52	46615.86
583.72	47066.42
583.92	46994.74
584.12	47043.89
584.32	47379.76
584.52	47166.77
584.72	47199.54
584.92	47592.75
585.11	47951.14
585.31	47656.23
585.51	47535.40
585.71	46863.67
585.91	48100.64
586.11	47762.73
586.31	47322.41
586.51	47695.14
586.71	48010.53
586.91	47908.13
587.10	48092.45
587.30	48094.50
587.50	48059.68
587.70	48581.91
587.90	48196.90
588.10	48434.46
588.30	48373.02
588.50	48755.99
588.69	48583.96
