SpectraSuite Data File
++++++++++++++++++++++++++++++++++++
Date: Fri Jun 02 14:51:07 CEST 2017
User: INFO_000
Dark Spectrum Present: No
Reference Spectrum Present: No
Number of Sampled Component Spectra: 1
Spectrometers: USB4H00879
Integration Time (usec): 80000 (USB4H00879)
Spectra Averaged: 1 (USB4H00879)
Boxcar Smoothing: 0 (USB4H00879)
Correct for Electrical Dark: No (USB4H00879)
Strobe/Lamp Enabled: No (USB4H00879)
Correct for Detector Non-linearity: No (USB4H00879)
Correct for Stray Light: No (USB4H00879)
Number of Pixels in Processed Spectrum: 3648
>>>>>Begin Processed Spectral Data<<<<<
345.13	1273.84
345.34	1273.84
345.56	1273.84
345.78	1290.22
345.99	1234.93
346.21	1685.48
346.42	1714.15
346.64	1681.38
346.86	1746.92
347.07	1697.77
347.29	1675.24
347.50	1642.47
347.72	1714.15
347.94	1789.92
348.15	1587.18
348.37	1642.47
348.59	1685.48
348.80	1673.19
349.02	1771.49
349.23	1841.12
349.45	1771.49
349.67	1941.47
349.88	1738.73
350.10	1916.90
350.31	1847.27
350.53	1820.64
350.75	1978.34
350.96	1755.11
351.18	1875.94
351.39	1806.31
351.61	1863.65
351.82	1837.03
352.04	1912.80
352.26	1718.25
352.47	1959.91
352.69	1882.08
352.90	1732.58
353.12	1777.64
353.34	1796.07
353.55	1884.13
353.77	1894.37
353.98	1755.11
354.20	1808.36
354.41	1900.52
354.63	1837.03
354.85	2017.25
355.06	1908.71
355.28	1779.68
355.49	1800.16
355.71	1863.65
355.92	1935.33
356.14	1972.19
356.35	1837.03
356.57	1884.13
356.79	1966.05
357.00	1855.46
357.22	1941.47
357.43	1843.17
357.65	1914.85
357.86	1849.32
358.08	1902.56
358.29	1998.82
358.51	1933.28
358.72	1939.43
358.94	1959.91
359.16	1916.90
359.37	1890.28
359.59	1865.70
359.80	1945.57
360.02	2013.15
360.23	1957.86
360.45	2011.11
360.66	1849.32
360.88	1798.12
361.09	1933.28
361.31	1923.04
361.52	1927.14
361.74	2037.73
361.95	1992.67
362.17	1959.91
362.38	2043.87
362.60	2027.49
362.81	1964.00
363.03	1925.09
363.24	1988.58
363.46	1994.72
363.67	2027.49
363.89	1994.72
364.10	1896.42
364.32	1912.80
364.53	1982.43
364.75	1830.88
364.96	2033.63
365.18	2031.58
365.39	2019.30
365.61	1894.37
365.82	2088.93
366.04	2019.30
366.25	1955.81
366.47	2099.17
366.68	1984.48
366.90	1947.62
367.11	2039.78
367.33	2015.20
367.54	2076.64
367.76	1961.95
367.97	2068.45
368.19	2000.87
368.40	1992.67
368.62	2029.54
368.83	1968.10
369.05	2078.69
369.26	2039.78
369.48	1994.72
369.69	2017.25
369.91	2109.41
370.12	2007.01
370.33	2068.45
370.55	2029.54
370.76	2090.98
370.98	2060.26
371.19	2050.02
371.41	2045.92
371.62	2062.30
371.84	1986.53
372.05	2123.74
372.27	2019.30
372.48	2000.87
372.69	2111.46
372.91	2115.55
373.12	2150.37
373.34	2117.60
373.55	2105.31
373.77	2117.60
373.98	2009.06
374.20	2107.36
374.41	2205.66
374.62	2084.83
374.84	2121.70
375.05	2215.90
375.27	2203.61
375.48	2150.37
375.70	2103.26
375.91	2183.13
376.12	2316.25
376.34	2230.24
376.55	2191.33
376.77	2232.29
376.98	2185.18
377.19	2002.91
377.41	2109.41
377.62	2183.13
377.84	2152.42
378.05	2295.77
378.27	2172.89
378.48	2281.44
378.69	2420.70
378.91	2310.11
379.12	2244.57
379.34	2209.76
379.55	2303.96
379.76	2160.61
379.98	2232.29
380.19	2246.62
380.41	2328.54
380.62	2246.62
380.83	2207.71
381.05	2263.01
381.26	2447.32
381.47	2199.52
381.69	2191.33
381.90	2387.93
382.12	2367.45
382.33	2283.49
382.54	2267.10
382.76	2275.29
382.97	2295.77
383.19	2176.99
383.40	2396.12
383.61	2183.13
383.83	2215.90
384.04	2275.29
384.25	2353.12
384.47	2385.88
384.68	2303.96
384.89	2246.62
385.11	2297.82
385.32	2338.78
385.54	2277.34
385.75	2303.96
385.96	2332.64
386.18	2404.32
386.39	2383.84
386.60	2371.55
386.82	2465.75
387.03	2383.84
387.24	2510.81
387.46	2396.12
387.67	2396.12
387.88	2445.27
388.10	2396.12
388.31	2475.99
388.52	2471.90
388.74	2404.32
388.95	2490.33
389.16	2496.47
389.38	2365.40
389.59	2568.15
389.80	2525.15
390.02	2547.67
390.23	2555.86
390.44	2568.15
390.66	2473.95
390.87	2443.23
391.08	2600.92
391.30	2619.35
391.51	2568.15
391.72	2580.44
391.94	2580.44
392.15	2535.39
392.36	2557.91
392.58	2461.66
392.79	2572.25
393.00	2629.59
393.22	2715.61
393.43	2721.75
393.64	2748.37
393.85	2721.75
394.07	2605.02
394.28	2697.17
394.49	2686.94
394.71	2658.26
394.92	2758.61
395.13	2586.58
395.35	2615.26
395.56	2781.14
395.77	2738.13
395.98	2701.27
396.20	2797.53
396.41	2756.57
396.62	2832.34
396.84	2709.46
397.05	2744.28
397.26	2869.20
397.47	2899.92
397.69	2721.75
397.90	2877.40
398.11	2895.83
398.32	2791.38
398.54	2869.20
398.75	2826.20
398.96	2906.07
399.18	2908.12
399.39	2932.69
399.60	3010.51
399.81	2818.00
400.03	2793.43
400.24	3215.31
400.45	2981.84
400.66	3063.76
400.88	2953.17
401.09	3143.63
401.30	2996.18
401.51	3033.04
401.73	3123.15
401.94	3041.23
402.15	3041.23
402.36	2998.23
402.58	3069.91
402.79	3090.38
403.00	3059.67
403.21	3114.96
403.43	3147.73
403.64	3182.54
403.85	3000.27
404.06	3108.82
404.27	3053.52
404.49	3166.16
404.70	3143.63
404.91	3217.36
405.12	3151.82
405.34	3063.76
405.55	3311.57
405.76	3080.14
405.97	3092.43
406.19	3260.37
406.40	3188.69
406.61	3235.79
406.82	3168.21
407.03	3278.80
407.25	3180.50
407.46	3286.99
407.67	3237.84
407.88	3448.78
408.09	3272.65
408.31	3223.50
408.52	3313.61
408.73	3291.09
408.94	3274.70
409.15	3387.34
409.37	3477.45
409.58	3428.30
409.79	3366.86
410.00	3588.04
410.21	3307.47
410.43	3389.39
410.64	3334.09
410.85	3379.15
411.06	3434.44
411.27	3573.71
411.48	3481.55
411.70	3592.14
411.91	3594.19
412.12	3686.34
412.33	3629.00
412.54	3571.66
412.76	3659.72
412.97	3608.52
413.18	3520.46
413.39	3557.32
413.60	3618.76
413.81	3661.77
414.03	3600.33
414.24	3504.07
414.45	3839.94
414.66	3565.51
414.87	3710.92
415.08	3798.98
415.30	3637.19
415.51	3684.30
415.72	3700.68
415.93	3612.62
416.14	3772.36
416.35	3682.25
416.56	3651.53
416.78	3692.49
416.99	3788.74
417.20	3764.17
417.41	3835.85
417.62	3710.92
417.83	3874.76
418.04	3786.69
418.26	3979.20
418.47	3755.97
418.68	3973.06
418.89	3760.07
419.10	3944.39
419.31	3905.48
419.52	3872.71
419.73	3946.44
419.95	3964.87
420.16	3874.76
420.37	3952.58
420.58	4040.64
420.79	3753.93
421.00	3880.90
421.21	4069.31
421.42	3960.77
421.63	4001.73
421.85	4050.88
422.06	4005.83
422.27	3999.68
422.48	4057.03
422.69	4120.51
422.90	4067.27
423.11	4134.85
423.32	4145.09
423.53	4263.87
423.75	4241.34
423.96	4249.54
424.17	4169.66
424.38	4401.08
424.59	4286.40
424.80	4378.56
425.01	4251.58
425.22	4208.58
425.43	4362.17
425.64	4599.74
425.85	4452.28
426.06	4364.22
426.28	4423.61
426.49	4368.32
426.70	4384.70
426.91	4394.94
427.12	4499.39
427.33	4384.70
427.54	4335.55
427.75	4564.92
427.96	4665.27
428.17	4583.35
428.38	4622.27
428.59	4683.70
428.80	4655.03
429.01	4624.31
429.23	4587.45
429.44	4911.03
429.65	4741.05
429.86	4788.15
430.07	4691.90
430.28	4657.08
430.49	4747.19
430.70	4896.69
430.91	4886.45
431.12	4931.51
431.33	4874.17
431.54	4820.92
431.75	4835.25
431.96	4835.25
432.17	4859.83
432.38	4878.26
432.59	5156.79
432.80	5052.34
433.01	5076.91
433.22	5128.11
433.43	5107.63
433.64	5044.15
433.85	5078.96
434.06	5046.20
434.27	5128.11
434.49	5285.81
434.70	5332.91
434.91	5250.99
435.12	5248.94
435.33	5089.20
435.54	5246.90
435.75	5177.26
435.96	5150.64
436.17	5210.03
436.38	5285.81
436.59	5435.31
436.80	5255.09
437.01	5662.63
437.22	5500.84
437.43	5341.10
437.64	5197.74
437.85	5691.31
438.06	5627.82
438.27	5439.40
438.48	5582.76
438.69	5482.41
438.90	5621.67
439.11	5490.60
439.32	5668.78
439.53	5613.48
439.74	5582.76
439.95	5730.22
440.16	5523.37
440.37	5713.83
440.57	5734.31
440.78	5799.85
440.99	5644.20
441.20	5869.48
441.41	5722.02
441.62	5785.51
441.83	5674.92
442.04	6014.88
442.25	5789.61
442.46	5943.21
442.67	5963.68
442.88	6360.99
443.09	5889.96
443.30	5826.47
443.51	6068.13
443.72	6178.72
443.93	5992.36
444.14	6143.91
444.35	6014.88
444.56	6197.15
444.77	6217.63
444.98	6139.81
445.19	6238.11
445.40	6074.28
445.61	6160.29
445.81	6356.90
446.02	6236.06
446.23	6191.01
446.44	6152.10
446.65	6340.51
446.86	6305.70
447.07	6432.67
447.28	6535.07
447.49	6506.40
447.70	6373.28
447.91	6522.78
448.12	6522.78
448.33	6633.37
448.54	6584.22
448.74	6424.48
448.95	6455.20
449.16	6508.44
449.37	6748.06
449.58	6533.02
449.79	6915.99
450.00	6639.51
450.21	6729.63
450.42	6883.22
450.63	6832.02
450.84	6875.03
451.05	6786.97
451.25	7006.10
451.46	6827.93
451.67	7131.03
451.88	6938.52
452.09	7012.24
452.30	6903.70
452.51	6954.90
452.72	7176.08
452.93	7262.10
453.13	7126.93
453.34	6969.24
453.55	7266.19
453.76	7243.67
453.97	7423.89
454.18	7301.01
454.39	7303.06
454.60	7243.67
454.81	7360.40
455.01	7536.52
455.22	7081.88
455.43	7401.36
455.64	7569.29
455.85	7511.95
456.06	7853.96
456.27	7780.23
456.48	7624.59
456.68	7593.87
456.89	7643.02
457.10	7751.56
457.31	7663.50
457.52	7665.55
457.73	7817.10
457.94	8148.87
458.14	7792.52
458.35	8198.02
458.56	7950.21
458.77	7890.82
458.98	7960.45
459.19	8163.20
459.39	7954.31
459.60	8144.77
459.81	8148.87
460.02	8269.70
460.23	8144.77
460.44	8458.11
460.65	8488.83
460.85	8517.50
461.06	8415.10
461.27	8310.66
461.48	8544.13
461.69	8619.90
461.89	8425.34
462.10	8656.76
462.31	8460.16
462.52	8632.19
462.73	8716.16
462.94	8793.98
463.14	8765.31
463.35	8791.93
463.56	9334.64
463.77	9064.31
463.98	8808.31
464.18	8861.56
464.39	9060.21
464.60	9275.25
464.81	9060.21
465.02	9131.89
465.23	9301.87
465.43	9201.52
465.64	9525.10
465.85	9391.98
466.06	9316.21
466.27	9516.91
466.47	9486.19
466.68	9527.15
466.89	9621.36
467.10	9543.53
467.30	9457.52
467.51	9822.06
467.72	9959.27
467.93	9678.70
468.14	9756.52
468.34	10135.40
468.55	9820.01
468.76	10012.52
468.97	9815.91
469.17	10172.26
469.38	10289.00
469.59	10383.20
469.80	10424.16
470.01	10389.35
470.21	10157.92
470.42	10692.44
470.63	10579.81
470.84	10471.26
471.04	10764.12
471.25	10819.42
471.46	10803.04
471.67	11046.74
471.87	10733.40
472.08	10735.45
472.29	11294.55
472.50	10784.60
472.70	10999.64
472.91	11126.61
473.12	11370.32
473.33	11345.75
473.53	11525.97
473.74	11337.56
473.95	11497.30
474.16	11644.75
474.36	11671.37
474.57	11888.46
474.78	12103.50
474.99	11851.60
475.19	11984.71
475.40	12304.20
475.61	12248.90
475.81	12123.98
476.02	12396.35
476.23	12365.64
476.44	12517.18
476.64	12660.54
476.85	12676.93
477.06	12857.15
477.27	12906.30
477.47	12986.17
477.68	12912.44
477.89	13334.32
478.09	13367.09
478.30	13336.37
478.51	13289.27
478.71	13418.29
478.92	13446.96
479.13	13489.97
479.34	13643.57
479.54	13725.49
479.75	13907.76
479.96	14024.49
480.16	14028.59
480.37	14176.04
480.58	14356.26
480.78	14294.82
480.99	14571.30
481.20	14602.02
481.41	14522.15
481.61	14657.31
481.82	14722.85
482.03	14937.88
482.23	14737.18
482.44	15265.56
482.65	15255.32
482.85	15417.11
483.06	15492.88
483.27	15382.29
483.47	15451.92
483.68	15564.56
483.89	15697.68
484.09	15656.72
484.30	15785.74
484.51	15800.08
484.71	15970.06
484.92	16025.36
485.13	16250.63
485.33	16447.24
485.54	16254.73
485.75	16793.34
485.95	16516.87
486.16	16660.23
486.37	17051.39
486.57	16860.93
486.78	16955.13
486.98	17043.20
487.19	17067.77
487.40	17366.78
487.60	17571.57
487.81	17544.95
488.02	17598.20
488.22	17620.72
488.43	17997.55
488.64	17882.86
488.84	18083.56
489.05	18321.13
489.25	17788.66
489.46	18124.52
489.67	18394.86
489.87	18173.67
490.08	18552.55
490.29	18165.48
490.49	18904.80
490.70	19044.06
490.90	18949.85
491.11	19064.54
491.32	18910.94
491.52	18999.01
491.73	19267.29
491.94	19207.90
492.14	19115.74
492.35	19500.76
492.55	19566.29
492.76	19713.75
492.97	20037.33
493.17	19824.34
493.38	20072.14
493.58	20356.81
493.79	20299.47
494.00	20143.82
494.20	20117.20
494.41	20381.38
494.61	20520.65
494.82	20987.58
495.02	20475.59
495.23	20655.81
495.44	20911.81
495.64	21165.76
495.85	20969.15
496.05	21296.83
496.26	21075.65
496.47	21421.75
496.67	20954.82
496.88	21821.11
497.08	21247.68
497.29	21495.48
497.49	21593.78
497.70	21923.51
497.91	21831.35
498.11	21933.75
498.32	21964.46
498.52	22007.47
498.73	22435.50
498.93	22363.82
499.14	22417.07
499.34	22427.31
499.55	22134.45
499.76	22492.84
499.96	22478.50
500.17	22703.78
500.37	22554.28
500.58	22836.90
500.78	22763.17
500.99	23029.41
501.19	23158.43
501.40	23199.39
501.60	23039.65
501.81	23199.39
502.02	23246.49
502.22	23518.87
502.43	23324.32
502.63	23408.28
502.84	23680.66
503.04	23443.10
503.25	23535.26
503.45	23584.41
503.66	23699.09
503.86	23654.04
504.07	24092.30
504.27	23809.68
504.48	23996.05
504.68	23934.61
504.89	24477.32
505.09	24106.64
505.30	24460.94
505.50	24266.38
505.71	24604.30
505.91	24657.54
506.12	24276.62
506.32	24358.54
506.53	24708.74
506.73	24465.03
506.94	24694.41
507.14	24688.26
507.35	24723.08
507.55	24874.63
507.76	24815.24
507.96	24649.35
508.17	24954.50
508.37	24718.98
508.58	24979.07
508.78	25204.35
508.99	25042.56
509.19	25058.95
509.40	25206.40
509.60	25349.76
509.81	25566.84
510.01	25570.94
510.22	25335.42
510.42	25253.50
510.63	25572.99
510.83	25411.20
511.04	25435.77
511.24	25837.17
511.44	25831.03
511.65	25583.23
511.85	25650.81
512.06	25921.14
512.26	25896.56
512.47	25874.04
512.67	26191.47
512.88	26078.83
513.08	25925.24
513.29	25779.83
513.49	25798.26
513.69	26046.07
513.90	26607.21
514.10	26312.30
514.31	26361.45
514.51	26205.81
514.72	26498.67
514.92	26207.86
515.13	26515.05
515.33	26826.34
515.53	26627.69
515.74	26504.81
515.94	26881.64
516.15	26779.24
516.35	26625.64
516.56	26863.21
516.76	26470.00
516.96	26537.58
517.17	26998.37
517.37	26887.78
517.58	27000.42
517.78	26713.70
517.99	27053.67
518.19	27295.33
518.39	27319.90
518.60	27035.24
518.80	27192.93
519.01	27192.93
519.21	27270.75
519.41	27637.34
519.62	27358.81
519.82	27694.68
520.03	27491.93
520.23	27633.24
520.43	27450.97
520.64	28036.69
520.84	28104.28
521.05	27778.65
521.25	28010.07
521.45	28061.27
521.66	27876.95
521.86	28169.81
522.07	28276.30
522.27	28186.19
522.47	28233.30
522.68	28538.44
522.88	28202.58
523.08	28419.66
523.29	28620.36
523.49	28468.81
523.70	28980.81
523.90	28833.35
524.10	28677.71
524.31	28956.23
524.51	28687.95
524.71	28997.19
524.92	29187.65
525.12	29066.82
525.33	29201.99
525.53	29208.13
525.73	29263.43
525.94	29611.58
526.14	29576.76
526.34	29300.29
526.55	29374.02
526.75	29488.70
526.95	29924.92
527.16	30041.65
527.36	29974.07
527.56	29984.31
527.77	30176.82
527.97	29939.26
528.17	30457.39
528.38	30088.76
528.58	30567.98
528.78	30479.92
528.99	30735.92
529.19	30762.54
529.39	30555.69
529.60	30907.94
529.80	30858.79
530.00	30946.86
530.21	31100.45
530.41	31272.48
530.61	30850.60
530.82	31282.72
531.02	31643.17
531.22	31540.77
531.43	31819.29
531.63	31852.06
531.83	32056.85
532.04	32255.51
532.24	31989.27
532.44	31903.26
532.64	32208.40
532.85	32288.28
533.05	32486.93
533.25	32544.27
533.46	32275.99
533.66	32359.95
533.86	32343.57
534.07	32753.16
534.27	32978.44
534.47	33046.02
534.67	33318.40
534.88	33158.66
535.08	33408.51
535.28	33392.13
535.49	33490.43
535.69	34055.67
535.89	33830.40
536.09	33631.74
536.30	34444.79
536.50	33816.06
536.70	34049.53
536.91	34278.90
537.11	34461.17
537.31	34436.59
537.51	34446.83
537.72	34547.18
537.92	34737.65
538.12	34907.63
538.32	34915.82
538.53	35036.65
538.73	34633.20
538.93	34993.64
539.13	35407.33
539.34	35165.67
539.54	34909.68
539.74	35495.39
539.94	35491.30
540.15	35360.23
540.35	35595.74
540.55	35616.22
540.75	35601.89
540.96	35743.20
541.16	35943.90
541.36	35829.21
541.56	35898.84
541.77	36582.87
541.97	36371.92
542.17	36683.22
542.37	36703.70
542.58	36558.29
542.78	36390.36
542.98	36916.68
543.18	36859.34
543.38	37428.68
543.59	36767.18
543.79	36967.88
543.99	37336.52
544.19	37602.75
544.40	37299.65
544.60	37811.65
544.80	37621.19
545.00	37582.27
545.20	37940.67
545.41	37555.65
545.61	37680.58
545.81	38282.68
546.01	38346.17
546.21	37938.62
546.42	37895.61
546.62	38497.72
546.82	38018.49
547.02	38675.89
547.22	38749.62
547.43	38585.78
547.63	38602.16
547.83	38766.00
548.03	38497.72
548.23	39003.56
548.44	38778.29
548.64	39198.12
548.84	38841.78
549.04	38794.67
549.24	39099.82
549.45	39269.80
549.65	39013.80
549.85	39228.84
550.05	39333.29
550.25	39101.87
550.45	40043.93
550.66	39572.90
550.86	39187.88
551.06	39511.46
551.26	39882.14
551.46	39826.85
551.66	40095.13
551.87	40252.83
552.07	40045.98
552.27	40064.41
552.47	40361.37
552.67	40517.01
552.87	40193.43
553.07	40252.83
553.28	40426.90
553.48	40512.92
553.68	40623.51
553.88	40969.61
554.08	40768.91
554.28	40775.06
554.48	40672.66
554.69	41043.34
554.89	40752.53
555.09	41029.01
555.29	40623.51
555.49	41029.01
555.69	40959.38
555.89	40897.94
556.10	41067.92
556.30	41074.06
556.50	41405.83
556.70	40955.28
556.90	41497.99
557.10	41485.70
557.30	41426.31
557.50	41555.33
557.70	41794.95
557.91	41895.30
558.11	41385.35
558.31	41612.68
558.51	41520.52
558.71	41823.62
558.91	41883.01
559.11	41844.10
559.31	41837.95
559.51	41840.00
559.72	41948.54
559.92	41993.60
560.12	41813.38
560.32	41938.30
560.52	42118.53
560.72	42327.42
560.92	42276.22
561.12	42102.14
561.32	42450.30
561.52	41887.10
561.72	42868.08
561.93	42509.69
562.13	42196.35
562.33	42241.40
562.53	43208.04
562.73	42370.43
562.93	42403.19
563.13	42767.73
563.33	42747.25
563.53	42915.19
563.73	42714.48
563.93	42626.42
564.13	43289.96
564.33	42761.59
564.53	42567.03
564.74	42990.96
564.94	42519.93
565.14	43099.50
565.34	42845.55
565.54	43101.55
565.74	42753.40
565.94	43040.11
566.14	42931.57
566.34	42808.69
566.54	43156.85
566.74	42902.90
566.94	42913.14
567.14	43300.20
567.34	42861.94
567.54	43451.75
567.74	43119.98
567.94	43187.56
568.14	43621.73
568.34	43738.47
568.54	43570.54
568.74	43195.76
568.94	43269.48
569.14	43431.27
569.34	43191.66
569.54	43578.73
569.75	43302.25
569.95	43375.98
570.15	44057.95
570.35	43912.55
570.55	43701.61
570.75	43683.17
570.95	43582.82
571.15	43449.70
571.35	43681.13
571.55	44025.18
571.75	43523.43
571.95	44045.66
572.15	43599.21
572.35	43717.99
572.55	43988.32
572.75	43707.75
572.95	43855.20
573.15	44096.86
573.35	44330.33
573.55	43908.45
573.75	43742.56
573.95	44266.84
574.15	43636.07
574.35	43992.42
574.55	44199.26
574.75	44066.14
574.95	44416.35
575.15	44025.18
575.34	44037.47
575.54	44561.75
575.74	44459.35
575.94	44662.10
576.14	43957.60
576.34	44602.71
576.54	44526.94
576.74	44094.82
576.94	44361.05
577.14	44528.98
577.34	45253.97
577.54	44410.20
577.74	45108.56
577.94	44692.82
578.14	44473.69
578.34	44893.52
578.54	44713.30
578.74	44856.66
578.94	44854.61
579.14	44500.31
579.34	44612.95
579.54	44930.39
579.74	45485.39
579.94	44995.92
580.13	45256.01
580.33	44963.15
580.53	45024.59
580.73	45049.17
580.93	45073.74
581.13	45253.97
581.33	45616.46
581.53	45311.31
581.73	44971.35
581.93	45419.85
582.13	45438.28
582.33	45364.56
582.53	45552.97
582.73	45854.02
582.92	45348.17
583.12	45727.05
583.32	45622.60
583.52	45432.14
583.72	45847.88
583.92	45546.82
584.12	46177.60
584.32	46247.23
584.52	45888.84
584.72	45778.25
584.92	45874.50
585.11	46667.06
585.31	46150.98
585.51	46421.31
585.71	45897.03
585.91	46548.28
586.11	46202.18
586.31	45991.23
586.51	46474.55
586.71	46912.82
586.91	46409.02
587.10	46267.71
587.30	46392.64
587.50	46753.08
587.70	46808.37
587.90	46898.48
588.10	46425.40
588.30	46669.11
588.50	46579.00
588.69	46486.84
