SpectraSuite Data File
++++++++++++++++++++++++++++++++++++
Date: Fri Jun 02 14:51:11 CEST 2017
User: INFO_000
Dark Spectrum Present: No
Reference Spectrum Present: No
Number of Sampled Component Spectra: 1
Spectrometers: USB4H00879
Integration Time (usec): 80000 (USB4H00879)
Spectra Averaged: 1 (USB4H00879)
Boxcar Smoothing: 0 (USB4H00879)
Correct for Electrical Dark: No (USB4H00879)
Strobe/Lamp Enabled: No (USB4H00879)
Correct for Detector Non-linearity: No (USB4H00879)
Correct for Stray Light: No (USB4H00879)
Number of Pixels in Processed Spectrum: 3648
>>>>>Begin Processed Spectral Data<<<<<
345.13	1261.55
345.34	1261.55
345.56	1261.55
345.78	1294.32
345.99	1265.64
346.21	1771.49
346.42	1634.28
346.64	1677.29
346.86	1779.68
347.07	1550.31
347.29	1677.29
347.50	1673.19
347.72	1740.77
347.94	1757.16
348.15	1538.02
348.37	1654.76
348.59	1667.05
348.80	1662.95
349.02	1863.65
349.23	1906.66
349.45	1931.23
349.67	1896.42
349.88	1877.99
350.10	1992.67
350.31	1798.12
350.53	1855.46
350.75	1882.08
350.96	1742.82
351.18	1787.88
351.39	1814.50
351.61	1824.74
351.82	1898.47
352.04	1863.65
352.26	1933.28
352.47	1939.43
352.69	1904.61
352.90	1773.54
353.12	1869.80
353.34	1847.27
353.55	1918.95
353.77	1910.75
353.98	1818.60
354.20	1808.36
354.41	1949.67
354.63	1855.46
354.85	2047.97
355.06	1894.37
355.28	1763.30
355.49	1888.23
355.71	1914.85
355.92	1853.41
356.14	1961.95
356.35	1980.39
356.57	1875.94
356.79	1916.90
357.00	1968.10
357.22	2039.78
357.43	1841.12
357.65	1943.52
357.86	1902.56
358.08	1906.66
358.29	1888.23
358.51	1937.38
358.72	1988.58
358.94	1972.19
359.16	1961.95
359.37	1976.29
359.59	1910.75
359.80	1920.99
360.02	1961.95
360.23	1945.57
360.45	1959.91
360.66	1923.04
360.88	1847.27
361.09	2004.96
361.31	2004.96
361.52	2007.01
361.74	2080.74
361.95	2045.92
362.17	1931.23
362.38	2113.50
362.60	2107.36
362.81	2011.11
363.03	1896.42
363.24	2002.91
363.46	2047.97
363.67	1988.58
363.89	1961.95
364.10	1992.67
364.32	1961.95
364.53	2009.06
364.75	1978.34
364.96	2054.11
365.18	2064.35
365.39	2064.35
365.61	1984.48
365.82	2050.02
366.04	2115.55
366.25	1888.23
366.47	1984.48
366.68	2050.02
366.90	1939.43
367.11	2082.78
367.33	2066.40
367.54	2000.87
367.76	1918.95
367.97	2164.70
368.19	2017.25
368.40	2156.51
368.62	2025.44
368.83	1943.52
369.05	1978.34
369.26	1933.28
369.48	1957.86
369.69	2002.91
369.91	1966.05
370.12	2025.44
370.33	2131.94
370.55	1890.28
370.76	1982.43
370.98	2066.40
371.19	2050.02
371.41	2043.87
371.62	2068.45
371.84	2054.11
372.05	2146.27
372.27	2070.50
372.48	2084.83
372.69	2115.55
372.91	2183.13
373.12	2240.48
373.34	2088.93
373.55	2115.55
373.77	2142.18
373.98	2060.26
374.20	2076.64
374.41	2256.86
374.62	2146.27
374.84	2168.80
375.05	2121.70
375.27	2172.89
375.48	2140.13
375.70	2176.99
375.91	2181.09
376.12	2224.09
376.34	2088.93
376.55	2201.57
376.77	2162.66
376.98	2115.55
377.19	2174.94
377.41	2133.98
377.62	2256.86
377.84	2160.61
378.05	2277.34
378.27	2168.80
378.48	2273.25
378.69	2371.55
378.91	2334.68
379.12	2220.00
379.34	2260.96
379.55	2301.92
379.76	2189.28
379.98	2199.52
380.19	2222.05
380.41	2301.92
380.62	2277.34
380.83	2277.34
381.05	2203.61
381.26	2392.03
381.47	2187.23
381.69	2197.47
381.90	2394.08
382.12	2293.72
382.33	2289.63
382.54	2295.77
382.76	2361.31
382.97	2299.87
383.19	2295.77
383.40	2357.21
383.61	2267.10
383.83	2236.38
384.04	2295.77
384.25	2355.16
384.47	2334.68
384.68	2328.54
384.89	2285.53
385.11	2394.08
385.32	2275.29
385.54	2297.82
385.75	2369.50
385.96	2451.42
386.18	2410.46
386.39	2435.03
386.60	2359.26
386.82	2416.60
387.03	2369.50
387.24	2373.60
387.46	2426.84
387.67	2605.02
387.88	2371.55
388.10	2455.51
388.31	2394.08
388.52	2523.10
388.74	2559.96
388.95	2420.70
389.16	2500.57
389.38	2441.18
389.59	2576.34
389.80	2592.73
390.02	2594.78
390.23	2607.06
390.44	2627.54
390.66	2613.21
390.87	2453.47
391.08	2555.86
391.30	2701.27
391.51	2611.16
391.72	2645.98
391.94	2713.56
392.15	2547.67
392.36	2557.91
392.58	2572.25
392.79	2777.05
393.00	2654.17
393.22	2678.74
393.43	2731.99
393.64	2787.29
393.85	2768.85
394.07	2625.50
394.28	2738.13
394.49	2697.17
394.71	2783.19
394.92	2881.49
395.13	2707.41
395.35	2701.27
395.56	2789.33
395.77	2795.48
395.98	2713.56
396.20	2842.58
396.41	2795.48
396.62	2861.01
396.84	2779.09
397.05	2762.71
397.26	2793.43
397.47	2887.64
397.69	2901.97
397.90	3129.30
398.11	2934.74
398.32	2875.35
398.54	2897.88
398.75	2846.68
398.96	2957.27
399.18	3016.66
399.39	3045.33
399.60	3049.43
399.81	2961.36
400.03	2936.79
400.24	3286.99
400.45	2875.35
400.66	3084.24
400.88	2910.16
401.09	3110.86
401.30	3131.34
401.51	3074.00
401.73	3057.62
401.94	3250.13
402.15	3071.95
402.36	3069.91
402.58	3078.10
402.79	3147.73
403.00	3141.58
403.21	3090.38
403.43	3205.07
403.64	3180.50
403.85	3141.58
404.06	3182.54
404.27	3166.16
404.49	3184.59
404.70	3172.30
404.91	3286.99
405.12	3172.30
405.34	3209.17
405.55	3301.33
405.76	3155.92
405.97	3203.02
406.19	3432.40
406.40	3129.30
406.61	3229.65
406.82	3352.52
407.03	3289.04
407.25	3346.38
407.46	3411.92
407.67	3358.67
407.88	3542.99
408.09	3332.05
408.31	3299.28
408.52	3336.14
408.73	3262.41
408.94	3305.42
409.15	3461.07
409.37	3524.55
409.58	3495.88
409.79	3440.59
410.00	3442.64
410.21	3383.24
410.43	3350.48
410.64	3405.77
410.85	3469.26
411.06	3459.02
411.27	3530.70
411.48	3571.66
411.70	3465.16
411.91	3530.70
412.12	3688.39
412.33	3497.93
412.54	3641.29
412.76	3555.27
412.97	3653.58
413.18	3526.60
413.39	3536.84
413.60	3682.25
413.81	3747.78
414.03	3624.90
414.24	3493.83
414.45	3755.97
414.66	3516.36
414.87	3715.02
415.08	3655.62
415.30	3751.88
415.51	3700.68
415.72	3835.85
415.93	3778.50
416.14	3878.85
416.35	3755.97
416.56	3735.50
416.78	3715.02
416.99	3764.17
417.20	3780.55
417.41	3874.76
417.62	3864.52
417.83	3907.52
418.04	3805.13
418.26	3864.52
418.47	3829.70
418.68	3930.05
418.89	3995.59
419.10	4030.40
419.31	3973.06
419.52	4108.23
419.73	3981.25
419.95	4114.37
420.16	3835.85
420.37	3925.96
420.58	4093.89
420.79	3858.37
421.00	4014.02
421.21	3973.06
421.42	4009.92
421.63	4145.09
421.85	4132.80
422.06	4233.15
422.27	4188.10
422.48	4157.38
422.69	4122.56
422.90	4216.77
423.11	4188.10
423.32	4188.10
423.53	4417.47
423.75	4214.72
423.96	4423.61
424.17	4329.41
424.38	4419.52
424.59	4382.65
424.80	4689.85
425.01	4394.94
425.22	4333.50
425.43	4284.35
425.64	4661.18
425.85	4661.18
426.06	4595.64
426.28	4499.39
426.49	4333.50
426.70	4577.21
426.91	4642.75
427.12	4728.76
427.33	4556.73
427.54	4607.93
427.75	4663.22
427.96	4845.49
428.17	4691.90
428.38	4763.58
428.59	4894.65
428.80	4765.62
429.01	4800.44
429.23	4800.44
429.44	4982.71
429.65	4853.69
429.86	4968.37
430.07	4700.09
430.28	4960.18
430.49	4919.22
430.70	5050.29
430.91	5074.87
431.12	5015.48
431.33	5177.26
431.54	5132.21
431.75	5113.78
431.96	5093.30
432.17	5093.30
432.38	5070.77
432.59	5316.53
432.80	5148.59
433.01	5154.74
433.22	5259.18
433.43	5257.14
433.64	5107.63
433.85	5160.88
434.06	5351.34
434.27	5214.13
434.49	5287.86
434.70	5443.50
434.91	5351.34
435.12	5271.47
435.33	5355.44
435.54	5408.69
435.75	5304.24
435.96	5341.10
436.17	5369.77
436.38	5543.85
436.59	5580.71
436.80	5537.71
437.01	5746.60
437.22	5689.26
437.43	5480.36
437.64	5519.28
437.85	5580.71
438.06	5812.14
438.27	5582.76
438.48	5674.92
438.69	5853.09
438.90	5660.59
439.11	5691.31
439.32	5773.22
439.53	5795.75
439.74	5887.91
439.95	5849.00
440.16	5801.90
440.37	5955.49
440.57	5736.36
440.78	5992.36
440.99	5959.59
441.20	5922.73
441.41	5861.29
441.62	5990.31
441.83	5791.66
442.04	5973.92
442.25	5900.20
442.46	5953.45
442.67	6107.04
442.88	6383.52
443.09	6092.71
443.30	6111.14
443.51	6154.15
443.72	6397.85
443.93	6037.41
444.14	6379.42
444.35	6090.66
444.56	6336.42
444.77	6266.78
444.98	6307.74
445.19	6432.67
445.40	6328.22
445.61	6285.22
445.81	6545.31
446.02	6322.08
446.23	6365.09
446.44	6367.13
446.65	6479.77
446.86	6377.37
447.07	6588.32
447.28	6598.56
447.49	6533.02
447.70	6614.94
447.91	6623.13
448.12	6682.52
448.33	6707.10
448.54	6602.65
448.74	6778.78
448.95	6619.04
449.16	6678.43
449.37	7010.20
449.58	6791.06
449.79	6999.96
450.00	6565.79
450.21	6762.39
450.42	6907.80
450.63	6918.04
450.84	6956.95
451.05	6936.47
451.25	6782.87
451.46	6875.03
451.67	7133.08
451.88	7184.27
452.09	7118.74
452.30	7026.58
452.51	7053.20
452.72	7194.51
452.93	7483.28
453.13	7083.92
453.34	7077.78
453.55	7348.11
453.76	7186.32
453.97	7573.39
454.18	7294.86
454.39	7395.22
454.60	7503.76
454.81	7442.32
455.01	7638.92
455.22	7331.73
455.43	7450.51
455.64	7651.21
455.85	7767.95
456.06	7772.04
456.27	7655.31
456.48	7677.83
456.68	7798.66
456.89	7784.33
457.10	7987.08
457.31	8001.41
457.52	8028.04
457.73	7864.20
457.94	8138.63
458.14	7913.35
458.35	8265.60
458.56	8069.00
458.77	7972.74
458.98	8310.66
459.19	8343.42
459.39	8439.68
459.60	8435.58
459.81	8388.48
460.02	8517.50
460.23	8474.49
460.44	8654.72
460.65	8652.67
460.85	8576.89
461.06	8734.59
461.27	8515.45
461.48	8771.45
461.69	8916.86
461.89	8677.24
462.10	8841.08
462.31	8765.31
462.52	8664.96
462.73	8724.35
462.94	9021.30
463.14	9004.92
463.35	8830.84
463.56	9334.64
463.77	9359.22
463.98	9148.28
464.18	9322.35
464.39	9416.56
464.60	9455.47
464.81	9490.29
465.02	9344.88
465.23	9791.34
465.43	9441.14
465.64	9678.70
465.85	9643.88
466.06	9715.56
466.27	9957.22
466.47	9928.55
466.68	9869.16
466.89	9863.02
467.10	10106.73
467.30	9840.49
467.51	9949.03
467.72	10264.42
467.93	10129.25
468.14	10303.33
468.34	10415.97
468.55	10401.63
468.76	10368.87
468.97	10293.09
469.17	10526.56
469.38	10780.51
469.59	10921.82
469.80	10569.57
470.01	10786.65
470.21	10813.28
470.42	11050.84
470.63	11212.63
470.84	10899.29
471.04	11091.80
471.25	11224.92
471.46	10993.50
471.67	11611.98
471.87	11349.84
472.08	11542.35
472.29	11722.57
472.50	11544.40
472.70	11468.62
472.91	11595.60
473.12	11716.43
473.33	11693.90
473.53	12097.35
473.74	11876.17
473.95	12324.68
474.16	12171.08
474.36	12349.25
474.57	12353.35
474.78	12545.86
474.99	12453.70
475.19	12533.57
475.40	12902.20
475.61	12668.73
475.81	12812.09
476.02	13166.39
476.23	12967.74
476.44	12965.69
476.64	13338.42
476.85	13350.71
477.06	13305.65
477.27	13532.98
477.47	13678.38
477.68	13764.40
477.89	13680.43
478.09	13637.42
478.30	14075.69
478.51	13997.87
478.71	14096.17
478.92	14376.74
479.13	14192.42
479.34	14454.56
479.54	14360.36
479.75	14499.62
479.96	14440.23
480.16	14661.41
480.37	14769.95
480.58	14948.12
480.78	15197.98
480.99	14923.55
481.20	15206.17
481.41	15415.06
481.61	15324.95
481.82	15542.03
482.03	15433.49
482.23	15578.90
482.44	15499.03
482.65	15724.30
482.85	15996.68
483.06	16158.47
483.27	16148.23
483.47	16019.21
483.68	16269.06
483.89	16183.05
484.09	16455.43
484.30	16641.79
484.51	16838.40
484.71	16553.73
484.92	16647.94
485.13	16740.10
485.33	17010.43
485.54	16973.56
485.75	17147.64
485.95	17131.26
486.16	17321.72
486.37	17520.37
486.57	17190.65
486.78	17483.51
486.98	17846.00
487.19	17628.92
487.40	17721.07
487.60	17909.49
487.81	17850.10
488.02	17848.05
488.22	18177.77
488.43	18163.43
488.64	18212.59
488.84	18675.43
489.05	18622.18
489.25	18472.68
489.46	18745.06
489.67	18499.30
489.87	19107.55
490.08	19025.63
490.29	19058.40
490.49	19472.09
490.70	19508.95
490.90	19549.91
491.11	19074.78
491.32	19685.08
491.52	19535.57
491.73	19838.67
491.94	19846.87
492.14	19627.73
492.35	19785.43
492.55	20047.57
492.76	20115.15
492.97	20360.91
493.17	20242.12
493.38	20514.50
493.58	20217.55
493.79	20670.15
494.00	20813.51
494.20	20508.36
494.41	20876.99
494.61	20811.46
494.82	21337.79
495.02	20829.89
495.23	21329.59
495.44	21438.14
495.64	21249.72
495.85	21401.27
496.05	21423.80
496.26	21638.84
496.47	21771.96
496.67	21612.21
496.88	22032.05
497.08	21638.84
497.29	22181.55
497.49	21737.14
497.70	22257.32
497.91	22216.36
498.11	22216.36
498.32	22423.21
498.52	22435.50
498.73	22466.22
498.93	22468.27
499.14	22613.67
499.34	22681.25
499.55	22924.96
499.76	22568.62
499.96	22972.07
500.17	22881.95
500.37	22757.03
500.58	23074.46
500.78	23402.14
500.99	23029.41
501.19	23619.22
501.40	23086.75
501.60	23332.51
501.81	23623.32
502.02	23574.17
502.22	23293.60
502.43	23705.24
502.63	23895.70
502.84	23869.08
503.04	23879.32
503.25	23895.70
503.45	24202.89
503.66	24172.18
503.86	24213.13
504.07	24311.44
504.27	24172.18
504.48	24536.71
504.68	24536.71
504.89	24714.89
505.09	24819.33
505.30	24704.65
505.50	24499.85
505.71	24856.20
505.91	25179.78
506.12	25056.90
506.32	24886.92
506.53	25134.72
506.73	24981.12
506.94	25327.23
507.14	25521.79
507.35	25392.76
507.55	25527.93
507.76	25452.16
507.96	25415.29
508.17	25523.83
508.37	25572.99
508.58	25734.78
508.78	25734.78
508.99	26082.93
509.19	26039.92
509.40	25835.13
509.60	25831.03
509.81	26019.44
510.01	26025.59
510.22	26232.43
510.42	26328.69
510.63	26453.61
510.83	26308.21
511.04	26556.01
511.24	26447.47
511.44	26445.42
511.65	26568.30
511.85	26519.15
512.06	26443.37
512.26	26855.01
512.47	26932.84
512.67	27012.71
512.88	26756.71
513.08	26793.58
513.29	26838.63
513.49	26924.65
513.69	27090.53
513.90	27260.51
514.10	27305.57
514.31	27223.65
514.51	27156.07
514.72	27287.14
514.92	27264.61
515.13	27264.61
515.33	27514.46
515.53	27588.19
515.74	27207.26
515.94	27754.07
516.15	27848.28
516.35	27485.79
516.56	27594.33
516.76	27764.31
516.96	27659.87
517.17	28081.75
517.37	27872.85
517.58	28214.87
517.78	28509.77
517.99	28071.51
518.19	28673.61
518.39	28388.94
518.60	28360.27
518.80	28268.11
519.01	28663.37
519.21	28769.86
519.41	28624.46
519.62	28573.26
519.82	28808.78
520.03	28839.50
520.23	28964.42
520.43	28720.71
520.64	29103.68
520.84	29265.47
521.05	29197.89
521.25	29544.00
521.45	29400.64
521.66	29355.58
521.86	29486.65
522.07	29412.93
522.27	29511.23
522.47	29560.38
522.68	29687.36
522.88	29982.26
523.08	30256.69
523.29	30123.57
523.49	30107.19
523.70	30017.08
523.90	30213.68
524.10	30121.52
524.31	30492.21
524.51	30377.52
524.71	30565.93
524.92	30680.62
525.12	30826.03
525.33	30572.08
525.53	30801.45
525.73	30801.45
525.94	31159.84
526.14	31325.73
526.34	31356.45
526.55	31499.81
526.75	31643.17
526.95	31766.04
527.16	31292.96
527.36	31594.01
527.56	31778.33
527.77	31864.35
527.97	31938.07
528.17	31751.71
528.38	32218.64
528.58	32368.15
528.78	32267.80
528.99	32046.62
529.19	32585.23
529.39	31915.54
529.60	32769.55
529.80	32462.35
530.00	32740.88
530.21	32968.20
530.41	33152.52
530.61	32581.13
530.82	33097.22
531.02	33005.06
531.22	32996.87
531.43	33363.46
531.63	33201.67
531.83	33416.71
532.04	34037.24
532.24	33621.50
532.44	33756.67
532.64	34176.50
532.85	33971.71
533.05	33803.77
533.25	34149.88
533.46	34043.38
533.66	34559.47
533.86	34063.86
534.07	34645.49
534.27	34799.08
534.47	34897.39
534.67	34821.61
534.88	34612.72
535.08	34780.65
535.28	35143.14
535.49	34878.96
535.69	35587.55
535.89	35712.48
536.09	35417.57
536.30	35599.84
536.50	35624.42
536.70	35855.84
536.91	35626.46
537.11	35810.78
537.31	35966.43
537.51	36070.87
537.72	36394.45
537.92	36312.53
538.12	36447.70
538.32	36148.70
538.53	36521.43
538.73	36306.39
538.93	36609.49
539.13	36812.24
539.34	36482.52
539.54	36808.14
539.74	37402.05
539.94	37123.53
540.15	36484.56
540.35	37115.34
540.55	37211.59
540.75	37307.85
540.96	37479.88
541.16	37189.06
541.36	37496.26
541.56	37778.88
541.77	37934.53
541.97	37868.99
542.17	37934.53
542.37	38028.73
542.58	37590.47
542.78	38200.76
542.98	37891.52
543.18	38268.34
543.38	38473.14
543.59	38761.90
543.79	38340.02
543.99	37930.43
544.19	38542.77
544.40	38340.02
544.60	38743.47
544.80	38688.18
545.00	38964.65
545.20	39314.86
545.41	39022.00
545.61	39077.29
545.81	39148.97
546.01	39060.91
546.21	39425.45
546.42	39495.08
546.62	39302.57
546.82	39486.89
547.02	39249.32
547.22	39769.51
547.43	39370.15
547.63	39830.94
547.83	39837.09
548.03	39142.83
548.23	39538.08
548.44	39624.10
548.64	39806.37
548.84	40261.02
549.04	39767.46
549.24	40031.65
549.45	40127.90
549.65	40175.00
549.85	40154.52
550.05	40582.55
550.25	40207.77
550.45	40994.19
550.66	40533.40
550.86	40275.35
551.06	40830.35
551.26	40795.54
551.46	40754.58
551.66	40570.26
551.87	40478.10
552.07	40807.83
552.27	40525.21
552.47	40977.81
552.67	41129.36
552.87	40895.89
553.07	41586.05
553.28	41100.68
553.48	41696.64
553.68	41020.81
553.88	41362.82
554.08	41596.29
554.28	41014.67
554.48	41235.85
554.69	41543.05
554.89	41778.56
555.09	41534.85
555.29	41364.87
555.49	41690.50
555.69	41528.71
555.89	41835.91
556.10	41960.83
556.30	41860.48
556.50	42048.89
556.70	41663.88
556.90	41993.60
557.10	42161.53
557.30	41878.91
557.50	42378.62
557.70	42358.14
557.91	42386.81
558.11	42038.65
558.31	42472.82
558.51	42407.29
558.71	42458.49
558.91	42667.38
559.11	42579.32
559.31	42540.41
559.51	42001.79
559.72	42577.27
559.92	42745.20
560.12	42317.18
560.32	42618.23
560.52	42691.96
560.72	42870.13
560.92	42714.48
561.12	42898.80
561.32	42943.86
561.52	42833.27
561.72	43001.20
561.93	42722.68
562.13	42984.82
562.33	42751.35
562.53	43341.16
562.73	42704.24
562.93	42831.22
563.13	43150.70
563.33	42888.56
563.53	43169.13
563.73	43246.96
563.93	43668.84
564.13	43529.58
564.33	43699.56
564.53	43488.62
564.74	43967.84
564.94	43416.94
565.14	43601.25
565.34	42952.05
565.54	43537.77
565.74	43767.14
565.94	43857.25
566.14	43750.76
566.34	43720.04
566.54	44207.45
566.74	43464.04
566.94	43828.58
567.14	43980.13
567.34	43791.72
567.54	44025.18
567.74	43867.49
567.94	43943.27
568.14	44006.75
568.34	44782.93
568.54	44533.08
568.74	44172.64
568.94	44326.24
569.14	44653.91
569.34	44668.25
569.54	44586.33
569.75	44129.63
569.95	44535.13
570.15	44954.96
570.35	44559.70
570.55	44705.11
570.75	44590.42
570.95	44854.61
571.15	44629.34
571.35	44578.14
571.55	44948.82
571.75	44989.78
571.95	45131.09
572.15	44701.01
572.35	45102.42
572.55	45227.34
572.75	45278.54
572.95	45065.55
573.15	45413.71
573.35	45268.30
573.55	45112.66
573.75	45002.07
573.95	45708.61
574.15	45221.20
574.35	45256.01
574.55	45299.02
574.75	45258.06
574.95	45430.09
575.15	45503.82
575.34	45475.15
575.54	46005.57
575.74	45954.37
575.94	46193.98
576.14	45733.19
576.34	45856.07
576.54	46290.24
576.74	45884.74
576.94	45958.47
577.14	45972.80
577.34	46363.96
577.54	46120.26
577.74	46466.36
577.94	46394.68
578.14	46472.51
578.34	46130.50
578.54	45976.90
578.74	46882.10
578.94	46667.06
579.14	46351.68
579.34	46128.45
579.54	46662.97
579.74	47144.24
579.94	46941.49
580.13	46894.39
580.33	46656.82
580.53	47228.21
580.73	47154.48
580.93	47232.30
581.13	47029.55
581.33	47463.72
581.53	47248.69
581.73	47306.03
581.93	47582.51
582.13	47289.65
582.33	47580.46
582.53	47168.82
582.73	47363.37
582.92	47645.99
583.12	47863.08
583.32	48084.26
583.52	47496.49
583.72	47934.76
583.92	47824.17
584.12	47844.65
584.32	48418.08
584.52	47844.65
584.72	48168.22
584.92	48379.17
585.11	48508.19
585.31	48131.36
585.51	48401.69
585.71	48461.08
585.91	48633.11
586.11	48190.75
586.31	48784.66
586.51	48530.72
586.71	48493.85
586.91	48672.03
587.10	48835.86
587.30	49110.29
587.50	49118.48
587.70	48737.56
587.90	48815.38
588.10	48870.68
588.30	49001.75
588.50	49337.62
