SpectraSuite Data File
++++++++++++++++++++++++++++++++++++
Date: Fri Jun 02 14:51:09 CEST 2017
User: INFO_000
Dark Spectrum Present: No
Reference Spectrum Present: No
Number of Sampled Component Spectra: 1
Spectrometers: USB4H00879
Integration Time (usec): 80000 (USB4H00879)
Spectra Averaged: 1 (USB4H00879)
Boxcar Smoothing: 0 (USB4H00879)
Correct for Electrical Dark: No (USB4H00879)
Strobe/Lamp Enabled: No (USB4H00879)
Correct for Detector Non-linearity: No (USB4H00879)
Correct for Stray Light: No (USB4H00879)
Number of Pixels in Processed Spectrum: 3648
>>>>>Begin Processed Spectral Data<<<<<
345.13	1257.45
345.34	1257.45
345.56	1257.45
345.78	1296.36
345.99	1294.32
346.21	1732.58
346.42	1728.49
346.64	1607.66
346.86	1761.25
347.07	1665.00
347.29	1712.10
347.50	1642.47
347.72	1650.66
347.94	1724.39
348.15	1546.22
348.37	1656.81
348.59	1734.63
348.80	1718.25
349.02	1701.86
349.23	1984.48
349.45	1771.49
349.67	1886.18
349.88	1824.74
350.10	1961.95
350.31	1882.08
350.53	1810.40
350.75	1927.14
350.96	1804.26
351.18	1853.41
351.39	1828.84
351.61	1830.88
351.82	1880.04
352.04	1906.66
352.26	1863.65
352.47	1923.04
352.69	1890.28
352.90	1710.05
353.12	1798.12
353.34	1843.17
353.55	1882.08
353.77	1880.04
353.98	1906.66
354.20	1773.54
354.41	1918.95
354.63	1843.17
354.85	2023.39
355.06	1841.12
355.28	1834.98
355.49	1880.04
355.71	1943.52
355.92	1896.42
356.14	1896.42
356.35	1951.71
356.57	1839.08
356.79	1857.51
357.00	1884.13
357.22	1955.81
357.43	1787.88
357.65	2025.44
357.86	1853.41
358.08	1857.51
358.29	1882.08
358.51	2000.87
358.72	1933.28
358.94	1873.89
359.16	1863.65
359.37	1898.47
359.59	1904.61
359.80	1941.47
360.02	1910.75
360.23	1988.58
360.45	1994.72
360.66	1896.42
360.88	1929.19
361.09	1877.99
361.31	1933.28
361.52	1957.86
361.74	2056.16
361.95	2011.11
362.17	1978.34
362.38	2041.82
362.60	2019.30
362.81	1959.91
363.03	1857.51
363.24	1951.71
363.46	2039.78
363.67	1996.77
363.89	2013.15
364.10	1978.34
364.32	1916.90
364.53	2033.63
364.75	1898.47
364.96	2064.35
365.18	1976.29
365.39	2015.20
365.61	1988.58
365.82	2109.41
366.04	1986.53
366.25	1955.81
366.47	2138.08
366.68	1996.77
366.90	1970.15
367.11	2011.11
367.33	2000.87
367.54	2088.93
367.76	1937.38
367.97	2007.01
368.19	2080.74
368.40	2084.83
368.62	1988.58
368.83	1966.05
369.05	1996.77
369.26	2015.20
369.48	1974.24
369.69	1933.28
369.91	2011.11
370.12	2021.35
370.33	2105.31
370.55	1966.05
370.76	2037.73
370.98	2058.21
371.19	1984.48
371.41	1978.34
371.62	2017.25
371.84	2076.64
372.05	2199.52
372.27	2033.63
372.48	2037.73
372.69	1976.29
372.91	2148.32
373.12	2119.65
373.34	2015.20
373.55	2082.78
373.77	2119.65
373.98	2019.30
374.20	2013.15
374.41	2252.77
374.62	2207.71
374.84	2179.04
375.05	2232.29
375.27	2201.57
375.48	2152.42
375.70	2236.38
375.91	2174.94
376.12	2197.47
376.34	2115.55
376.55	2148.32
376.77	2150.37
376.98	2023.39
377.19	2088.93
377.41	2103.26
377.62	2179.04
377.84	2156.51
378.05	2283.49
378.27	2078.69
378.48	2351.07
378.69	2459.61
378.91	2224.09
379.12	2179.04
379.34	2131.94
379.55	2314.20
379.76	2195.42
379.98	2195.42
380.19	2176.99
380.41	2287.58
380.62	2234.33
380.83	2222.05
381.05	2248.67
381.26	2322.40
381.47	2236.38
381.69	2181.09
381.90	2396.12
382.12	2310.11
382.33	2344.92
382.54	2275.29
382.76	2260.96
382.97	2258.91
383.19	2269.15
383.40	2422.75
383.61	2254.81
383.83	2224.09
384.04	2230.24
384.25	2373.60
384.47	2363.36
384.68	2344.92
384.89	2265.05
385.11	2312.16
385.32	2342.88
385.54	2361.31
385.75	2369.50
385.96	2389.98
386.18	2412.51
386.39	2447.32
386.60	2371.55
386.82	2306.01
387.03	2349.02
387.24	2432.99
387.46	2344.92
387.67	2389.98
387.88	2441.18
388.10	2412.51
388.31	2437.08
388.52	2531.29
388.74	2492.38
388.95	2527.19
389.16	2432.99
389.38	2473.95
389.59	2519.00
389.80	2529.24
390.02	2486.23
390.23	2590.68
390.44	2543.58
390.66	2420.70
390.87	2510.81
391.08	2510.81
391.30	2576.34
391.51	2619.35
391.72	2678.74
391.94	2605.02
392.15	2637.78
392.36	2525.15
392.58	2486.23
392.79	2615.26
393.00	2688.98
393.22	2639.83
393.43	2648.02
393.64	2664.41
393.85	2654.17
394.07	2598.87
394.28	2791.38
394.49	2701.27
394.71	2691.03
394.92	2785.24
395.13	2590.68
395.35	2678.74
395.56	2629.59
395.77	2766.81
395.98	2807.77
396.20	2815.96
396.41	2781.14
396.62	2846.68
396.84	2736.09
397.05	2772.95
397.26	2813.91
397.47	2893.78
397.69	2789.33
397.90	2924.50
398.11	2811.86
398.32	2711.51
398.54	2754.52
398.75	2750.42
398.96	2736.09
399.18	2949.08
399.39	2828.24
399.60	3004.37
399.81	2838.48
400.03	2777.05
400.24	3117.01
400.45	2822.10
400.66	2963.41
400.88	2885.59
401.09	3088.34
401.30	2918.36
401.51	2967.51
401.73	3084.24
401.94	2977.75
402.15	3076.05
402.36	3082.19
402.58	3096.53
402.79	3059.67
403.00	3006.42
403.21	3106.77
403.43	3071.95
403.64	3149.78
403.85	3020.75
404.06	3119.06
404.27	3018.71
404.49	3125.20
404.70	3030.99
404.91	3145.68
405.12	3100.62
405.34	3141.58
405.55	3389.39
405.76	3067.86
405.97	3108.82
406.19	3254.22
406.40	3139.54
406.61	3223.50
406.82	3280.85
407.03	3219.41
407.25	3168.21
407.46	3305.42
407.67	3350.48
407.88	3399.63
408.09	3272.65
408.31	3229.65
408.52	3354.57
408.73	3229.65
408.94	3317.71
409.15	3338.19
409.37	3338.19
409.58	3461.07
409.79	3450.83
410.00	3485.64
410.21	3420.11
410.43	3342.28
410.64	3262.41
410.85	3467.21
411.06	3393.48
411.27	3497.93
411.48	3438.54
411.70	3479.50
411.91	3479.50
412.12	3577.80
412.33	3512.27
412.54	3573.71
412.76	3563.47
412.97	3551.18
413.18	3411.92
413.39	3518.41
413.60	3581.90
413.81	3674.06
414.03	3696.58
414.24	3549.13
414.45	3684.30
414.66	3456.97
414.87	3680.20
415.08	3647.43
415.30	3532.75
415.51	3694.54
415.72	3614.66
415.93	3637.19
416.14	3745.73
416.35	3790.79
416.56	3768.26
416.78	3641.29
416.99	3854.28
417.20	3770.31
417.41	3803.08
417.62	3911.62
417.83	3893.19
418.04	3809.22
418.26	3958.72
418.47	3846.09
418.68	3891.14
418.89	3862.47
419.10	4054.98
419.31	3934.15
419.52	3983.30
419.73	3850.18
419.95	4179.90
420.16	3878.85
420.37	3946.44
420.58	3981.25
420.79	3917.76
421.00	4030.40
421.21	3973.06
421.42	3993.54
421.63	4024.26
421.85	4063.17
422.06	4069.31
422.27	3946.44
422.48	4114.37
422.69	4122.56
422.90	4059.07
423.11	4184.00
423.32	4194.24
423.53	4186.05
423.75	4161.47
423.96	4409.28
424.17	4147.14
424.38	4382.65
424.59	4337.60
424.80	4478.91
425.01	4251.58
425.22	4435.90
425.43	4370.37
425.64	4638.65
425.85	4460.48
426.06	4440.00
426.28	4464.57
426.49	4386.75
426.70	4499.39
426.91	4431.80
427.12	4489.15
427.33	4493.24
427.54	4560.83
427.75	4573.11
427.96	4556.73
428.17	4614.07
428.38	4677.56
428.59	4728.76
428.80	4626.36
429.01	4671.42
429.23	4616.12
429.44	4827.06
429.65	4724.66
429.86	4892.60
430.07	4642.75
430.28	4804.53
430.49	4779.96
430.70	4913.08
430.91	5017.52
431.12	4779.96
431.33	4980.66
431.54	5025.72
431.75	4990.90
431.96	4902.84
432.17	4876.21
432.38	4978.61
432.59	5023.67
432.80	5017.52
433.01	4990.90
433.22	5173.17
433.43	5003.19
433.64	4992.95
433.85	5015.48
434.06	5058.48
434.27	5054.39
434.49	5154.74
434.70	5304.24
434.91	5175.22
435.12	5373.87
435.33	5205.94
435.54	5066.67
435.75	5093.30
435.96	5216.18
436.17	5050.29
436.38	5341.10
436.59	5386.16
436.80	5291.95
437.01	5554.09
437.22	5384.11
437.43	5566.38
437.64	5267.38
437.85	5504.94
438.06	5513.13
438.27	5361.58
438.48	5361.58
438.69	5537.71
438.90	5486.51
439.11	5394.35
439.32	5502.89
439.53	5570.48
439.74	5558.19
439.95	5550.00
440.16	5703.59
440.37	5515.18
440.57	5441.45
440.78	5767.08
440.99	5640.11
441.20	5736.36
441.41	5633.96
441.62	5765.03
441.83	5582.76
442.04	5863.33
442.25	5746.60
442.46	5824.42
442.67	5855.14
442.88	6274.98
443.09	5652.39
443.30	5937.06
443.51	5822.38
443.72	6084.52
443.93	5859.24
444.14	6160.29
444.35	5824.42
444.56	6160.29
444.77	5988.26
444.98	6096.80
445.19	6254.50
445.40	5992.36
445.61	6102.95
445.81	6066.08
446.02	6102.95
446.23	6182.82
446.44	6094.76
446.65	6236.06
446.86	6322.08
447.07	6346.66
447.28	6367.13
447.49	6395.81
447.70	6379.42
447.91	6395.81
448.12	6283.17
448.33	6504.35
448.54	6657.95
448.74	6487.96
448.95	6563.74
449.16	6496.16
449.37	6748.06
449.58	6584.22
449.79	6809.50
450.00	6500.25
450.21	6594.46
450.42	6746.01
450.63	6684.57
450.84	6682.52
451.05	6762.39
451.25	6877.08
451.46	6737.82
451.67	6915.99
451.88	6924.18
452.09	6834.07
452.30	6825.88
452.51	6975.38
452.72	7049.11
452.93	7161.75
453.13	6918.04
453.34	6985.62
453.55	7104.40
453.76	7249.81
453.97	7450.51
454.18	7118.74
454.39	7264.15
454.60	7192.47
454.81	7217.04
455.01	7477.13
455.22	7225.23
455.43	7540.62
455.64	7653.26
455.85	7712.65
456.06	7731.08
456.27	7602.06
456.48	7647.12
456.68	7669.64
456.89	7780.23
457.10	7735.18
457.31	7901.06
457.52	7806.86
457.73	7915.40
457.94	8085.38
458.14	7909.26
458.35	8187.78
458.56	8048.52
458.77	7769.99
458.98	8146.82
459.19	8189.83
459.39	8273.79
459.60	8333.18
459.81	8148.87
460.02	8419.20
460.23	8171.40
460.44	8533.89
460.65	8365.95
460.85	8474.49
461.06	8429.44
461.27	8327.04
461.48	8757.11
461.69	8830.84
461.89	8361.86
462.10	8720.25
462.31	8480.64
462.52	8699.77
462.73	8587.13
462.94	8851.32
463.14	8890.23
463.35	9023.35
463.56	9394.03
463.77	9277.30
463.98	8992.63
464.18	9121.65
464.39	9265.01
464.60	9428.85
464.81	9367.41
465.02	9312.11
465.23	9703.28
465.43	9217.91
465.64	9488.24
465.85	9594.73
466.06	9396.08
466.27	9742.19
466.47	9686.89
466.68	9744.24
466.89	9809.77
467.10	9994.09
467.30	9670.51
467.51	10035.05
467.72	10162.02
467.93	9936.74
468.14	10006.38
468.34	10223.46
468.55	10166.12
468.76	10237.80
468.97	10145.64
469.17	10479.46
469.38	10504.03
469.59	10399.59
469.80	10391.39
470.01	10463.07
470.21	10596.19
470.42	10596.19
470.63	10727.26
470.84	10694.49
471.04	10837.85
471.25	10952.54
471.46	10970.97
471.67	11235.16
471.87	11102.04
472.08	11229.01
472.29	11249.49
472.50	11046.74
472.70	11480.91
472.91	11188.05
473.12	11515.73
473.33	11732.81
473.53	11495.25
473.74	11591.50
473.95	11884.36
474.16	11947.85
474.36	12040.01
474.57	12087.11
474.78	11904.84
474.99	11958.09
475.19	11941.71
475.40	12351.30
475.61	12427.07
475.81	12341.06
476.02	12758.85
476.23	12529.47
476.44	12898.11
476.64	12816.19
476.85	13000.51
477.06	12869.44
477.27	13025.08
477.47	12844.86
477.68	13055.80
477.89	13238.07
478.09	13274.93
478.30	13139.77
478.51	13254.45
478.71	13422.39
478.92	13571.89
479.13	13563.70
479.34	13965.10
479.54	13733.68
479.75	13883.18
479.96	13903.66
480.16	14049.07
480.37	14069.55
480.58	14395.17
480.78	14575.39
480.99	14397.22
481.20	14741.28
481.41	14421.80
481.61	14743.33
481.82	14733.09
482.03	14712.61
482.23	14692.13
482.44	14765.85
482.65	15173.40
482.85	15159.06
483.06	14987.04
483.27	15316.76
483.47	15300.37
483.68	15277.85
483.89	15408.92
484.09	15539.99
484.30	15529.75
484.51	15595.28
484.71	15853.33
484.92	15865.61
485.13	16004.88
485.33	15976.20
485.54	16068.36
485.75	16273.16
485.95	16393.99
486.16	16373.51
486.37	16758.53
486.57	16711.42
486.78	16441.09
486.98	16807.68
487.19	16873.21
487.40	17010.43
487.60	16989.95
487.81	17135.35
488.02	17051.39
488.22	17288.95
488.43	17311.48
488.64	17379.06
488.84	17536.76
489.05	17514.23
489.25	17647.35
489.46	17753.84
489.67	17958.64
489.87	17886.96
490.08	18018.03
490.29	17938.16
490.49	18423.53
490.70	18446.05
490.90	18695.91
491.11	18370.28
491.32	18511.59
491.52	18421.48
491.73	18767.59
491.94	18554.60
492.14	18743.01
492.35	18874.08
492.55	19074.78
492.76	19017.44
492.97	19168.99
493.17	19205.85
493.38	19271.39
493.58	19238.62
493.79	19523.29
494.00	19525.33
494.20	19572.44
494.41	19896.02
494.61	19996.37
494.82	19801.81
495.02	19685.08
495.23	20113.10
495.44	20221.64
495.64	20369.10
495.85	20190.92
496.05	20506.31
496.26	20391.62
496.47	20778.69
496.67	20604.61
496.88	20889.28
497.08	20424.39
497.29	21061.31
497.49	20977.34
497.70	21206.72
497.91	21288.64
498.11	21403.32
498.32	21382.84
498.52	21622.45
498.73	21616.31
498.93	21739.19
499.14	21804.72
499.34	21907.12
499.55	22128.30
499.76	21765.81
499.96	21954.22
500.17	22329.00
500.37	22341.29
500.58	22445.74
500.78	22433.45
500.99	22666.92
501.19	22656.68
501.40	22435.50
501.60	22423.21
501.81	22470.31
502.02	22711.97
502.22	22560.42
502.43	22953.63
502.63	23053.98
502.84	23389.85
503.04	23236.25
503.25	23056.03
503.45	23434.91
503.66	23582.36
503.86	23611.03
504.07	23938.71
504.27	23299.74
504.48	23750.29
504.68	23733.91
504.89	24233.61
505.09	23910.04
505.30	23836.31
505.50	24411.79
505.71	23965.33
505.91	24452.75
506.12	24055.44
506.32	23987.86
506.53	24565.39
506.73	24469.13
506.94	24493.71
507.14	24837.76
507.35	24868.48
507.55	24729.22
507.76	25138.82
507.96	24829.57
508.17	25040.51
508.37	25056.90
508.58	25329.28
508.78	25187.97
508.99	25421.44
509.19	25224.83
509.40	25448.06
509.60	25411.20
509.81	25325.18
510.01	25480.83
510.22	25659.00
510.42	25611.90
510.63	25761.40
510.83	25912.95
511.04	25826.93
511.24	26191.47
511.44	26132.08
511.65	25953.91
511.85	26119.79
512.06	26422.89
512.26	26150.51
512.47	26261.10
512.67	26179.18
512.88	26400.37
513.08	26111.60
513.29	26586.73
513.49	26805.86
513.69	26562.15
513.90	26562.15
514.10	26756.71
514.31	26592.87
514.51	26891.88
514.72	26807.91
514.92	26852.97
515.13	26963.56
515.33	27209.31
515.53	27170.40
515.74	27436.64
515.94	27627.10
516.15	27338.33
516.35	27137.63
516.56	27485.79
516.76	27334.24
516.96	27340.38
517.17	27883.09
517.37	27620.95
517.58	27725.40
517.78	27620.95
517.99	27741.78
518.19	28206.67
518.39	27838.04
518.60	28018.26
518.80	27776.60
519.01	28300.88
519.21	27942.49
519.41	28231.25
519.62	28079.70
519.82	28544.59
520.03	28585.55
520.23	28659.27
520.43	28466.77
520.64	28759.63
520.84	28573.26
521.05	28634.70
521.25	29128.26
521.45	28917.32
521.66	29034.05
521.86	28757.58
522.07	29083.20
522.27	29152.84
522.47	29206.08
522.68	29177.41
522.88	29380.16
523.08	29627.96
523.29	29548.09
523.49	29474.37
523.70	29713.98
523.90	29779.51
524.10	29492.80
524.31	29769.27
524.51	29572.67
524.71	30176.82
524.92	29935.16
525.12	30354.99
525.33	29890.10
525.53	30197.30
525.73	30379.57
525.94	30389.81
526.14	30264.88
526.34	30213.68
526.55	30770.73
526.75	30293.55
526.95	30783.02
527.16	31006.25
527.36	30776.87
527.56	31229.48
527.77	31190.56
527.97	30776.87
528.17	31092.26
528.38	31303.20
528.58	31268.39
528.78	31419.94
528.99	31211.04
529.19	31514.14
529.39	31184.42
529.60	31368.74
529.80	31737.37
530.00	31295.01
530.21	31909.40
530.41	31933.98
530.61	31434.27
530.82	32159.25
531.02	31991.32
531.22	32015.90
531.43	32196.12
531.63	32433.68
531.83	32693.77
532.04	32675.34
532.24	32390.67
532.44	32830.99
532.64	32974.34
532.85	32904.71
533.05	32534.03
533.25	32785.93
533.46	32892.43
533.66	33441.28
533.86	33187.33
534.07	33269.25
534.27	33334.79
534.47	33494.53
534.67	33768.96
534.88	33230.34
535.08	33654.27
535.28	33484.29
535.49	33834.49
535.69	34029.05
535.89	33820.16
536.09	33844.73
536.30	34045.43
536.50	34303.48
536.70	34295.28
536.91	34489.84
537.11	34608.62
537.31	34285.04
537.51	34682.35
537.72	34743.79
537.92	34786.80
538.12	35036.65
538.32	34995.69
538.53	35063.27
538.73	34651.63
538.93	34641.39
539.13	34768.37
539.34	35089.90
539.54	34960.87
539.74	35323.36
539.94	34926.06
540.15	35134.95
540.35	35374.56
540.55	35814.88
540.75	35431.91
540.96	35548.64
541.16	35444.20
541.36	35620.32
541.56	35655.14
541.77	35886.56
541.97	35870.17
542.17	35673.57
542.37	36036.06
542.58	35945.95
542.78	35755.49
542.98	36179.42
543.18	36038.11
543.38	36400.60
543.59	36672.98
543.79	36390.36
543.99	36330.97
544.19	36285.91
544.40	36224.47
544.60	36758.99
544.80	36279.77
545.00	36634.06
545.20	36875.73
545.41	37107.15
545.61	36650.45
545.81	36881.87
546.01	36904.40
546.21	36726.22
546.42	36916.68
546.62	37080.52
546.82	36992.46
547.02	36926.92
547.22	37361.09
547.43	36963.79
547.63	37168.58
547.83	37529.03
548.03	36994.51
548.23	37957.05
548.44	37684.67
548.64	37680.58
548.84	37584.32
549.04	37733.82
549.24	37746.11
549.45	38022.59
549.65	37598.66
549.85	37891.52
550.05	37928.38
550.25	37959.10
550.45	38657.46
550.66	38051.26
550.86	38000.06
551.06	38395.32
551.26	38544.82
551.46	38542.77
551.66	38419.89
551.87	37940.67
552.07	38434.23
552.27	38358.45
552.47	38759.86
552.67	38866.35
552.87	38573.49
553.07	38942.13
553.28	38933.93
553.48	39091.63
553.68	38929.84
553.88	38962.61
554.08	39132.59
554.28	38819.25
554.48	39304.62
554.69	39321.00
554.89	39083.44
555.09	38950.32
555.29	39167.40
555.49	39366.06
555.69	39318.95
555.89	39493.03
556.10	39634.34
556.30	39001.52
556.50	39341.48
556.70	39607.72
556.90	39957.92
557.10	40074.65
557.30	39544.23
557.50	40015.26
557.70	39894.43
557.91	40244.63
558.11	40033.69
558.31	40179.10
558.51	39886.24
558.71	40134.04
558.91	40674.71
559.11	40209.82
559.31	40189.34
559.51	40019.36
559.72	40226.20
559.92	40713.62
560.12	40387.99
560.32	40512.92
560.52	40322.46
560.72	40387.99
560.92	40670.61
561.12	41004.43
561.32	41362.82
561.52	40643.99
561.72	40668.56
561.93	40566.16
562.13	41104.78
562.33	40912.27
562.53	41489.80
562.73	40764.82
562.93	41278.86
563.13	41278.86
563.33	41475.46
563.53	41385.35
563.73	41178.51
563.93	41616.77
564.13	41729.41
564.33	41870.72
564.53	41743.75
564.74	41725.32
564.94	41702.79
565.14	41729.41
565.34	41770.37
565.54	41729.41
565.74	42179.96
565.94	42005.89
566.14	41680.26
566.34	41815.43
566.54	42227.07
566.74	41993.60
566.94	42243.45
567.14	42286.46
567.34	42126.72
567.54	42501.50
567.74	41842.05
567.94	42820.98
568.14	42683.76
568.34	43115.89
568.54	42694.00
568.74	42595.70
568.94	42376.57
569.14	43019.63
569.34	43335.02
569.54	42827.12
569.75	42915.19
569.95	43130.22
570.15	43609.45
570.35	43607.40
570.55	43275.63
570.75	42984.82
570.95	43570.54
571.15	43533.67
571.35	43361.64
571.55	43613.54
571.75	43777.38
571.95	43591.01
572.15	43732.32
572.35	43615.59
572.55	43982.18
572.75	43754.85
572.95	43787.62
573.15	44377.43
573.35	43861.35
573.55	43789.67
573.75	44152.16
573.95	44322.14
574.15	44035.42
574.35	44348.76
574.55	44385.63
574.75	43914.59
574.95	44475.74
575.15	44170.59
575.34	44612.95
575.54	44868.95
575.74	44696.92
575.94	44662.10
576.14	44893.52
576.34	45057.36
576.54	45284.68
576.74	44991.83
576.94	45026.64
577.14	45038.93
577.34	46069.06
577.54	44598.62
577.74	45471.05
577.94	45092.18
578.14	45299.02
578.34	46046.53
578.54	44946.77
578.74	45661.51
578.94	45815.11
579.14	45647.18
579.34	45698.37
579.54	45727.05
579.74	46601.53
579.94	46204.22
580.13	46374.20
580.33	45968.71
580.53	46206.27
580.73	46157.12
580.93	46574.91
581.13	46646.58
581.33	46783.80
581.53	46486.84
581.73	46667.06
581.93	46404.92
582.13	46806.33
582.33	46798.13
582.53	46667.06
582.73	47045.94
582.92	46906.68
583.12	47090.99
583.32	46529.85
583.52	47097.14
583.72	47494.44
583.92	46925.11
584.12	47478.06
584.32	47693.10
584.52	47293.74
584.72	47416.62
584.92	47211.82
585.11	47828.26
585.31	47873.32
585.51	47519.02
585.71	47103.28
585.91	48080.16
586.11	47867.17
586.31	47543.59
586.51	48102.69
586.71	47834.41
586.91	48080.16
587.10	48268.58
587.30	48454.94
587.50	48540.96
587.70	48305.44
587.90	48190.75
588.10	48244.00
588.30	48401.69
588.50	48825.62
588.69	48839.96
