SpectraSuite Data File
++++++++++++++++++++++++++++++++++++
Date: Fri Jun 02 14:51:08 CEST 2017
User: INFO_000
Dark Spectrum Present: No
Reference Spectrum Present: No
Number of Sampled Component Spectra: 1
Spectrometers: USB4H00879
Integration Time (usec): 80000 (USB4H00879)
Spectra Averaged: 1 (USB4H00879)
Boxcar Smoothing: 0 (USB4H00879)
Correct for Electrical Dark: No (USB4H00879)
Strobe/Lamp Enabled: No (USB4H00879)
Correct for Detector Non-linearity: No (USB4H00879)
Correct for Stray Light: No (USB4H00879)
Number of Pixels in Processed Spectrum: 3648
>>>>>Begin Processed Spectral Data<<<<<
345.13	1267.69
345.34	1267.69
345.56	1267.69
345.78	1259.50
345.99	1273.84
346.21	1724.39
346.42	1695.72
346.64	1679.33
346.86	1851.36
347.07	1650.66
347.29	1765.35
347.50	1644.52
347.72	1636.33
347.94	1816.55
348.15	1538.02
348.37	1691.62
348.59	1712.10
348.80	1662.95
349.02	1796.07
349.23	1859.56
349.45	1796.07
349.67	1882.08
349.88	1804.26
350.10	1912.80
350.31	1882.08
350.53	1847.27
350.75	2025.44
350.96	1798.12
351.18	1802.21
351.39	1918.95
351.61	1818.60
351.82	1964.00
352.04	1904.61
352.26	1794.02
352.47	1832.93
352.69	1886.18
352.90	1796.07
353.12	1882.08
353.34	1822.69
353.55	1957.86
353.77	1843.17
353.98	1849.32
354.20	1855.46
354.41	1910.75
354.63	1818.60
354.85	1974.24
355.06	1972.19
355.28	1769.44
355.49	1873.89
355.71	1869.80
355.92	1918.95
356.14	1828.84
356.35	1888.23
356.57	1859.56
356.79	1931.23
357.00	1910.75
357.22	1925.09
357.43	1949.67
357.65	1980.39
357.86	1830.88
358.08	1966.05
358.29	1896.42
358.51	1912.80
358.72	2050.02
358.94	1882.08
359.16	1849.32
359.37	1935.33
359.59	1955.81
359.80	1931.23
360.02	1978.34
360.23	1955.81
360.45	2058.21
360.66	1949.67
360.88	1826.79
361.09	1916.90
361.31	1982.43
361.52	1884.13
361.74	2000.87
361.95	2054.11
362.17	1949.67
362.38	2082.78
362.60	2064.35
362.81	2029.54
363.03	1898.47
363.24	1966.05
363.46	2066.40
363.67	2043.87
363.89	2039.78
364.10	2084.83
364.32	1935.33
364.53	2039.78
364.75	1890.28
364.96	1941.47
365.18	1920.99
365.39	1945.57
365.61	1914.85
365.82	2117.60
366.04	2033.63
366.25	1986.53
366.47	1968.10
366.68	2058.21
366.90	1908.71
367.11	2054.11
367.33	2035.68
367.54	2015.20
367.76	2007.01
367.97	2068.45
368.19	2021.35
368.40	2131.94
368.62	1953.76
368.83	2025.44
369.05	2056.16
369.26	2015.20
369.48	2105.31
369.69	2025.44
369.91	2019.30
370.12	1974.24
370.33	2105.31
370.55	1986.53
370.76	1949.67
370.98	2131.94
371.19	1982.43
371.41	1980.39
371.62	2045.92
371.84	2025.44
372.05	2129.89
372.27	2076.64
372.48	2017.25
372.69	2088.93
372.91	2140.13
373.12	2076.64
373.34	2086.88
373.55	2154.46
373.77	2140.13
373.98	2023.39
374.20	2179.04
374.41	2203.61
374.62	2070.50
374.84	2060.26
375.05	2238.43
375.27	2185.18
375.48	2101.22
375.70	2174.94
375.91	2170.85
376.12	2211.81
376.34	2107.36
376.55	2230.24
376.77	2265.05
376.98	2050.02
377.19	2131.94
377.41	2068.45
377.62	2074.59
377.84	2213.85
378.05	2234.33
378.27	2148.32
378.48	2330.59
378.69	2379.74
378.91	2310.11
379.12	2224.09
379.34	2203.61
379.55	2265.05
379.76	2164.70
379.98	2197.47
380.19	2232.29
380.41	2156.51
380.62	2312.16
380.83	2195.42
381.05	2193.37
381.26	2351.07
381.47	2277.34
381.69	2205.66
381.90	2369.50
382.12	2250.72
382.33	2217.95
382.54	2254.81
382.76	2312.16
382.97	2308.06
383.19	2181.09
383.40	2383.84
383.61	2224.09
383.83	2258.91
384.04	2254.81
384.25	2250.72
384.47	2422.75
384.68	2322.40
384.89	2246.62
385.11	2295.77
385.32	2330.59
385.54	2289.63
385.75	2306.01
385.96	2437.08
386.18	2478.04
386.39	2361.31
386.60	2385.88
386.82	2420.70
387.03	2389.98
387.24	2447.32
387.46	2396.12
387.67	2484.19
387.88	2562.01
388.10	2353.12
388.31	2383.84
388.52	2439.13
388.74	2478.04
388.95	2514.91
389.16	2506.71
389.38	2369.50
389.59	2480.09
389.80	2600.92
390.02	2527.19
390.23	2580.44
390.44	2576.34
390.66	2473.95
390.87	2566.10
391.08	2584.54
391.30	2570.20
391.51	2562.01
391.72	2693.08
391.94	2650.07
392.15	2613.21
392.36	2568.15
392.58	2551.77
392.79	2672.60
393.00	2654.17
393.22	2695.13
393.43	2740.18
393.64	2781.14
393.85	2744.28
394.07	2570.20
394.28	2648.02
394.49	2721.75
394.71	2822.10
394.92	2727.89
395.13	2598.87
395.35	2750.42
395.56	2631.64
395.77	2676.70
395.98	2752.47
396.20	2838.48
396.41	2785.24
396.62	2703.32
396.84	2756.57
397.05	2756.57
397.26	2738.13
397.47	2871.25
397.69	2656.22
397.90	2973.65
398.11	2815.96
398.32	2795.48
398.54	2846.68
398.75	2863.06
398.96	2686.94
399.18	2996.18
399.39	2826.20
399.60	2934.74
399.81	2908.12
400.03	2893.78
400.24	3243.98
400.45	2920.40
400.66	2932.69
400.88	2783.19
401.09	3108.82
401.30	2893.78
401.51	3088.34
401.73	3069.91
401.94	3041.23
402.15	3010.51
402.36	2975.70
402.58	3030.99
402.79	3090.38
403.00	3067.86
403.21	3117.01
403.43	3121.10
403.64	3188.69
403.85	3026.90
404.06	3088.34
404.27	3024.85
404.49	3076.05
404.70	3063.76
404.91	3151.82
405.12	3102.67
405.34	3076.05
405.55	3317.71
405.76	3059.67
405.97	3076.05
406.19	3325.90
406.40	3114.96
406.61	3209.17
406.82	3090.38
407.03	3229.65
407.25	3299.28
407.46	3428.30
407.67	3254.22
407.88	3354.57
408.09	3262.41
408.31	3225.55
408.52	3289.04
408.73	3299.28
408.94	3166.16
409.15	3360.72
409.37	3313.61
409.58	3327.95
409.79	3350.48
410.00	3403.72
410.21	3391.44
410.43	3432.40
410.64	3325.90
410.85	3479.50
411.06	3297.23
411.27	3407.82
411.48	3461.07
411.70	3297.23
411.91	3383.24
412.12	3608.52
412.33	3334.09
412.54	3450.83
412.76	3674.06
412.97	3598.28
413.18	3411.92
413.39	3583.95
413.60	3624.90
413.81	3559.37
414.03	3596.23
414.24	3450.83
414.45	3721.16
414.66	3440.59
414.87	3639.24
415.08	3522.51
415.30	3672.01
415.51	3614.66
415.72	3551.18
415.93	3684.30
416.14	3782.60
416.35	3565.51
416.56	3755.97
416.78	3637.19
416.99	3770.31
417.20	3729.35
417.41	3727.30
417.62	3694.54
417.83	3788.74
418.04	3786.69
418.26	3815.37
418.47	3829.70
418.68	3915.72
418.89	3858.37
419.10	4014.02
419.31	3909.57
419.52	3917.76
419.73	3999.68
419.95	3987.40
420.16	3780.55
420.37	3952.58
420.58	4046.79
420.79	3803.08
421.00	4007.87
421.21	4093.89
421.42	3893.19
421.63	3991.49
421.85	4026.31
422.06	4108.23
422.27	4089.79
422.48	4181.95
422.69	4128.70
422.90	4130.75
423.11	4181.95
423.32	4130.75
423.53	4386.75
423.75	4159.42
423.96	4339.65
424.17	4194.24
424.38	4401.08
424.59	4284.35
424.80	4435.90
425.01	4337.60
425.22	4364.22
425.43	4296.64
425.64	4519.87
425.85	4470.72
426.06	4411.32
426.28	4409.28
426.49	4380.61
426.70	4405.18
426.91	4415.42
427.12	4548.54
427.33	4620.22
427.54	4577.21
427.75	4519.87
427.96	4751.29
428.17	4681.66
428.38	4720.57
428.59	4796.34
428.80	4575.16
429.01	4769.72
429.23	4698.04
429.44	4861.88
429.65	4829.11
429.86	4941.75
430.07	4675.51
430.28	4745.14
430.49	4761.53
430.70	4900.79
430.91	4931.51
431.12	4921.27
431.33	4990.90
431.54	5027.76
431.75	4933.56
431.96	5042.10
432.17	4988.85
432.38	4790.20
432.59	5236.66
432.80	5103.54
433.01	5167.03
433.22	5044.15
433.43	5124.02
433.64	5111.73
433.85	5162.93
434.06	5132.21
434.27	5021.62
434.49	5234.61
434.70	5132.21
434.91	5167.03
435.12	5312.43
435.33	5351.34
435.54	5265.33
435.75	5255.09
435.96	5322.67
436.17	5205.94
436.38	5345.20
436.59	5240.75
436.80	5357.49
437.01	5533.61
437.22	5404.59
437.43	5498.80
437.64	5420.97
437.85	5533.61
438.06	5541.80
438.27	5371.82
438.48	5447.60
438.69	5533.61
438.90	5500.84
439.11	5443.50
439.32	5726.12
439.53	5529.52
439.74	5636.01
439.95	5730.22
440.16	5506.99
440.37	5627.82
440.57	5525.42
440.78	5615.53
440.99	5693.35
441.20	5787.56
441.41	5689.26
441.62	5705.64
441.83	5679.02
442.04	5832.62
442.25	5801.90
442.46	5812.14
442.67	5906.34
442.88	6102.95
443.09	5801.90
443.30	5930.92
443.51	5875.62
443.72	6074.28
443.93	5939.11
444.14	6168.48
444.35	5734.31
444.56	5943.21
444.77	6064.04
444.98	6074.28
445.19	6131.62
445.40	6127.52
445.61	6049.70
445.81	6031.27
446.02	6336.42
446.23	6107.04
446.44	6143.91
446.65	6104.99
446.86	6242.21
447.07	6272.93
447.28	6483.87
447.49	6299.55
447.70	6234.02
447.91	6348.70
448.12	6213.54
448.33	6465.44
448.54	6350.75
448.74	6320.03
448.95	6412.19
449.16	6342.56
449.37	6657.95
449.58	6580.12
449.79	6778.78
450.00	6467.49
450.21	6647.71
450.42	6692.76
450.63	6651.80
450.84	6776.73
451.05	6674.33
451.25	6750.10
451.46	6748.06
451.67	6868.89
451.88	6844.31
452.09	6766.49
452.30	6840.22
452.51	6973.33
452.72	7067.54
452.93	7190.42
453.13	6813.59
453.34	6858.65
453.55	6907.80
453.76	7016.34
453.97	7411.60
454.18	7118.74
454.39	7341.97
454.60	7139.22
454.81	7014.29
455.01	7356.30
455.22	7055.25
455.43	7268.24
455.64	7565.20
455.85	7427.98
456.06	7653.26
456.27	7503.76
456.48	7432.08
456.68	7548.81
456.89	7663.50
457.10	7720.84
457.31	7821.19
457.52	7706.51
457.73	7665.55
457.94	7882.63
458.14	7741.32
458.35	8177.54
458.56	7980.93
458.77	7907.21
458.98	8069.00
459.19	8058.76
459.39	8114.05
459.60	8171.40
459.81	8161.16
460.02	8277.89
460.23	8359.81
460.44	8327.04
460.65	8376.19
460.85	8331.14
461.06	8509.31
461.27	8238.98
461.48	8710.01
461.69	8683.39
461.89	8437.63
462.10	8593.28
462.31	8494.97
462.52	8400.77
462.73	8849.27
462.94	8920.95
463.14	8945.53
463.35	8857.46
463.56	9285.49
463.77	9244.53
463.98	8996.73
464.18	8935.29
464.39	9197.43
464.60	9549.68
464.81	9066.36
465.02	9031.54
465.23	9543.53
465.43	9367.41
465.64	9656.17
465.85	9353.07
466.06	9361.27
466.27	9881.45
466.47	9666.41
466.68	9699.18
466.89	9633.64
467.10	9754.48
467.30	9705.32
467.51	9793.39
467.72	10272.61
467.93	9797.48
468.14	10151.78
468.34	10182.50
468.55	10307.43
468.76	10229.60
468.97	10071.91
469.17	10475.36
469.38	10579.81
469.59	10659.68
469.80	10497.89
470.01	10493.79
470.21	10430.30
470.42	10786.65
470.63	10975.06
470.84	10454.88
471.04	11091.80
471.25	11011.93
471.46	10954.58
471.67	11130.71
471.87	11018.07
472.08	11302.74
472.29	11556.69
472.50	11171.67
472.70	11261.78
472.91	11292.50
473.12	11546.45
473.33	11611.98
473.53	11749.20
473.74	11534.16
473.95	12115.78
474.16	11853.64
474.36	11892.55
474.57	11966.28
474.78	12138.31
474.99	12339.01
475.19	12113.74
475.40	12523.33
475.61	12640.06
475.81	12396.35
476.02	12713.79
476.23	12396.35
476.44	12791.61
476.64	13012.79
476.85	12977.98
477.06	12879.68
477.27	13272.89
477.47	13246.26
477.68	13213.49
477.89	13475.63
478.09	13428.53
478.30	13487.92
478.51	13459.25
478.71	13811.50
478.92	13817.65
479.13	13465.39
479.34	14126.89
479.54	14028.59
479.75	13948.72
479.96	14137.13
480.16	14180.14
480.37	14180.14
480.58	14096.17
480.78	14473.00
480.99	14384.93
481.20	14767.90
481.41	14591.78
481.61	14784.29
481.82	15169.30
482.03	15056.67
482.23	14925.60
482.44	15398.68
482.65	15183.64
482.85	15623.95
483.06	15316.76
483.27	15515.41
483.47	15464.21
483.68	15593.23
483.89	15738.64
484.09	15650.58
484.30	15759.12
484.51	16017.16
484.71	15863.57
484.92	16058.12
485.13	15937.29
485.33	16307.98
485.54	16062.22
485.75	16404.23
485.95	16385.80
486.16	16482.05
486.37	16572.16
486.57	16572.16
486.78	16590.59
486.98	16746.24
487.19	17151.74
487.40	16992.00
487.60	17161.98
487.81	17247.99
488.02	17049.34
488.22	17329.91
488.43	17544.95
488.64	17430.26
488.84	17467.13
489.05	18009.84
489.25	17512.18
489.46	17950.45
489.67	17645.30
489.87	18085.61
490.08	18126.57
490.29	18048.75
490.49	18487.01
490.70	18489.06
490.90	18468.58
491.11	18380.52
491.32	18538.21
491.52	18646.76
491.73	18657.00
491.94	18738.91
492.14	18591.46
492.35	18931.42
492.55	19121.88
492.76	19261.15
492.97	19490.52
493.17	19064.54
493.38	19588.82
493.58	19627.73
493.79	19625.68
494.00	19476.18
494.20	19615.44
494.41	19560.15
494.61	19832.53
494.82	19824.34
495.02	19783.38
495.23	20068.05
495.44	19932.88
495.64	20129.48
495.85	20109.01
496.05	20246.22
496.26	20205.26
496.47	20747.97
496.67	20426.44
496.88	20842.18
497.08	20442.82
497.29	20893.38
497.49	20598.47
497.70	21210.81
497.91	21302.97
498.11	21233.34
498.32	21343.93
498.52	21319.35
498.73	21532.34
498.93	21493.43
499.14	21597.88
499.34	21628.60
499.55	21941.94
499.76	21679.80
499.96	21642.93
500.17	21771.96
500.37	21954.22
500.58	22159.02
500.78	22116.01
500.99	22142.64
501.19	22091.44
501.40	22263.47
501.60	22294.19
501.81	22347.44
502.02	22562.47
502.22	22298.28
502.43	22400.68
502.63	22642.34
502.84	22849.19
503.04	23221.92
503.25	23064.22
503.45	23101.09
503.66	23013.02
503.86	23178.91
504.07	23490.20
504.27	23140.00
504.48	23744.15
504.68	23508.63
504.89	23760.53
505.09	23400.09
505.30	23967.38
505.50	23903.89
505.71	23885.46
505.91	24280.72
506.12	23950.99
506.32	24264.33
506.53	24184.46
506.73	24219.28
506.94	24241.81
507.14	24280.72
507.35	24235.66
507.55	24682.12
507.76	24620.68
507.96	24366.73
508.17	24745.61
508.37	24671.88
508.58	24923.78
508.78	24850.05
508.99	25073.28
509.19	24942.21
509.40	25093.76
509.60	24897.16
509.81	25298.56
510.01	25161.34
510.22	25087.62
510.42	25241.21
510.63	25644.66
510.83	25435.77
511.04	25261.69
511.24	26068.59
511.44	25521.79
511.65	25853.56
511.85	25804.41
512.06	25816.69
512.26	25697.91
512.47	25988.72
512.67	25937.52
512.88	26076.79
513.08	26101.36
513.29	26408.56
513.49	26205.81
513.69	26324.59
513.90	26156.66
514.10	26605.16
514.31	26773.10
514.51	26525.29
514.72	26736.23
514.92	26551.91
515.13	26865.25
515.33	26482.28
515.53	27055.72
515.74	26840.68
515.94	27014.76
516.15	27143.78
516.35	27203.17
516.56	27053.67
516.76	27004.52
516.96	27436.64
517.17	27508.32
517.37	27391.58
517.58	27684.44
517.78	27291.23
517.99	27508.32
518.19	27717.21
518.39	27883.09
518.60	27962.97
518.80	27997.78
519.01	28005.97
519.21	28243.54
519.41	27932.25
519.62	27952.73
519.82	28616.27
520.03	28411.47
520.23	28583.50
520.43	28440.14
520.64	28759.63
520.84	28663.37
521.05	28440.14
521.25	28776.01
521.45	28759.63
521.66	29136.45
521.86	28730.95
522.07	29036.10
522.27	29015.62
522.47	28931.65
522.68	29322.82
522.88	28931.65
523.08	29617.72
523.29	29144.64
523.49	29292.10
523.70	29500.99
523.90	30053.94
524.10	29576.76
524.31	30191.16
524.51	29699.64
524.71	30123.57
524.92	29931.06
525.12	30187.06
525.33	30238.26
525.53	29992.50
525.73	30441.01
525.94	30512.69
526.14	30557.74
526.34	30424.62
526.55	30500.40
526.75	30527.02
526.95	30909.99
527.16	30508.59
527.36	30690.86
527.56	31153.70
527.77	31440.42
527.97	31495.71
528.17	31180.32
528.38	31522.34
528.58	31452.70
528.78	31442.46
528.99	31362.59
529.19	31850.01
529.39	31458.85
529.60	32032.28
529.80	31655.45
530.00	31548.96
530.21	31634.97
530.41	32595.47
530.61	32112.15
530.82	32118.29
531.02	32163.35
531.22	32130.58
531.43	32339.47
531.63	32640.53
531.83	32978.44
532.04	32732.68
532.24	32511.50
532.44	32921.10
532.64	33230.34
532.85	33068.55
533.05	33033.74
533.25	33041.93
533.46	33261.06
533.66	33717.76
533.86	33119.75
534.07	33701.37
534.27	33592.83
534.47	33758.72
534.67	33940.99
534.88	34133.50
535.08	34045.43
535.28	33779.20
535.49	34160.12
535.69	34301.43
535.89	34346.48
536.09	34164.21
536.30	34672.11
536.50	34518.51
536.70	34534.90
536.91	34604.53
537.11	34532.85
537.31	34616.82
537.51	34788.85
537.72	35118.57
537.92	35116.52
538.12	35139.05
538.32	34952.68
538.53	35091.94
538.73	34979.31
538.93	34754.03
539.13	35464.67
539.34	35274.21
539.54	35741.15
539.74	35608.03
539.94	35648.99
540.15	35175.91
540.35	35618.27
540.55	35761.63
540.75	35886.56
540.96	35839.45
541.16	35755.49
541.36	35667.42
541.56	35827.17
541.77	36363.73
541.97	36167.13
542.17	36140.50
542.37	35927.52
542.58	36144.60
542.78	36457.94
542.98	36310.49
543.18	36687.31
543.38	36754.90
543.59	36920.78
543.79	36322.77
543.99	36455.89
544.19	36959.69
544.40	36861.39
544.60	36931.02
544.80	36879.82
545.00	37121.48
545.20	37316.04
545.41	36955.60
545.61	36986.32
545.81	37535.17
546.01	37221.83
546.21	37191.11
546.42	36861.39
546.62	37600.71
546.82	37500.36
547.02	37572.03
547.22	37344.71
547.43	37404.10
547.63	37778.88
547.83	37492.16
548.03	37322.18
548.23	37950.91
548.44	37469.64
548.64	37926.33
548.84	37756.35
549.04	38077.88
549.24	38004.16
549.45	37922.24
549.65	38081.98
549.85	37858.75
550.05	38360.50
550.25	38041.02
550.45	38651.31
550.66	38350.26
550.86	38096.31
551.06	38624.69
551.26	38372.79
551.46	38206.90
551.66	38901.17
551.87	38495.67
552.07	38829.49
552.27	38622.64
552.47	38815.15
552.67	38763.95
552.87	38630.83
553.07	39009.71
553.28	38643.12
553.48	38753.71
553.68	38843.82
553.88	39302.57
554.08	39085.48
554.28	39157.16
554.48	39001.52
554.69	39321.00
554.89	39259.56
555.09	39421.35
555.29	39232.94
555.49	39366.06
555.69	39302.57
555.89	39652.77
556.10	39556.52
556.30	39251.37
556.50	39482.79
556.70	39376.30
556.90	39740.83
557.10	39855.52
557.30	39757.22
557.50	39861.66
557.70	40054.17
557.91	40273.31
558.11	40013.21
558.31	40271.26
558.51	39781.79
558.71	39978.40
558.91	40533.40
559.11	40105.37
559.31	39933.34
559.51	39951.77
559.72	40144.28
559.92	40066.46
560.12	39851.42
560.32	40232.35
560.52	40467.86
560.72	40275.35
560.92	40842.64
561.12	40580.50
561.32	40885.65
561.52	40144.28
561.72	40992.14
561.93	40377.75
562.13	41178.51
562.33	40209.82
562.53	41203.08
562.73	40828.30
562.93	40662.42
563.13	40680.85
563.33	40975.76
563.53	41311.63
563.73	40811.92
563.93	41164.17
564.13	41543.05
564.33	41162.12
564.53	41536.90
564.74	41557.38
564.94	40842.64
565.14	41371.02
565.34	41342.35
565.54	41497.99
565.74	41571.72
565.94	41674.12
566.14	41944.45
566.34	41629.06
566.54	41891.20
566.74	41753.99
566.94	41823.62
567.14	41477.51
567.34	41850.24
567.54	41973.12
567.74	42032.51
567.94	41932.16
568.14	42313.08
568.34	42245.50
568.54	42143.10
568.74	41883.01
568.94	42429.82
569.14	42505.59
569.34	42177.92
569.54	42939.76
569.75	42431.86
569.95	42716.53
570.15	42956.14
570.35	42720.63
570.55	42558.84
570.75	42882.42
570.95	43011.44
571.15	43066.73
571.35	43005.30
571.55	43046.26
571.75	42829.17
571.95	43167.09
572.15	43179.37
572.35	43277.68
572.55	42849.65
572.75	43392.36
572.95	43136.37
573.15	43466.09
573.35	43332.97
573.55	42980.72
573.75	43228.52
573.95	43801.96
574.15	43545.96
574.35	43756.90
574.55	43930.98
574.75	43722.08
574.95	44264.80
575.15	43683.17
575.34	44021.09
575.54	44209.50
575.74	44023.14
575.94	44395.87
576.14	44303.71
576.34	45147.47
576.54	44733.78
576.74	45004.11
576.94	44485.98
577.14	44741.97
577.34	44827.99
577.54	44258.65
577.74	44930.39
577.94	44926.29
578.14	44883.28
578.34	45026.64
578.54	44576.09
578.74	44971.35
578.94	44936.53
579.14	45213.01
579.34	45354.32
579.54	45387.08
579.74	45741.38
579.94	45268.30
580.13	45788.49
580.33	45413.71
580.53	45942.08
580.73	46073.15
580.93	45831.49
581.13	45811.01
581.33	46265.66
581.53	46185.79
581.73	46030.15
581.93	46931.25
582.13	46232.89
582.33	46226.75
582.53	46413.12
582.73	46634.30
582.92	46632.25
583.12	46654.78
583.32	46718.26
583.52	46226.75
583.72	46665.02
583.92	46648.63
584.12	46830.90
584.32	47617.32
584.52	47039.79
584.72	47310.13
584.92	47090.99
585.11	47588.65
585.31	47058.23
585.51	47459.63
585.71	47148.34
585.91	47674.66
586.11	47275.31
586.31	47263.02
586.51	47504.68
586.71	48051.49
586.91	47965.48
587.10	48182.56
587.30	48035.11
587.50	48088.35
587.70	48166.18
587.90	48180.51
588.10	48168.22
588.30	48237.86
588.50	47979.81
588.69	48098.59
