SpectraSuite Data File
++++++++++++++++++++++++++++++++++++
Date: Fri Jun 02 14:51:10 CEST 2017
User: INFO_000
Dark Spectrum Present: No
Reference Spectrum Present: No
Number of Sampled Component Spectra: 1
Spectrometers: USB4H00879
Integration Time (usec): 80000 (USB4H00879)
Spectra Averaged: 1 (USB4H00879)
Boxcar Smoothing: 0 (USB4H00879)
Correct for Electrical Dark: No (USB4H00879)
Strobe/Lamp Enabled: No (USB4H00879)
Correct for Detector Non-linearity: No (USB4H00879)
Correct for Stray Light: No (USB4H00879)
Number of Pixels in Processed Spectrum: 3648
>>>>>Begin Processed Spectral Data<<<<<
345.13	1333.23
345.34	1333.23
345.56	1333.23
345.78	1335.28
345.99	1308.65
346.21	1736.68
346.42	1753.06
346.64	1650.66
346.86	1816.55
347.07	1609.70
347.29	1683.43
347.50	1669.09
347.72	1716.20
347.94	1710.05
348.15	1572.84
348.37	1611.75
348.59	1710.05
348.80	1597.42
349.02	1789.92
349.23	1869.80
349.45	1830.88
349.67	1875.94
349.88	1830.88
350.10	1949.67
350.31	1884.13
350.53	1728.49
350.75	1943.52
350.96	1783.78
351.18	1861.60
351.39	1834.98
351.61	1791.97
351.82	1910.75
352.04	1970.15
352.26	1863.65
352.47	1826.79
352.69	1904.61
352.90	1783.78
353.12	1869.80
353.34	1826.79
353.55	1918.95
353.77	1861.60
353.98	1892.32
354.20	1802.21
354.41	1929.19
354.63	1961.95
354.85	1986.53
355.06	1998.82
355.28	1753.06
355.49	1896.42
355.71	1992.67
355.92	1884.13
356.14	1923.04
356.35	1830.88
356.57	1857.51
356.79	1955.81
357.00	1886.18
357.22	1986.53
357.43	1869.80
357.65	1863.65
357.86	1832.93
358.08	1857.51
358.29	1978.34
358.51	1978.34
358.72	1986.53
358.94	1906.66
359.16	1920.99
359.37	1886.18
359.59	1912.80
359.80	1986.53
360.02	1949.67
360.23	1943.52
360.45	1982.43
360.66	1855.46
360.88	1861.60
361.09	1941.47
361.31	1959.91
361.52	1894.37
361.74	2013.15
361.95	2043.87
362.17	2007.01
362.38	2074.59
362.60	2080.74
362.81	2033.63
363.03	1955.81
363.24	1990.63
363.46	2056.16
363.67	2084.83
363.89	2070.50
364.10	1998.82
364.32	1994.72
364.53	2029.54
364.75	1873.89
364.96	1941.47
365.18	2013.15
365.39	2058.21
365.61	1927.14
365.82	2074.59
366.04	2011.11
366.25	1892.32
366.47	2041.82
366.68	1978.34
366.90	2027.49
367.11	2078.69
367.33	2146.27
367.54	2101.22
367.76	2066.40
367.97	2170.85
368.19	2084.83
368.40	2027.49
368.62	2033.63
368.83	2017.25
369.05	2109.41
369.26	2035.68
369.48	1970.15
369.69	1933.28
369.91	2056.16
370.12	2111.46
370.33	2129.89
370.55	1949.67
370.76	2058.21
370.98	2060.26
371.19	2047.97
371.41	2015.20
371.62	2086.88
371.84	2037.73
372.05	2172.89
372.27	2039.78
372.48	2099.17
372.69	2138.08
372.91	2179.04
373.12	2129.89
373.34	2031.58
373.55	2117.60
373.77	2185.18
373.98	2086.88
374.20	2207.71
374.41	2217.95
374.62	2107.36
374.84	2172.89
375.05	2156.51
375.27	2162.66
375.48	2217.95
375.70	2121.70
375.91	2275.29
376.12	2242.53
376.34	2174.94
376.55	2176.99
376.77	2285.53
376.98	2011.11
377.19	2199.52
377.41	2193.37
377.62	2150.37
377.84	2244.57
378.05	2291.68
378.27	2203.61
378.48	2289.63
378.69	2318.30
378.91	2222.05
379.12	2244.57
379.34	2197.47
379.55	2385.88
379.76	2277.34
379.98	2150.37
380.19	2256.86
380.41	2207.71
380.62	2383.84
380.83	2265.05
381.05	2293.72
381.26	2346.97
381.47	2244.57
381.69	2248.67
381.90	2387.93
382.12	2301.92
382.33	2213.85
382.54	2258.91
382.76	2344.92
382.97	2310.11
383.19	2281.44
383.40	2355.16
383.61	2248.67
383.83	2289.63
384.04	2312.16
384.25	2398.17
384.47	2465.75
384.68	2359.26
384.89	2293.72
385.11	2377.69
385.32	2303.96
385.54	2267.10
385.75	2344.92
385.96	2392.03
386.18	2420.70
386.39	2410.46
386.60	2312.16
386.82	2445.27
387.03	2353.12
387.24	2484.19
387.46	2387.93
387.67	2480.09
387.88	2473.95
388.10	2473.95
388.31	2461.66
388.52	2498.52
388.74	2588.63
388.95	2473.95
389.16	2539.48
389.38	2504.67
389.59	2568.15
389.80	2639.83
390.02	2564.06
390.23	2537.43
390.44	2465.75
390.66	2533.34
390.87	2482.14
391.08	2619.35
391.30	2688.98
391.51	2654.17
391.72	2580.44
391.94	2699.22
392.15	2564.06
392.36	2615.26
392.58	2516.95
392.79	2625.50
393.00	2736.09
393.22	2699.22
393.43	2734.04
393.64	2738.13
393.85	2754.52
394.07	2682.84
394.28	2715.61
394.49	2691.03
394.71	2803.67
394.92	2869.20
395.13	2719.70
395.35	2695.13
395.56	2766.81
395.77	2752.47
395.98	2729.94
396.20	2813.91
396.41	2842.58
396.62	2994.13
396.84	2791.38
397.05	2846.68
397.26	2836.44
397.47	2832.34
397.69	2813.91
397.90	2975.70
398.11	2787.29
398.32	2834.39
398.54	2904.02
398.75	2969.55
398.96	2899.92
399.18	3028.95
399.39	3004.37
399.60	3092.43
399.81	2924.50
400.03	2852.82
400.24	3200.98
400.45	2949.08
400.66	3043.28
400.88	2914.26
401.09	3186.64
401.30	2981.84
401.51	3180.50
401.73	3102.67
401.94	3022.80
402.15	3145.68
402.36	3030.99
402.58	2969.55
402.79	3137.49
403.00	3047.38
403.21	3153.87
403.43	3239.89
403.64	3221.45
403.85	3180.50
404.06	3278.80
404.27	3006.42
404.49	3231.69
404.70	3149.78
404.91	3305.42
405.12	3172.30
405.34	3205.07
405.55	3321.81
405.76	3151.82
405.97	3100.62
406.19	3250.13
406.40	3131.34
406.61	3411.92
406.82	3311.57
407.03	3295.18
407.25	3211.22
407.46	3235.79
407.67	3430.35
407.88	3581.90
408.09	3344.33
408.31	3299.28
408.52	3276.75
408.73	3424.20
408.94	3385.29
409.15	3334.09
409.37	3508.17
409.58	3477.45
409.79	3497.93
410.00	3534.79
410.21	3508.17
410.43	3477.45
410.64	3477.45
410.85	3506.12
411.06	3467.21
411.27	3600.33
411.48	3571.66
411.70	3565.51
411.91	3567.56
412.12	3663.82
412.33	3594.19
412.54	3622.86
412.76	3663.82
412.97	3506.12
413.18	3557.32
413.39	3583.95
413.60	3653.58
413.81	3643.34
414.03	3661.77
414.24	3624.90
414.45	3938.24
414.66	3669.96
414.87	3725.26
415.08	3557.32
415.30	3616.71
415.51	3772.36
415.72	3774.41
415.93	3743.69
416.14	3753.93
416.35	3880.90
416.56	3796.93
416.78	3751.88
416.99	3846.09
417.20	3901.38
417.41	3932.10
417.62	3887.04
417.83	3827.65
418.04	3923.91
418.26	3919.81
418.47	3907.52
418.68	3934.15
418.89	3999.68
419.10	4052.93
419.31	3971.01
419.52	4071.36
419.73	3960.77
419.95	4083.65
420.16	3936.20
420.37	3966.92
420.58	4036.55
420.79	3891.14
421.00	4122.56
421.21	4173.76
421.42	3913.67
421.63	4198.34
421.85	4212.67
422.06	4231.10
422.27	4165.57
422.48	4161.47
422.69	4222.91
422.90	4247.49
423.11	4190.14
423.32	4108.23
423.53	4386.75
423.75	4276.16
423.96	4425.66
424.17	4343.74
424.38	4435.90
424.59	4380.61
424.80	4591.55
425.01	4382.65
425.22	4374.46
425.43	4409.28
425.64	4558.78
425.85	4677.56
426.06	4444.09
426.28	4513.72
426.49	4466.62
426.70	4501.44
426.91	4669.37
427.12	4700.09
427.33	4724.66
427.54	4585.40
427.75	4706.23
427.96	4706.23
428.17	4644.79
428.38	4767.67
428.59	4818.87
428.80	4681.66
429.01	4779.96
429.23	4702.14
429.44	4958.13
429.65	4917.17
429.86	4958.13
430.07	4874.17
430.28	4777.91
430.49	5056.43
430.70	5029.81
430.91	4925.36
431.12	4968.37
431.33	5029.81
431.54	5095.35
431.75	5048.24
431.96	5152.69
432.17	5064.63
432.38	4974.52
432.59	5339.05
432.80	5154.74
433.01	5160.88
433.22	5291.95
433.43	5226.42
433.64	5214.13
433.85	5248.94
434.06	5369.77
434.27	5158.83
434.49	5445.55
434.70	5382.06
434.91	5474.22
435.12	5361.58
435.33	5296.05
435.54	5506.99
435.75	5185.46
435.96	5408.69
436.17	5298.10
436.38	5509.04
436.59	5531.56
436.80	5345.20
437.01	5652.39
437.22	5601.19
437.43	5703.59
437.64	5631.91
437.85	5633.96
438.06	5805.99
438.27	5494.70
438.48	5676.97
438.69	5844.90
438.90	5810.09
439.11	5568.43
439.32	5734.31
439.53	5783.46
439.74	5867.43
439.95	5836.71
440.16	5722.02
440.37	5844.90
440.57	5697.45
440.78	5961.64
440.99	6109.09
441.20	6039.46
441.41	5904.29
441.62	6078.37
441.83	5871.53
442.04	5924.77
442.25	5980.07
442.46	5924.77
442.67	6143.91
442.88	6508.44
443.09	6029.22
443.30	6023.08
443.51	6283.17
443.72	6485.92
443.93	6176.67
444.14	6385.57
444.35	6037.41
444.56	6258.59
444.77	6311.84
444.98	6324.13
445.19	6295.46
445.40	6328.22
445.61	6262.69
445.81	6541.21
446.02	6498.20
446.23	6434.72
446.44	6338.46
446.65	6471.58
446.86	6375.33
447.07	6451.10
447.28	6780.82
447.49	6696.86
447.70	6426.53
447.91	6713.24
448.12	6483.87
448.33	6680.47
448.54	6631.32
448.74	6662.04
448.95	6565.79
449.16	6473.63
449.37	7004.05
449.58	6799.26
449.79	6858.65
450.00	6737.82
450.21	6703.00
450.42	7069.59
450.63	7006.10
450.84	6979.48
451.05	7024.53
451.25	6918.04
451.46	6938.52
451.67	7040.92
451.88	7167.89
452.09	7245.71
452.30	7073.68
452.51	7090.07
452.72	7155.60
452.93	7448.46
453.13	7085.97
453.34	7118.74
453.55	7360.40
453.76	7317.39
453.97	7550.86
454.18	7456.65
454.39	7536.52
454.60	7456.65
454.81	7391.12
455.01	7540.62
455.22	7219.09
455.43	7483.28
455.64	7829.38
455.85	7729.03
456.06	7884.68
456.27	7731.08
456.48	7792.52
456.68	7735.18
456.89	7587.72
457.10	7868.30
457.31	7782.28
457.52	7905.16
457.73	7866.25
457.94	8163.20
458.14	7860.10
458.35	8376.19
458.56	8099.72
458.77	8079.24
458.98	8232.83
459.19	8222.59
459.39	8228.74
459.60	8419.20
459.81	8169.35
460.02	8505.21
460.23	8357.76
460.44	8681.34
460.65	8546.17
460.85	8667.00
461.06	8570.75
461.27	8353.66
461.48	8820.60
461.69	8808.31
461.89	8552.32
462.10	9015.16
462.31	8695.68
462.52	8740.73
462.73	8914.81
462.94	9222.00
463.14	9117.56
463.35	8873.85
463.56	9396.08
463.77	9385.84
463.98	8994.68
464.18	9211.76
464.39	9465.71
464.60	9516.91
464.81	9422.70
465.02	9478.00
465.23	9846.63
465.43	9488.24
465.64	9660.27
465.85	9768.81
466.06	9637.74
466.27	9924.46
466.47	9971.56
466.68	10024.81
466.89	9785.19
467.10	10159.97
467.30	9742.19
467.51	10065.77
467.72	10450.78
467.93	9910.12
468.14	10323.81
468.34	10411.87
468.55	10196.84
468.76	10551.14
468.97	10475.36
469.17	10610.53
469.38	10631.01
469.59	10899.29
469.80	10471.26
470.01	10714.97
470.21	10555.23
470.42	10903.39
470.63	11226.96
470.84	11083.61
471.04	11192.15
471.25	11118.42
471.46	11183.96
471.67	11634.51
471.87	11349.84
472.08	11601.74
472.29	11753.29
472.50	11341.65
472.70	11552.59
472.91	11702.09
473.12	11822.92
473.33	11925.32
473.53	12074.82
473.74	11966.28
473.95	11931.47
474.16	12291.91
474.36	12144.45
474.57	12375.88
474.78	12584.77
474.99	12492.61
475.19	12212.04
475.40	12934.97
475.61	12924.73
475.81	12906.30
476.02	13055.80
476.23	12965.69
476.44	13111.10
476.64	13377.33
476.85	13457.20
477.06	13363.00
477.27	13526.83
477.47	13643.57
477.68	13756.21
477.89	14104.36
478.09	13819.69
478.30	14010.15
478.51	14262.05
478.71	13973.29
478.92	13977.39
479.13	14329.64
479.34	14626.59
479.54	14272.29
479.75	14481.19
479.96	14540.58
480.16	14645.02
480.37	14825.25
480.58	14941.98
480.78	15253.27
480.99	14855.97
481.20	15302.42
481.41	15505.17
481.61	15259.42
481.82	15410.96
482.03	15355.67
482.23	15460.12
482.44	15890.19
482.65	15806.22
482.85	15908.62
483.06	15875.85
483.27	16097.03
483.47	15976.20
483.68	16328.45
483.89	16541.44
484.09	16412.42
484.30	16486.15
484.51	16795.39
484.71	16803.58
484.92	16762.62
485.13	16832.26
485.33	16887.55
485.54	17106.68
485.75	17194.75
485.95	17303.29
486.16	17454.84
486.37	17534.71
486.57	17663.73
486.78	17508.08
486.98	17835.76
487.19	17868.53
487.40	17891.06
487.60	17876.72
487.81	18077.42
488.02	18015.98
488.22	18261.74
488.43	18339.56
488.64	18140.91
488.84	18331.37
489.05	18353.90
489.25	18398.95
489.46	18775.78
489.67	18730.72
489.87	19058.40
490.08	18845.41
490.29	19029.73
490.49	19502.81
490.70	19511.00
490.90	19625.68
491.11	19310.30
491.32	19721.94
491.52	19420.89
491.73	19683.03
491.94	19834.58
492.14	19687.12
492.35	19936.98
492.55	20010.70
492.76	20434.63
492.97	20250.32
493.17	20254.41
493.38	20516.55
493.58	20768.45
493.79	20721.35
494.00	20426.44
494.20	20704.96
494.41	20727.49
494.61	21040.83
494.82	21044.93
495.02	21018.30
495.23	21116.61
495.44	21128.89
495.64	21147.33
495.85	21333.69
496.05	21554.87
496.26	21325.50
496.47	21776.05
496.67	21462.71
496.88	21937.84
497.08	22005.42
497.29	22050.48
497.49	21870.26
497.70	22087.34
497.91	22224.56
498.11	22177.45
498.32	22466.22
498.52	22470.31
498.73	22607.53
498.93	22556.33
499.14	22865.57
499.34	22619.81
499.55	22943.39
499.76	22851.24
499.96	23066.27
500.17	22744.74
500.37	23183.01
500.58	23322.27
500.78	23361.18
500.99	23441.05
501.19	23447.19
501.40	23439.00
501.60	23289.50
501.81	23649.94
502.02	23768.73
502.22	23676.57
502.43	23664.28
502.63	23834.26
502.84	24030.87
503.04	24090.26
503.25	23994.00
503.45	23901.84
503.66	24499.85
503.86	24206.99
504.07	24475.27
504.27	24215.18
504.48	24465.03
504.68	24454.79
504.89	25063.04
505.09	24755.85
505.30	24872.58
505.50	24753.80
505.71	24682.12
505.91	24942.21
506.12	25167.49
506.32	25212.54
506.53	25038.47
506.73	25196.16
506.94	25288.32
507.14	25194.11
507.35	25290.37
507.55	25736.82
507.76	25636.47
507.96	25540.22
508.17	25566.84
508.37	25679.48
508.58	25708.15
508.78	25777.78
508.99	25951.86
509.19	25861.75
509.40	26115.70
509.60	25755.26
509.81	25898.61
510.01	25908.85
510.22	25730.68
510.42	26025.59
510.63	26353.26
510.83	26220.14
511.04	26113.65
511.24	26592.87
511.44	26705.51
511.65	26476.14
511.85	26642.03
512.06	26736.23
512.26	26580.59
512.47	26893.93
512.67	26619.50
512.88	26756.71
513.08	26801.77
513.29	26988.13
513.49	26988.13
513.69	26986.08
513.90	27102.82
514.10	27033.19
514.31	27346.53
514.51	27514.46
514.72	27448.93
514.92	27440.73
515.13	27354.72
515.33	27584.09
515.53	27438.69
515.74	27483.74
515.94	27782.74
516.15	27870.81
516.35	27629.15
516.56	27987.54
516.76	27795.03
516.96	27842.14
517.17	27819.61
517.37	27979.35
517.58	27989.59
517.78	28141.14
517.99	28196.43
518.19	28161.62
518.39	28800.58
518.60	28646.99
518.80	28755.53
519.01	28401.23
519.21	28517.96
519.41	28638.80
519.62	29060.68
519.82	29034.05
520.03	28954.18
520.23	28958.28
520.43	28851.78
520.64	29339.20
520.84	29400.64
521.05	29046.34
521.25	29539.90
521.45	29742.65
521.66	29431.36
521.86	29554.24
522.07	29507.13
522.27	29582.91
522.47	29316.67
522.68	29691.45
522.88	29881.91
523.08	29988.41
523.29	30133.81
523.49	29976.12
523.70	30676.52
523.90	30318.13
524.10	30400.05
524.31	30379.57
524.51	30258.74
524.71	30545.45
524.92	30938.66
525.12	31016.49
525.33	30836.27
525.53	31030.82
525.73	30930.47
525.94	31077.93
526.14	31069.73
526.34	31614.49
526.55	31491.62
526.75	31491.62
526.95	31505.95
527.16	31497.76
527.36	31383.07
527.56	31612.45
527.77	31905.31
527.97	32032.28
528.17	31862.30
528.38	31940.12
528.58	32083.48
528.78	32243.22
528.99	32226.84
529.19	32779.79
529.39	32323.09
529.60	32525.84
529.80	32456.21
530.00	32724.49
530.21	33166.85
530.41	33027.59
530.61	32826.89
530.82	32798.22
531.02	33023.50
531.22	32773.64
531.43	33369.60
531.63	33336.84
531.83	33867.26
532.04	33752.57
532.24	33648.13
532.44	34035.19
532.64	33891.83
532.85	34137.59
533.05	33992.19
533.25	34160.12
533.46	33924.60
533.66	34852.33
533.86	34233.85
534.07	34815.47
534.27	34618.86
534.47	35020.27
534.67	34590.19
534.88	34387.44
535.08	34754.03
535.28	35063.27
535.49	35214.82
535.69	35567.07
535.89	35522.02
536.09	35671.52
536.30	35519.97
536.50	35999.19
536.70	35972.57
536.91	35950.04
537.11	35964.38
537.31	36201.94
537.51	35931.61
537.72	36574.67
537.92	36283.86
538.12	36603.35
538.32	36765.14
538.53	36589.01
538.73	36533.71
538.93	36722.13
539.13	36617.68
539.34	36728.27
539.54	36431.32
539.74	37101.00
539.94	37008.84
540.15	37047.75
540.35	37275.08
540.55	37330.37
540.75	37295.56
540.96	37586.37
541.16	37529.03
541.36	37127.63
541.56	37483.97
541.77	37934.53
541.97	37647.81
542.17	37926.33
542.37	37866.94
542.58	38090.17
542.78	37948.86
542.98	38284.73
543.18	38149.56
543.38	38639.03
543.59	38413.75
543.79	38358.45
543.99	38278.58
544.19	38880.69
544.40	38442.42
544.60	38673.84
544.80	38528.44
545.00	38890.93
545.20	38970.80
545.41	38864.30
545.61	38735.28
545.81	39507.37
546.01	39126.44
546.21	39177.64
546.42	39040.43
546.62	39636.39
546.82	39146.92
547.02	39200.17
547.22	39390.63
547.43	39464.36
547.63	39507.37
547.83	39878.05
548.03	39488.93
548.23	39812.51
548.44	39779.74
548.64	39894.43
548.84	39962.01
549.04	39906.72
549.24	40222.11
549.45	40144.28
549.65	40097.18
549.85	40193.43
550.05	40209.82
550.25	40105.37
550.45	40779.15
550.66	40289.69
550.86	40805.78
551.06	40881.55
551.26	40299.93
551.46	40549.78
551.66	40721.81
551.87	40539.54
552.07	41059.73
552.27	41072.01
552.47	40926.61
552.67	41354.63
552.87	41033.10
553.07	41231.75
553.28	41166.22
553.48	41348.49
553.68	41248.14
553.88	41432.46
554.08	41244.04
554.28	41168.27
554.48	41239.95
554.69	41612.68
554.89	41870.72
555.09	41457.03
555.29	41293.19
555.49	41452.94
555.69	42057.09
555.89	41674.12
556.10	41971.07
556.30	41794.95
556.50	41891.20
556.70	42022.27
556.90	42290.55
557.10	42212.73
557.30	41768.32
557.50	42083.71
557.70	42616.18
557.91	42657.14
558.11	42653.05
558.31	42601.85
558.51	42532.22
558.71	42354.04
558.91	42612.09
559.11	42065.28
559.31	41977.22
559.51	42532.22
559.72	42427.77
559.92	42898.80
560.12	42452.34
560.32	42939.76
560.52	42612.09
560.72	43246.96
560.92	43068.78
561.12	42730.87
561.32	42954.10
561.52	42745.20
561.72	43443.56
561.93	43042.16
562.13	43036.02
562.33	43011.44
562.53	43242.86
562.73	43083.12
562.93	43242.86
563.13	43431.27
563.33	43353.45
563.53	43486.57
563.73	43007.34
563.93	43257.20
564.13	43881.83
564.33	43367.79
564.53	43404.65
564.74	43640.17
564.94	43525.48
565.14	43531.62
565.34	43732.32
565.54	43431.27
565.74	43468.14
565.94	43924.83
566.14	43785.57
566.34	43863.39
566.54	44375.39
566.74	43677.03
566.94	44049.76
567.14	43953.51
567.34	43832.68
567.54	44115.29
567.74	43799.91
567.94	44045.66
568.14	44268.89
568.34	44201.31
568.54	44549.46
568.74	44264.80
568.94	44088.67
569.14	44449.11
569.34	44569.94
569.54	44676.44
569.75	44414.30
569.95	44508.50
570.15	44647.77
570.35	44807.51
570.55	44412.25
570.75	44866.90
570.95	44770.64
571.15	44381.53
571.35	44858.71
571.55	45161.81
571.75	44739.93
571.95	45086.03
572.15	44905.81
572.35	45536.59
572.55	44658.01
572.75	45047.12
572.95	45057.36
573.15	45186.38
573.35	45294.92
573.55	44899.67
573.75	45096.27
573.95	45040.98
574.15	45475.15
574.35	45432.14
574.55	45489.48
574.75	45223.25
574.95	45755.72
575.15	45524.30
575.34	45499.72
575.54	45720.90
575.74	46433.60
575.94	45905.22
576.14	45937.99
576.34	46015.81
576.54	46331.20
576.74	46130.50
576.94	46288.19
577.14	46271.81
577.34	46433.60
577.54	45919.56
577.74	46161.22
577.94	46376.25
578.14	46167.36
578.34	46867.76
578.54	46267.71
578.74	46038.34
578.94	46355.77
579.14	46224.70
579.34	46363.96
579.54	46636.34
579.74	46845.24
579.94	46425.40
580.13	47002.93
580.33	47240.50
580.53	46912.82
580.73	46855.48
580.93	46863.67
581.13	47158.58
581.33	47596.84
581.53	47686.95
581.73	47209.78
581.93	47476.01
582.13	47445.29
582.33	47582.51
582.53	47611.18
582.73	47680.81
582.92	47437.10
583.12	47713.58
583.32	47836.45
583.52	47494.44
583.72	48035.11
583.92	48217.38
584.12	48106.79
584.32	48569.63
584.52	47994.15
584.72	48094.50
584.92	48461.08
585.11	48717.08
585.31	48207.14
585.51	48577.82
585.71	48147.75
585.91	48815.38
586.11	48418.08
586.31	48325.92
586.51	48616.73
586.71	48858.39
586.91	49186.07
587.10	48821.53
587.30	48919.83
587.50	48807.19
587.70	49321.23
587.90	48944.41
588.10	49227.02
588.30	48780.57
588.50	49222.93
