SpectraSuite Data File
++++++++++++++++++++++++++++++++++++
Date: Fri Jun 02 14:51:06 CEST 2017
User: INFO_000
Dark Spectrum Present: No
Reference Spectrum Present: No
Number of Sampled Component Spectra: 1
Spectrometers: USB4H00879
Integration Time (usec): 80000 (USB4H00879)
Spectra Averaged: 1 (USB4H00879)
Boxcar Smoothing: 0 (USB4H00879)
Correct for Electrical Dark: No (USB4H00879)
Strobe/Lamp Enabled: No (USB4H00879)
Correct for Detector Non-linearity: No (USB4H00879)
Correct for Stray Light: No (USB4H00879)
Number of Pixels in Processed Spectrum: 3648
>>>>>Begin Processed Spectral Data<<<<<
345.13	1273.84
345.34	1273.84
345.56	1273.84
345.78	1300.46
345.99	1284.08
346.21	1708.01
346.42	1650.66
346.64	1585.13
346.86	1802.21
347.07	1619.94
347.29	1712.10
347.50	1650.66
347.72	1636.33
347.94	1718.25
348.15	1656.81
348.37	1570.79
348.59	1787.88
348.80	1626.09
349.02	1710.05
349.23	1783.78
349.45	1759.21
349.67	1718.25
349.88	1708.01
350.10	1834.98
350.31	1632.23
350.53	1710.05
350.75	1753.06
350.96	1697.77
351.18	1746.92
351.39	1712.10
351.61	1695.72
351.82	1816.55
352.04	1822.69
352.26	1728.49
352.47	1837.03
352.69	1806.31
352.90	1632.23
353.12	1683.43
353.34	1669.09
353.55	1841.12
353.77	1806.31
353.98	1615.85
354.20	1621.99
354.41	1824.74
354.63	1773.54
354.85	1888.23
355.06	1697.77
355.28	1566.70
355.49	1681.38
355.71	1779.68
355.92	1710.05
356.14	1775.59
356.35	1697.77
356.57	1689.57
356.79	1761.25
357.00	1716.20
357.22	1802.21
357.43	1667.05
357.65	1789.92
357.86	1699.81
358.08	1757.16
358.29	1718.25
358.51	1789.92
358.72	1820.64
358.94	1697.77
359.16	1677.29
359.37	1763.30
359.59	1710.05
359.80	1796.07
360.02	1755.11
360.23	1783.78
360.45	1779.68
360.66	1656.81
360.88	1708.01
361.09	1738.73
361.31	1718.25
361.52	1798.12
361.74	1794.02
361.95	1871.84
362.17	1728.49
362.38	1748.97
362.60	1810.40
362.81	1748.97
363.03	1677.29
363.24	1740.77
363.46	1845.22
363.67	1755.11
363.89	1697.77
364.10	1826.79
364.32	1724.39
364.53	1777.64
364.75	1648.61
364.96	1728.49
365.18	1726.44
365.39	1779.68
365.61	1683.43
365.82	1853.41
366.04	1656.81
366.25	1697.77
366.47	1781.73
366.68	1726.44
366.90	1658.85
367.11	1783.78
367.33	1765.35
367.54	1816.55
367.76	1693.67
367.97	1746.92
368.19	1714.15
368.40	1763.30
368.62	1624.04
368.83	1654.76
369.05	1757.16
369.26	1683.43
369.48	1662.95
369.69	1626.09
369.91	1781.73
370.12	1701.86
370.33	1818.60
370.55	1685.48
370.76	1720.29
370.98	1728.49
371.19	1822.69
371.41	1742.82
371.62	1742.82
371.84	1667.05
372.05	1824.74
372.27	1656.81
372.48	1736.68
372.69	1753.06
372.91	1830.88
373.12	1818.60
373.34	1675.24
373.55	1699.81
373.77	1763.30
373.98	1660.90
374.20	1812.45
374.41	1912.80
374.62	1732.58
374.84	1740.77
375.05	1726.44
375.27	1687.53
375.48	1712.10
375.70	1728.49
375.91	1847.27
376.12	1820.64
376.34	1689.57
376.55	1687.53
376.77	1806.31
376.98	1687.53
377.19	1636.33
377.41	1665.00
377.62	1744.87
377.84	1794.02
378.05	1933.28
378.27	1712.10
378.48	1863.65
378.69	1855.46
378.91	1886.18
379.12	1810.40
379.34	1734.63
379.55	1832.93
379.76	1783.78
379.98	1714.15
380.19	1806.31
380.41	1685.48
380.62	1783.78
380.83	1787.88
381.05	1648.61
381.26	1861.60
381.47	1685.48
381.69	1789.92
381.90	1867.75
382.12	1726.44
382.33	1734.63
382.54	1753.06
382.76	1781.73
382.97	1806.31
383.19	1757.16
383.40	1824.74
383.61	1787.88
383.83	1667.05
384.04	1699.81
384.25	1748.97
384.47	1853.41
384.68	1796.07
384.89	1757.16
385.11	1701.86
385.32	1744.87
385.54	1722.34
385.75	1744.87
385.96	1781.73
386.18	1781.73
386.39	1806.31
386.60	1677.29
386.82	1769.44
387.03	1716.20
387.24	1781.73
387.46	1785.83
387.67	1824.74
387.88	1886.18
388.10	1765.35
388.31	1779.68
388.52	1859.56
388.74	1857.51
388.95	1720.29
389.16	1785.83
389.38	1722.34
389.59	1832.93
389.80	1812.45
390.02	1804.26
390.23	1880.04
390.44	1767.40
390.66	1787.88
390.87	1716.20
391.08	1863.65
391.30	1877.99
391.51	1849.32
391.72	1861.60
391.94	1916.90
392.15	1861.60
392.36	1769.44
392.58	1800.16
392.79	1783.78
393.00	1886.18
393.22	1910.75
393.43	1884.13
393.64	1877.99
393.85	1834.98
394.07	1837.03
394.28	1832.93
394.49	1837.03
394.71	1974.24
394.92	1966.05
395.13	1687.53
395.35	1781.73
395.56	1744.87
395.77	1771.49
395.98	1839.08
396.20	1828.84
396.41	1953.76
396.62	1970.15
396.84	1816.55
397.05	1796.07
397.26	1767.40
397.47	1943.52
397.69	1820.64
397.90	1955.81
398.11	1908.71
398.32	1787.88
398.54	1880.04
398.75	1914.85
398.96	1953.76
399.18	1951.71
399.39	1906.66
399.60	1853.41
399.81	1814.50
400.03	1880.04
400.24	2166.75
400.45	1843.17
400.66	1925.09
400.88	1781.73
401.09	2070.50
401.30	1763.30
401.51	2013.15
401.73	1882.08
401.94	1945.57
402.15	1927.14
402.36	2097.12
402.58	1984.48
402.79	2074.59
403.00	2050.02
403.21	2000.87
403.43	2011.11
403.64	1978.34
403.85	1951.71
404.06	1992.67
404.27	1894.37
404.49	1890.28
404.70	2013.15
404.91	1984.48
405.12	1904.61
405.34	1933.28
405.55	2072.54
405.76	1814.50
405.97	1951.71
406.19	2138.08
406.40	1920.99
406.61	2056.16
406.82	1896.42
407.03	1994.72
407.25	1937.38
407.46	2101.22
407.67	2043.87
407.88	2238.43
408.09	2007.01
408.31	1982.43
408.52	2082.78
408.73	2021.35
408.94	2043.87
409.15	2115.55
409.37	2064.35
409.58	2154.46
409.79	2076.64
410.00	2154.46
410.21	1920.99
410.43	2111.46
410.64	1902.56
410.85	2062.30
411.06	2181.09
411.27	2172.89
411.48	2054.11
411.70	2230.24
411.91	2176.99
412.12	2181.09
412.33	2293.72
412.54	2076.64
412.76	2203.61
412.97	2215.90
413.18	2015.20
413.39	2017.25
413.60	2183.13
413.81	2168.80
414.03	2025.44
414.24	2000.87
414.45	2412.51
414.66	2201.57
414.87	2342.88
415.08	2039.78
415.30	2203.61
415.51	2138.08
415.72	2043.87
415.93	2320.35
416.14	2103.26
416.35	2277.34
416.56	2215.90
416.78	2248.67
416.99	2240.48
417.20	2187.23
417.41	2553.82
417.62	2351.07
417.83	2316.25
418.04	2162.66
418.26	2531.29
418.47	2306.01
418.68	2385.88
418.89	2334.68
419.10	2535.39
419.31	2387.93
419.52	2318.30
419.73	2299.87
419.95	2623.45
420.16	2265.05
420.37	2320.35
420.58	2197.47
420.79	2144.22
421.00	2256.86
421.21	2263.01
421.42	2480.09
421.63	2400.22
421.85	2451.42
422.06	2461.66
422.27	2537.43
422.48	2371.55
422.69	2369.50
422.90	2500.57
423.11	2349.02
423.32	2727.89
423.53	2574.30
423.75	2441.18
423.96	2629.59
424.17	2615.26
424.38	2768.85
424.59	2672.60
424.80	2455.51
425.01	2801.62
425.22	2510.81
425.43	2719.70
425.64	2699.22
425.85	3033.04
426.06	3041.23
426.28	2770.90
426.49	2453.47
426.70	2678.74
426.91	2688.98
427.12	2838.48
427.33	3020.75
427.54	2985.94
427.75	2865.11
427.96	3059.67
428.17	2994.13
428.38	2609.11
428.59	2942.93
428.80	2848.72
429.01	2994.13
429.23	2867.16
429.44	2822.10
429.65	3012.56
429.86	3020.75
430.07	3334.09
430.28	3069.91
430.49	3094.48
430.70	2918.36
430.91	3307.47
431.12	3407.82
431.33	3092.43
431.54	3575.75
431.75	3129.30
431.96	3127.25
432.17	3286.99
432.38	3207.12
432.59	3270.61
432.80	3375.05
433.01	3456.97
433.22	3182.54
433.43	3260.37
433.64	3522.51
433.85	3231.69
434.06	3407.82
434.27	3338.19
434.49	3354.57
434.70	3766.21
434.91	3481.55
435.12	3782.60
435.33	3397.58
435.54	3319.76
435.75	3059.67
435.96	3336.14
436.17	3465.16
436.38	3434.44
436.59	3620.81
436.80	3360.72
437.01	3639.24
437.22	3717.06
437.43	3592.14
437.64	3524.55
437.85	3567.56
438.06	3960.77
438.27	3184.59
438.48	3620.81
438.69	3532.75
438.90	3882.95
439.11	3971.01
439.32	4259.78
439.53	3659.72
439.74	3895.24
439.95	3876.80
440.16	3735.50
440.37	3768.26
440.57	3823.56
440.78	3960.77
440.99	4274.11
441.20	3669.96
441.41	3989.44
441.62	3837.89
441.83	4003.78
442.04	3954.63
442.25	4091.84
442.46	3891.14
442.67	3968.96
442.88	4110.27
443.09	4014.02
443.30	3889.09
443.51	3930.05
443.72	4313.02
443.93	4163.52
444.14	4544.44
444.35	4018.11
444.56	4089.79
444.77	4175.81
444.98	4659.13
445.19	4661.18
445.40	4310.97
445.61	4343.74
445.81	4288.45
446.02	4425.66
446.23	4140.99
446.44	4083.65
446.65	4573.11
446.86	4841.40
447.07	4949.94
447.28	4444.09
447.49	4485.05
447.70	4730.81
447.91	4870.07
448.12	4593.59
448.33	4841.40
448.54	4624.31
448.74	4452.28
448.95	4929.46
449.16	4640.70
449.37	4958.13
449.58	4837.30
449.79	5042.10
450.00	4681.66
450.21	4868.02
450.42	5220.27
450.63	5056.43
450.84	4640.70
451.05	5107.63
451.25	4886.45
451.46	4890.55
451.67	5173.17
451.88	5271.47
452.09	5156.79
452.30	4925.36
452.51	5005.24
452.72	5214.13
452.93	5638.06
453.13	4798.39
453.34	4951.99
453.55	5281.71
453.76	5156.79
453.97	5771.18
454.18	4861.88
454.39	5334.96
454.60	5449.64
454.81	5523.37
455.01	5646.25
455.22	5093.30
455.43	5672.87
455.64	5879.72
455.85	5840.81
456.06	5861.29
456.27	6039.46
456.48	5621.67
456.68	5922.73
456.89	6178.72
457.10	5994.40
457.31	5652.39
457.52	5517.23
457.73	6023.08
457.94	6285.22
458.14	5789.61
458.35	6490.01
458.56	5963.68
458.77	6197.15
458.98	6406.05
459.19	6383.52
459.39	6311.84
459.60	6692.76
459.81	6266.78
460.02	6666.14
460.23	6502.30
460.44	6741.91
460.65	6317.98
460.85	6506.40
461.06	6649.75
461.27	6516.64
461.48	6856.60
461.69	6842.26
461.89	6576.03
462.10	6719.39
462.31	6336.42
462.52	6922.13
462.73	6971.29
462.94	7286.67
463.14	6872.98
463.35	6973.33
463.56	7636.88
463.77	7524.24
463.98	7237.52
464.18	7032.72
464.39	7690.12
464.60	7927.69
464.81	7522.19
465.02	7554.96
465.23	7911.30
465.43	7847.82
465.64	7919.50
465.85	7540.62
466.06	7757.71
466.27	8152.96
466.47	8331.14
466.68	7978.89
466.89	8028.04
467.10	8144.77
467.30	7937.93
467.51	8591.23
467.72	8400.77
467.93	8032.13
468.14	8425.34
468.34	8769.40
468.55	8521.60
468.76	8632.19
468.97	8183.68
469.17	9015.16
469.38	8779.64
469.59	9121.65
469.80	8578.94
470.01	9021.30
470.21	8914.81
470.42	9381.74
470.63	9633.64
470.84	9281.39
471.04	9348.98
471.25	9680.75
471.46	9346.93
471.67	9889.64
471.87	9828.20
472.08	9744.24
472.29	9670.51
472.50	9248.63
472.70	10008.42
472.91	9668.46
473.12	10178.40
473.33	9869.16
473.53	10358.63
473.74	10078.05
473.95	10444.64
474.16	10415.97
474.36	10508.13
474.57	10731.36
474.78	10708.83
474.99	10966.87
475.19	10315.62
475.40	11118.42
475.61	11290.45
475.81	10934.11
476.02	11134.81
476.23	11089.75
476.44	11476.82
476.64	11691.85
476.85	11626.32
477.06	11542.35
477.27	12173.13
477.47	12164.93
477.68	11958.09
477.89	12019.53
478.09	12296.00
478.30	11929.42
478.51	12054.34
478.71	12144.45
478.92	12476.23
479.13	12601.15
479.34	12889.92
479.54	12724.03
479.75	12638.02
479.96	12957.50
480.16	12683.07
480.37	12926.78
480.58	13195.06
480.78	13326.13
480.99	13244.21
481.20	13588.27
481.41	13393.72
481.61	13567.79
481.82	13907.76
482.03	13799.21
482.23	13406.00
482.44	13893.42
482.65	14536.48
482.85	14126.89
483.06	14272.29
483.27	14341.93
483.47	14278.44
483.68	14137.13
483.89	14481.19
484.09	14690.08
484.30	14655.26
484.51	14763.81
484.71	14948.12
484.92	14960.41
485.13	15122.20
485.33	15226.65
485.54	14946.08
485.75	15324.95
485.95	15619.86
486.16	15240.98
486.37	15666.96
486.57	15685.39
486.78	15525.65
486.98	15941.39
487.19	15740.69
487.40	16187.14
487.60	15703.82
487.81	16258.82
488.02	15849.23
488.22	16193.29
488.43	16471.81
488.64	16576.26
488.84	16471.81
489.05	16742.14
489.25	16334.60
489.46	16387.85
489.67	16684.80
489.87	17301.24
490.08	17018.62
490.29	17082.11
490.49	17106.68
490.70	17360.63
490.90	17553.14
491.11	17262.33
491.32	17649.39
491.52	17530.61
491.73	17850.10
491.94	17493.75
492.14	17784.56
492.35	18220.78
492.55	17938.16
492.76	18364.14
492.97	18235.11
493.17	18460.39
493.38	18489.06
493.58	18781.92
493.79	18532.07
494.00	18839.26
494.20	18530.02
494.41	19042.01
494.61	19052.25
494.82	18919.14
495.02	18915.04
495.23	19269.34
495.44	18845.41
495.64	19599.06
495.85	19371.74
496.05	19500.76
496.26	19613.40
496.47	19783.38
496.67	19474.13
496.88	20405.96
497.08	19578.58
497.29	20041.42
497.49	19840.72
497.70	20094.67
497.91	20358.86
498.11	20403.91
498.32	20657.86
498.52	20436.68
498.73	20739.78
498.93	20766.40
499.14	20670.15
499.34	20799.17
499.55	21089.98
499.76	20408.01
499.96	21386.94
500.17	20879.04
500.37	21110.46
500.58	21100.22
500.78	21190.33
500.99	21053.12
501.19	21862.07
501.40	21599.93
501.60	21075.65
501.81	21552.82
502.02	21878.45
502.22	21460.66
502.43	21903.03
502.63	21878.45
502.84	22388.39
503.04	21829.30
503.25	22236.84
503.45	22388.39
503.66	21954.22
503.86	22034.10
504.07	22161.07
504.27	22148.78
504.48	22894.24
504.68	22613.67
504.89	23033.50
505.09	22656.68
505.30	22595.24
505.50	22922.91
505.71	22851.24
505.91	23287.45
506.12	22834.85
506.32	22824.61
506.53	22898.34
506.73	23391.90
506.94	23352.99
507.14	23117.47
507.35	23490.20
507.55	23260.83
507.76	23592.60
507.96	23570.07
508.17	23629.46
508.37	23762.58
508.58	24002.19
508.78	23998.10
508.99	24397.45
509.19	24022.67
509.40	24000.15
509.60	24264.33
509.81	24161.94
510.01	24288.91
510.22	23973.52
510.42	24399.50
510.63	24731.27
510.83	24233.61
511.04	24514.19
511.24	24950.40
511.44	24458.89
511.65	25142.91
511.85	24499.85
512.06	24735.37
512.26	25167.49
512.47	24970.88
512.67	25237.12
512.88	24827.53
513.08	25134.72
513.29	25413.24
513.49	24884.87
513.69	25200.26
513.90	25261.69
514.10	25609.85
514.31	25558.65
514.51	25599.61
514.72	25624.18
514.92	25587.32
515.13	25974.39
515.33	25679.48
515.53	25822.84
515.74	25884.28
515.94	26041.97
516.15	26461.80
516.35	25806.45
516.56	26578.54
516.76	25845.37
516.96	26599.02
517.17	26844.77
517.37	26058.35
517.58	26508.91
517.78	26359.41
517.99	26750.57
518.19	27014.76
518.39	26832.49
518.60	27219.55
518.80	27111.01
519.01	27301.47
519.21	26932.84
519.41	27543.13
519.62	27151.97
519.82	27321.95
520.03	27534.94
520.23	27534.94
520.43	27403.87
520.64	28218.96
520.84	27747.93
521.05	27493.98
521.25	27934.29
521.45	28014.16
521.66	28083.80
521.86	27946.58
522.07	28057.17
522.27	28264.02
522.47	28323.41
522.68	28368.46
522.88	28458.57
523.08	29331.01
523.29	28341.84
523.49	28857.93
523.70	28902.98
523.90	29269.57
524.10	28991.05
524.31	28874.31
524.51	28943.94
524.71	29060.68
524.92	29204.03
525.12	29398.59
525.33	29042.24
525.53	29566.52
525.73	29894.20
525.94	29972.02
526.14	29974.07
526.34	30019.13
526.55	29742.65
526.75	30185.01
526.95	30305.84
527.16	30105.14
527.36	30273.07
527.56	30852.65
527.77	30938.66
527.97	30639.66
528.17	30352.94
528.38	31022.63
528.58	30746.15
528.78	31069.73
528.99	30903.85
529.19	31577.63
529.39	30676.52
529.60	31202.85
529.80	31258.15
530.00	31360.55
530.21	31819.29
530.41	32222.74
530.61	32056.85
530.82	32024.09
531.02	31634.97
531.22	32241.17
531.43	32247.32
531.63	32486.93
531.83	32384.53
532.04	33072.65
532.24	32804.36
532.44	33164.81
532.64	32697.87
532.85	33060.36
533.05	33115.65
533.25	33043.98
533.46	32826.89
533.66	33756.67
533.86	32939.53
534.07	33846.78
534.27	33193.48
534.47	33633.79
534.67	33947.13
534.88	33175.05
535.08	34166.26
535.28	34375.16
535.49	34102.78
535.69	34620.91
535.89	34438.64
536.09	34452.98
536.30	34225.65
536.50	34516.47
536.70	34442.74
536.91	34313.72
537.11	34915.82
537.31	35218.92
537.51	35145.19
537.72	35327.46
537.92	35116.52
538.12	35464.67
538.32	35206.63
538.53	35386.85
538.73	35218.92
538.93	35116.52
539.13	35321.32
539.34	35714.53
539.54	35657.18
539.74	36218.33
539.94	35833.31
540.15	35524.07
540.35	36283.86
540.55	35904.99
540.75	35769.82
540.96	36115.93
541.16	36646.35
541.36	36335.06
541.56	36134.36
541.77	36625.87
541.97	36447.70
542.17	36378.07
542.37	36822.48
542.58	36584.91
542.78	36632.02
542.98	36804.05
543.18	37098.95
543.38	37389.77
543.59	37465.54
543.79	36861.39
543.99	37117.39
544.19	37094.86
544.40	37008.84
544.60	37553.60
544.80	38041.02
545.00	37135.82
545.20	37696.96
545.41	37615.04
545.61	37352.90
545.81	37885.37
546.01	38137.27
546.21	37860.80
546.42	37582.27
546.62	38036.92
546.82	37690.82
547.02	38235.58
547.22	38352.31
547.43	38139.32
547.63	38442.42
547.83	38233.53
548.03	38032.83
548.23	38413.75
548.44	38350.26
548.64	38626.74
548.84	38657.46
549.04	38327.74
549.24	38614.45
549.45	38954.41
549.65	38694.32
549.85	38802.86
550.05	38770.10
550.25	38761.90
550.45	39439.78
550.66	38784.43
550.86	38925.74
551.06	39060.91
551.26	39280.04
551.46	38933.93
551.66	39142.83
551.87	39257.51
552.07	39130.54
552.27	39259.56
552.47	39359.91
552.67	39634.34
552.87	39390.63
553.07	39450.02
553.28	39409.06
553.48	39632.29
553.68	39585.19
553.88	39935.39
554.08	39343.53
554.28	39828.90
554.48	39265.70
554.69	39511.46
554.89	39564.71
555.09	40088.99
555.29	39607.72
555.49	39628.20
555.69	40031.65
555.89	39878.05
556.10	40048.03
556.30	40291.74
556.50	39878.05
556.70	39712.16
556.90	40252.83
557.10	40154.52
557.30	39863.71
557.50	40377.75
557.70	40191.39
557.91	40138.14
558.11	40465.81
558.31	40140.19
558.51	40660.37
558.71	40603.03
558.91	40605.08
559.11	40295.83
559.31	40246.68
559.51	40156.57
559.72	40443.29
559.92	40277.40
560.12	40265.11
560.32	40770.96
560.52	40344.98
560.72	40486.29
560.92	40687.00
561.12	40789.39
561.32	41403.78
561.52	40633.75
561.72	41039.25
561.93	40529.30
562.13	40975.76
562.33	40510.87
562.53	41321.87
562.73	40736.15
562.93	40928.66
563.13	41301.39
563.33	40762.77
563.53	41276.81
563.73	40850.83
563.93	41268.62
564.13	41407.88
564.33	41221.52
564.53	41338.25
564.74	41309.58
564.94	40826.26
565.14	41301.39
565.34	41049.49
565.54	41381.26
565.74	41418.12
565.94	41694.60
566.14	41350.54
566.34	41516.42
566.54	41796.99
566.74	41248.14
566.94	41751.94
567.14	41719.17
567.34	41414.02
567.54	41686.40
567.74	42012.03
567.94	41532.81
568.14	42081.66
568.34	42130.81
568.54	42009.98
568.74	42012.03
568.94	42026.37
569.14	42157.44
569.34	42331.51
569.54	41850.24
569.75	42005.89
569.95	42337.66
570.15	42751.35
570.35	42511.74
570.55	42157.44
570.75	42241.40
570.95	42532.22
571.15	42726.77
571.35	42177.92
571.55	42747.25
571.75	42812.79
571.95	42927.47
572.15	42653.05
572.35	42827.12
572.55	42442.10
572.75	42724.72
572.95	42687.86
573.15	43046.26
573.35	42673.52
573.55	42534.26
573.75	42691.96
573.95	43066.73
574.15	42685.81
574.35	43169.13
574.55	42904.95
574.75	42716.53
574.95	43242.86
575.15	42857.84
575.34	43103.60
575.54	43447.66
575.74	43656.55
575.94	43292.01
576.14	43283.82
576.34	43558.25
576.54	43627.88
576.74	43779.43
576.94	43562.34
577.14	44193.12
577.34	44240.22
577.54	43685.22
577.74	43668.84
577.94	43982.18
578.14	44203.36
578.34	44154.21
578.54	43734.37
578.74	44209.50
578.94	44510.55
579.14	44066.14
579.34	43976.03
579.54	44467.55
579.74	44453.21
579.94	44490.07
580.13	44690.77
580.33	44283.23
580.53	44840.28
580.73	44746.07
580.93	44621.14
581.13	44367.20
581.33	44916.05
581.53	45088.08
581.73	45251.92
581.93	45151.57
582.13	45278.54
582.33	45176.14
582.53	45241.68
582.73	45485.39
582.92	45489.48
583.12	45778.25
583.32	45540.68
583.52	45382.99
583.72	45735.24
583.92	45397.32
584.12	45927.75
584.32	46323.01
584.52	45690.18
584.72	46134.59
584.92	46159.17
585.11	46067.01
585.31	46075.20
585.51	46566.71
585.71	45925.70
585.91	46515.51
586.11	45888.84
586.31	46423.36
586.51	46443.84
586.71	46402.88
586.91	46990.64
587.10	46708.02
587.30	46896.44
587.50	46843.19
587.70	46718.26
587.90	47183.15
588.10	47166.77
588.30	46859.57
588.50	47408.43
588.69	46888.24
588.89	47314.22
