SpectraSuite Data File
++++++++++++++++++++++++++++++++++++
Date: Fri Jun 02 14:51:11 CEST 2017
User: INFO_000
Dark Spectrum Present: No
Reference Spectrum Present: No
Number of Sampled Component Spectra: 1
Spectrometers: USB4H00879
Integration Time (usec): 80000 (USB4H00879)
Spectra Averaged: 1 (USB4H00879)
Boxcar Smoothing: 0 (USB4H00879)
Correct for Electrical Dark: No (USB4H00879)
Strobe/Lamp Enabled: No (USB4H00879)
Correct for Detector Non-linearity: No (USB4H00879)
Correct for Stray Light: No (USB4H00879)
Number of Pixels in Processed Spectrum: 3648
>>>>>Begin Processed Spectral Data<<<<<
345.13	1286.12
345.34	1286.12
345.56	1286.12
345.78	1325.04
345.99	1308.65
346.21	1726.44
346.42	1732.58
346.64	1652.71
346.86	1867.75
347.07	1681.38
347.29	1693.67
347.50	1595.37
347.72	1728.49
347.94	1724.39
348.15	1560.55
348.37	1599.46
348.59	1736.68
348.80	1611.75
349.02	1775.59
349.23	1841.12
349.45	1763.30
349.67	1957.86
349.88	1798.12
350.10	1925.09
350.31	1886.18
350.53	1822.69
350.75	1898.47
350.96	1818.60
351.18	1802.21
351.39	1837.03
351.61	1771.49
351.82	1863.65
352.04	1939.43
352.26	1822.69
352.47	2009.06
352.69	1853.41
352.90	1761.25
353.12	1839.08
353.34	1802.21
353.55	1914.85
353.77	1857.51
353.98	1877.99
354.20	1779.68
354.41	1947.62
354.63	1949.67
354.85	2084.83
355.06	1904.61
355.28	1783.78
355.49	1886.18
355.71	1939.43
355.92	1791.97
356.14	1945.57
356.35	1914.85
356.57	1820.64
356.79	1953.76
357.00	1882.08
357.22	1918.95
357.43	1804.26
357.65	1959.91
357.86	1882.08
358.08	1902.56
358.29	1898.47
358.51	1990.63
358.72	1980.39
358.94	1996.77
359.16	1976.29
359.37	1875.94
359.59	1955.81
359.80	1988.58
360.02	1920.99
360.23	2043.87
360.45	1961.95
360.66	1955.81
360.88	1847.27
361.09	1884.13
361.31	2101.22
361.52	1937.38
361.74	2107.36
361.95	2084.83
362.17	1970.15
362.38	2131.94
362.60	2027.49
362.81	1939.43
363.03	1873.89
363.24	2004.96
363.46	2039.78
363.67	1972.19
363.89	2066.40
364.10	2017.25
364.32	2041.82
364.53	1966.05
364.75	1914.85
364.96	1964.00
365.18	2017.25
365.39	1996.77
365.61	1923.04
365.82	2111.46
366.04	1966.05
366.25	2023.39
366.47	2062.30
366.68	2076.64
366.90	1857.51
367.11	2023.39
367.33	2068.45
367.54	2095.07
367.76	1998.82
367.97	2111.46
368.19	2099.17
368.40	2054.11
368.62	1931.23
368.83	1920.99
369.05	2025.44
369.26	1961.95
369.48	1945.57
369.69	2019.30
369.91	2123.74
370.12	2056.16
370.33	2043.87
370.55	1984.48
370.76	2011.11
370.98	2047.97
371.19	2074.59
371.41	2086.88
371.62	2142.18
371.84	2054.11
372.05	2195.42
372.27	2066.40
372.48	2058.21
372.69	2121.70
372.91	2215.90
373.12	2095.07
373.34	2189.28
373.55	2174.94
373.77	2144.22
373.98	2066.40
374.20	2162.66
374.41	2226.14
374.62	2062.30
374.84	2146.27
375.05	2187.23
375.27	2144.22
375.48	2164.70
375.70	2148.32
375.91	2220.00
376.12	2303.96
376.34	2158.56
376.55	2127.84
376.77	2207.71
376.98	2152.42
377.19	2154.46
377.41	2144.22
377.62	2238.43
377.84	2271.20
378.05	2271.20
378.27	2111.46
378.48	2265.05
378.69	2344.92
378.91	2220.00
379.12	2267.10
379.34	2232.29
379.55	2371.55
379.76	2234.33
379.98	2232.29
380.19	2220.00
380.41	2244.57
380.62	2299.87
380.83	2267.10
381.05	2213.85
381.26	2414.56
381.47	2222.05
381.69	2211.81
381.90	2408.41
382.12	2242.53
382.33	2220.00
382.54	2332.64
382.76	2383.84
382.97	2338.78
383.19	2260.96
383.40	2381.79
383.61	2344.92
383.83	2265.05
384.04	2316.25
384.25	2318.30
384.47	2430.94
384.68	2363.36
384.89	2140.13
385.11	2293.72
385.32	2363.36
385.54	2367.45
385.75	2344.92
385.96	2457.56
386.18	2308.06
386.39	2377.69
386.60	2371.55
386.82	2406.36
387.03	2441.18
387.24	2478.04
387.46	2412.51
387.67	2453.47
387.88	2519.00
388.10	2420.70
388.31	2475.99
388.52	2541.53
388.74	2459.61
388.95	2482.14
389.16	2478.04
389.38	2469.85
389.59	2629.59
389.80	2582.49
390.02	2541.53
390.23	2572.25
390.44	2543.58
390.66	2510.81
390.87	2506.71
391.08	2594.78
391.30	2623.45
391.51	2557.91
391.72	2617.30
391.94	2670.55
392.15	2596.82
392.36	2627.54
392.58	2584.54
392.79	2717.65
393.00	2703.32
393.22	2686.94
393.43	2746.33
393.64	2795.48
393.85	2664.41
394.07	2645.98
394.28	2686.94
394.49	2818.00
394.71	2727.89
394.92	2863.06
395.13	2715.61
395.35	2701.27
395.56	2697.17
395.77	2701.27
395.98	2795.48
396.20	2828.24
396.41	2893.78
396.62	2770.90
396.84	2805.72
397.05	2840.53
397.26	2871.25
397.47	2977.75
397.69	2801.62
397.90	2985.94
398.11	2881.49
398.32	2842.58
398.54	2879.44
398.75	2967.51
398.96	2807.77
399.18	2971.60
399.39	2904.02
399.60	3037.14
399.81	2885.59
400.03	2973.65
400.24	3211.22
400.45	3065.81
400.66	3078.10
400.88	2992.08
401.09	3235.79
401.30	2971.60
401.51	3186.64
401.73	3180.50
401.94	3037.14
402.15	3045.33
402.36	3176.40
402.58	3055.57
402.79	3090.38
403.00	3164.11
403.21	3190.74
403.43	3293.13
403.64	3192.78
403.85	3055.57
404.06	3172.30
404.27	2965.46
404.49	3162.06
404.70	3010.51
404.91	3194.83
405.12	3205.07
405.34	3264.46
405.55	3327.95
405.76	3129.30
405.97	3254.22
406.19	3467.21
406.40	3250.13
406.61	3313.61
406.82	3330.00
407.03	3286.99
407.25	3262.41
407.46	3272.65
407.67	3448.78
407.88	3481.55
408.09	3393.48
408.31	3336.14
408.52	3346.38
408.73	3352.52
408.94	3313.61
409.15	3381.20
409.37	3383.24
409.58	3516.36
409.79	3469.26
410.00	3530.70
410.21	3434.44
410.43	3407.82
410.64	3456.97
410.85	3487.69
411.06	3538.89
411.27	3555.27
411.48	3624.90
411.70	3659.72
411.91	3465.16
412.12	3579.85
412.33	3581.90
412.54	3600.33
412.76	3649.48
412.97	3788.74
413.18	3555.27
413.39	3616.71
413.60	3729.35
413.81	3637.19
414.03	3526.60
414.24	3639.24
414.45	3696.58
414.66	3530.70
414.87	3704.78
415.08	3712.97
415.30	3739.59
415.51	3715.02
415.72	3753.93
415.93	3768.26
416.14	3858.37
416.35	3747.78
416.56	3780.55
416.78	3856.33
416.99	3784.65
417.20	3760.07
417.41	3919.81
417.62	3760.07
417.83	3928.00
418.04	3895.24
418.26	3897.28
418.47	3798.98
418.68	3995.59
418.89	3887.04
419.10	3997.64
419.31	3893.19
419.52	4140.99
419.73	4126.66
419.95	4081.60
420.16	3844.04
420.37	4050.88
420.58	3930.05
420.79	3960.77
421.00	4069.31
421.21	4077.51
421.42	4140.99
421.63	3983.30
421.85	4042.69
422.06	4173.76
422.27	4159.42
422.48	4184.00
422.69	4327.36
422.90	4120.51
423.11	4104.13
423.32	4212.67
423.53	4349.89
423.75	4247.49
423.96	4384.70
424.17	4419.52
424.38	4476.86
424.59	4407.23
424.80	4472.76
425.01	4396.99
425.22	4349.89
425.43	4442.04
425.64	4732.86
425.85	4632.51
426.06	4435.90
426.28	4478.91
426.49	4401.08
426.70	4407.23
426.91	4624.31
427.12	4571.07
427.33	4497.34
427.54	4548.54
427.75	4560.83
427.96	4689.85
428.17	4921.27
428.38	4759.48
428.59	4698.04
428.80	4726.71
429.01	4677.56
429.23	4820.92
429.44	4923.32
429.65	4964.28
429.86	4923.32
430.07	4898.74
430.28	4904.89
430.49	4876.21
430.70	5031.86
430.91	5177.26
431.12	4929.46
431.33	5113.78
431.54	4999.09
431.75	4962.23
431.96	5060.53
432.17	5144.50
432.38	5033.91
432.59	5457.84
432.80	5214.13
433.01	5203.89
433.22	5300.14
433.43	5349.29
433.64	5263.28
433.85	5234.61
434.06	5367.73
434.27	5148.59
434.49	5250.99
434.70	5580.71
434.91	5316.53
435.12	5429.17
435.33	5392.30
435.54	5566.38
435.75	5263.28
435.96	5357.49
436.17	5277.62
436.38	5410.73
436.59	5582.76
436.80	5484.46
437.01	5713.83
437.22	5648.30
437.43	5746.60
437.64	5550.00
437.85	5650.35
438.06	5801.90
438.27	5597.10
438.48	5713.83
438.69	5746.60
438.90	5703.59
439.11	5644.20
439.32	5828.52
439.53	5812.14
439.74	5762.98
439.95	5795.75
440.16	5797.80
440.37	5808.04
440.57	5586.86
440.78	5914.53
440.99	5937.06
441.20	5879.72
441.41	5853.09
441.62	5971.88
441.83	5824.42
442.04	5996.45
442.25	6074.28
442.46	5990.31
442.67	6160.29
442.88	6406.05
443.09	5902.25
443.30	6059.94
443.51	6195.11
443.72	6379.42
443.93	6049.70
444.14	6344.61
444.35	6051.75
444.56	6231.97
444.77	6305.70
444.98	6389.66
445.19	6418.33
445.40	6326.18
445.61	6209.44
445.81	6389.66
446.02	6438.81
446.23	6483.87
446.44	6199.20
446.65	6406.05
446.86	6393.76
447.07	6528.92
447.28	6698.91
447.49	6678.43
447.70	6514.59
447.91	6672.28
448.12	6610.84
448.33	6598.56
448.54	6627.23
448.74	6573.98
448.95	6696.86
449.16	6653.85
449.37	6956.95
449.58	6664.09
449.79	6911.89
450.00	6643.61
450.21	6999.96
450.42	6928.28
450.63	6850.46
450.84	7014.29
451.05	6954.90
451.25	6848.41
451.46	6913.94
451.67	7106.45
451.88	7298.96
452.09	7065.49
452.30	7090.07
452.51	7124.88
452.72	7292.82
452.93	7454.61
453.13	7073.68
453.34	7126.93
453.55	7253.91
453.76	7219.09
453.97	7516.05
454.18	7276.43
454.39	7440.27
454.60	7350.16
454.81	7380.88
455.01	7602.06
455.22	7282.58
455.43	7534.48
455.64	7763.85
455.85	7884.68
456.06	7964.55
456.27	7776.14
456.48	7585.68
456.68	7802.76
456.89	7907.21
457.10	7982.98
457.31	7878.54
457.52	7958.41
457.73	7884.68
457.94	8398.72
458.14	8025.99
458.35	8341.38
458.56	8030.09
458.77	8152.96
458.98	8365.95
459.19	8251.27
459.39	8298.37
459.60	8580.99
459.81	8259.46
460.02	8636.28
460.23	8544.13
460.44	8804.22
460.65	8378.24
460.85	8724.35
461.06	8497.02
461.27	8449.92
461.48	8718.20
461.69	8994.68
461.89	8396.67
462.10	8951.67
462.31	8886.14
462.52	8683.39
462.73	8925.05
462.94	9029.49
463.14	8920.95
463.35	8986.49
463.56	9490.29
463.77	9346.93
463.98	9060.21
464.18	9260.91
464.39	9353.07
464.60	9672.56
464.81	9451.38
465.02	9318.26
465.23	9750.38
465.43	9504.62
465.64	9559.92
465.85	9617.26
466.06	9598.83
466.27	9916.26
466.47	9903.98
466.68	9899.88
466.89	10049.38
467.10	10129.25
467.30	9785.19
467.51	10266.47
467.72	10340.19
467.93	10010.47
468.14	10327.91
468.34	10493.79
468.55	10504.03
468.76	10422.11
468.97	10346.34
469.17	10596.19
469.38	10547.04
469.59	10858.33
469.80	10680.16
470.01	10751.84
470.21	10780.51
470.42	11126.61
470.63	11224.92
470.84	11052.89
471.04	10942.30
471.25	11036.50
471.46	11151.19
471.67	11452.24
471.87	11204.44
472.08	11485.01
472.29	11648.85
472.50	11525.97
472.70	11491.15
472.91	11652.94
473.12	12019.53
473.33	11943.75
473.53	12191.56
473.74	12179.27
473.95	12257.09
474.16	12289.86
474.36	12322.63
474.57	12332.87
474.78	12545.86
474.99	12322.63
475.19	12564.29
475.40	12762.94
475.61	12951.35
475.81	12830.52
476.02	13051.70
476.23	12941.11
476.44	13240.12
476.64	13477.68
476.85	13541.17
477.06	13498.16
477.27	13782.83
477.47	13666.10
477.68	13762.35
477.89	13729.58
478.09	13643.57
478.30	13989.67
478.51	13834.03
478.71	14022.44
478.92	14085.93
479.13	14366.50
479.34	14386.98
479.54	14378.79
479.75	14405.41
479.96	14647.07
480.16	14718.75
480.37	14645.02
480.58	14976.80
480.78	15044.38
480.99	14888.73
481.20	15273.75
481.41	15249.18
481.61	15607.57
481.82	15525.65
482.03	15419.16
482.23	15472.40
482.44	15703.82
482.65	15861.52
482.85	15828.75
483.06	15888.14
483.27	15918.86
483.47	16045.84
483.68	16156.43
483.89	16307.98
484.09	16305.93
484.30	16234.25
484.51	16566.02
484.71	16625.41
484.92	16643.84
485.13	16914.17
485.33	17073.92
485.54	17004.28
485.75	17227.51
485.95	17381.11
486.16	17442.55
486.37	17571.57
486.57	17303.29
486.78	17317.62
486.98	17538.80
487.19	17555.19
487.40	17923.82
487.60	18118.38
487.81	18149.10
488.02	17940.21
488.22	17991.41
488.43	18173.67
488.64	18425.57
488.84	18294.50
489.05	18597.60
489.25	18464.49
489.46	18888.42
489.67	18652.90
489.87	18919.14
490.08	18929.38
490.29	19076.83
490.49	19343.06
490.70	19316.44
490.90	19445.46
491.11	19437.27
491.32	19502.81
491.52	19525.33
491.73	19736.27
491.94	19590.87
492.14	20078.29
492.35	19951.31
492.55	20082.38
492.76	20233.93
492.97	20201.16
493.17	20012.75
493.38	20602.57
493.58	20358.86
493.79	20569.80
494.00	20805.31
494.20	20559.56
494.41	20778.69
494.61	20881.09
494.82	21212.86
495.02	21104.32
495.23	21198.52
495.44	21327.55
495.64	21747.38
495.85	21466.81
496.05	21522.10
496.26	21464.76
496.47	21610.17
496.67	21790.39
496.88	21896.88
497.08	21860.02
497.29	22234.80
497.49	22009.52
497.70	22097.58
497.91	22355.63
498.11	22331.05
498.32	22433.45
498.52	22435.50
498.73	22468.27
498.93	22308.52
499.14	22761.12
499.34	22791.84
499.55	22965.92
499.76	22806.18
499.96	23238.30
500.17	22879.91
500.37	23125.66
500.58	23228.06
500.78	23328.41
500.99	23469.72
501.19	23557.78
501.40	23393.95
501.60	23234.21
501.81	23559.83
502.02	23565.98
502.22	23408.28
502.43	23756.44
502.63	23940.75
502.84	24123.02
503.04	24254.09
503.25	24055.44
503.45	23881.36
503.66	24432.27
503.86	24247.95
504.07	24544.91
504.27	24374.92
504.48	24577.67
504.68	24682.12
504.89	24708.74
505.09	24905.35
505.30	24626.82
505.50	24688.26
505.71	25046.66
505.91	24790.66
506.12	25071.23
506.32	24874.63
506.53	25024.13
506.73	25089.67
506.94	25386.62
507.14	25425.53
507.35	25374.33
507.55	25423.48
507.76	25484.92
507.96	25519.74
508.17	25482.88
508.37	25638.52
508.58	25386.62
508.78	25833.08
508.99	26025.59
509.19	25874.04
509.40	25978.48
509.60	25665.14
509.81	26027.63
510.01	26322.54
510.22	26168.94
510.42	26285.68
510.63	26599.02
510.83	26216.05
511.04	26318.45
511.24	26457.71
511.44	26320.49
511.65	26713.70
511.85	26537.58
512.06	26818.15
512.26	26492.52
512.47	26594.92
512.67	26680.94
512.88	26865.25
513.08	26470.00
513.29	27004.52
513.49	26769.00
513.69	27055.72
513.90	27346.53
514.10	27215.46
514.31	27360.86
514.51	27227.74
514.72	27453.02
514.92	27483.74
515.13	27682.39
515.33	27487.84
515.53	27485.79
515.74	27553.37
515.94	27846.23
516.15	27571.80
516.35	27385.44
516.56	27786.84
516.76	27641.43
516.96	27768.41
517.17	28229.20
517.37	28008.02
517.58	28003.92
517.78	28106.32
517.99	28257.87
518.19	28155.47
518.39	28485.20
518.60	28649.03
518.80	28429.90
519.01	28315.22
519.21	28663.37
519.41	28714.57
519.62	28513.87
519.82	28780.10
520.03	28841.54
520.23	28786.25
520.43	29079.11
520.64	29029.96
520.84	29419.07
521.05	29195.84
521.25	29470.27
521.45	29298.24
521.66	29632.06
521.86	29519.42
522.07	29507.13
522.27	29425.22
522.47	29771.32
522.68	29914.68
522.88	29840.95
523.08	29931.06
523.29	30144.05
523.49	30021.17
523.70	30279.22
523.90	30135.86
524.10	30254.64
524.31	30502.45
524.51	30465.58
524.71	30752.30
524.92	30703.15
525.12	30848.55
525.33	30518.83
525.53	31225.38
525.73	31342.11
525.94	30799.40
526.14	30969.38
526.34	31116.84
526.55	31315.49
526.75	31264.29
526.95	31368.74
527.16	31473.18
527.36	31407.65
527.56	31694.36
527.77	31976.98
527.97	31716.89
528.17	31933.98
528.38	32091.67
528.58	32183.83
528.78	31974.94
528.99	32208.40
529.19	32605.71
529.39	32146.97
529.60	32738.83
529.80	32693.77
530.00	32427.54
530.21	32704.01
530.41	32964.10
530.61	32867.85
530.82	33015.30
531.02	32775.69
531.22	33312.26
531.43	33234.44
531.63	33455.62
531.83	33684.99
532.04	34223.61
532.24	33465.86
532.44	33906.17
532.64	33811.96
532.85	34205.17
533.05	33975.80
533.25	34043.38
533.46	34098.68
533.66	34506.23
533.86	34518.51
534.07	34815.47
534.27	34737.65
534.47	34878.96
534.67	34735.60
534.88	34588.14
535.08	34727.41
535.28	35030.51
535.49	35349.99
535.69	35374.56
535.89	35038.70
536.09	35323.36
536.30	35638.75
536.50	35333.60
536.70	36126.17
536.91	35818.97
537.11	36251.09
537.31	35671.52
537.51	35722.72
537.72	36474.32
537.92	36193.75
538.12	36672.98
538.32	35886.56
538.53	36511.19
538.73	36017.63
538.93	36511.19
539.13	36658.64
539.34	36640.21
539.54	36656.59
539.74	37187.02
539.94	37068.23
540.15	36703.70
540.35	36795.85
540.55	37135.82
540.75	37172.68
540.96	37189.06
541.16	37316.04
541.36	37410.25
541.56	37692.86
541.77	37801.41
541.97	37676.48
542.17	37981.63
542.37	37967.29
542.58	38057.40
542.78	38116.79
542.98	38081.98
543.18	38323.64
543.38	38569.40
543.59	38305.21
543.79	38309.30
543.99	38553.01
544.19	38489.52
544.40	38499.76
544.60	38899.12
544.80	38712.75
545.00	38966.70
545.20	39386.54
545.41	38649.27
545.61	38731.18
545.81	39337.38
546.01	39312.81
546.21	39296.42
546.42	38923.69
546.62	39198.12
546.82	39249.32
547.02	39067.05
547.22	39417.25
547.43	39208.36
547.63	39773.60
547.83	39634.34
548.03	39789.98
548.23	40275.35
548.44	39601.57
548.64	40000.93
548.84	40201.63
549.04	39814.56
549.24	39984.54
549.45	40537.49
549.65	39988.64
549.85	40183.19
550.05	40379.80
550.25	40105.37
550.45	40754.58
550.66	40512.92
550.86	40250.78
551.06	40410.52
551.26	40652.18
551.46	41233.80
551.66	40942.99
551.87	40566.16
552.07	41207.18
552.27	40840.59
552.47	41022.86
552.67	41205.13
552.87	40689.04
553.07	40926.61
553.28	41115.02
553.48	41338.25
553.68	41172.36
553.88	41411.98
554.08	41291.15
554.28	41557.38
554.48	41684.36
554.69	41575.81
554.89	41371.02
555.09	41295.24
555.29	41377.16
555.49	41698.69
555.69	41969.02
555.89	41549.19
556.10	41899.39
556.30	41770.37
556.50	42329.47
556.70	41760.13
556.90	41831.81
557.10	42120.57
557.30	41952.64
557.50	42163.58
557.70	42321.27
557.91	42374.52
558.11	42155.39
558.31	42399.10
558.51	42112.38
558.71	42669.43
558.91	42292.60
559.11	42708.34
559.31	42380.67
559.51	42485.11
559.72	42675.57
559.92	42755.44
560.12	42560.89
560.32	43052.40
560.52	42431.86
560.72	43058.54
560.92	42780.02
561.12	42763.64
561.32	43494.76
561.52	43025.78
561.72	43173.23
561.93	42679.67
562.13	42974.58
562.33	42632.57
562.53	43378.03
562.73	42878.32
562.93	43216.24
563.13	43060.59
563.33	43339.11
563.53	43490.66
563.73	43378.03
563.93	43720.04
564.13	43769.19
564.33	43412.84
564.53	43781.48
564.74	43658.60
564.94	43339.11
565.14	43650.41
565.34	43476.33
565.54	43799.91
565.74	43847.01
565.94	44090.72
566.14	43359.59
566.34	43980.13
566.54	43826.53
566.74	43863.39
566.94	44168.54
567.14	43697.51
567.34	44100.96
567.54	44000.61
567.74	43910.50
567.94	44019.04
568.14	44299.61
568.34	44268.89
568.54	44541.27
568.74	43969.89
568.94	44014.94
569.14	44647.77
569.34	44154.21
569.54	44737.88
569.75	44078.43
569.95	44658.01
570.15	44641.62
570.35	44961.11
570.55	44711.25
570.75	44627.29
570.95	44723.54
571.15	44754.26
571.35	45002.07
571.55	44911.95
571.75	44979.54
571.95	44875.09
572.15	44707.16
572.35	44959.06
572.55	45040.98
572.75	44836.18
572.95	44885.33
573.15	45299.02
573.35	45204.81
573.55	44989.78
573.75	45120.85
573.95	45645.13
574.15	45036.88
574.35	45784.39
574.55	45628.74
574.75	45454.67
574.95	45368.65
575.15	45512.01
575.34	45815.11
575.54	45856.07
575.74	45948.23
575.94	45929.80
576.14	45829.44
576.34	46230.85
576.54	46339.39
576.74	46079.30
576.94	45960.51
577.14	46466.36
577.34	46546.23
577.54	46081.34
577.74	46224.70
577.94	46062.91
578.14	46601.53
578.34	46818.61
578.54	46044.48
578.74	46271.81
578.94	47170.86
579.14	46329.15
579.34	46898.48
579.54	46832.95
579.74	46816.57
579.94	46882.10
580.13	46947.64
580.33	46693.69
580.53	47076.66
580.73	47174.96
580.93	46990.64
581.13	47574.31
581.33	47361.33
581.53	47256.88
581.73	47338.80
581.93	47574.31
582.13	47590.70
582.33	47600.94
582.53	47463.72
582.73	47691.05
582.92	47592.75
583.12	47838.50
583.32	47932.71
583.52	47764.78
583.72	47783.21
583.92	47842.60
584.12	47973.67
584.32	48358.69
584.52	47801.64
584.72	48143.65
584.92	48149.79
585.11	48213.28
585.31	48325.92
585.51	48510.24
585.71	48332.06
585.91	48694.55
586.11	48719.13
586.31	48028.96
586.51	48428.32
586.71	48809.24
586.91	48424.22
587.10	48735.51
587.30	48989.46
587.50	48938.26
587.70	49259.79
587.90	48985.36
588.10	49237.26
588.30	49460.49
588.50	49102.10
