SpectraSuite Data File
++++++++++++++++++++++++++++++++++++
Date: Fri Jun 02 14:51:11 CEST 2017
User: INFO_000
Dark Spectrum Present: No
Reference Spectrum Present: No
Number of Sampled Component Spectra: 1
Spectrometers: USB4H00879
Integration Time (usec): 80000 (USB4H00879)
Spectra Averaged: 1 (USB4H00879)
Boxcar Smoothing: 0 (USB4H00879)
Correct for Electrical Dark: No (USB4H00879)
Strobe/Lamp Enabled: No (USB4H00879)
Correct for Detector Non-linearity: No (USB4H00879)
Correct for Stray Light: No (USB4H00879)
Number of Pixels in Processed Spectrum: 3648
>>>>>Begin Processed Spectral Data<<<<<
345.13	1239.02
345.34	1239.02
345.56	1239.02
345.78	1273.84
345.99	1220.59
346.21	1695.72
346.42	1662.95
346.64	1581.03
346.86	1716.20
347.07	1632.23
347.29	1712.10
347.50	1591.27
347.72	1667.05
347.94	1802.21
348.15	1662.95
348.37	1634.28
348.59	1656.81
348.80	1669.09
349.02	1816.55
349.23	1783.78
349.45	1820.64
349.67	1925.09
349.88	1851.36
350.10	1916.90
350.31	1800.16
350.53	1812.45
350.75	1916.90
350.96	1751.01
351.18	1834.98
351.39	1871.84
351.61	1781.73
351.82	1910.75
352.04	1974.24
352.26	1863.65
352.47	1853.41
352.69	1916.90
352.90	1765.35
353.12	1853.41
353.34	1800.16
353.55	1869.80
353.77	1918.95
353.98	1875.94
354.20	1906.66
354.41	1947.62
354.63	1939.43
354.85	2017.25
355.06	1896.42
355.28	1718.25
355.49	1877.99
355.71	1861.60
355.92	1884.13
356.14	1955.81
356.35	1877.99
356.57	1927.14
356.79	1970.15
357.00	1880.04
357.22	1953.76
357.43	1855.46
357.65	1941.47
357.86	1814.50
358.08	1931.23
358.29	1937.38
358.51	1982.43
358.72	1972.19
358.94	1955.81
359.16	1945.57
359.37	1961.95
359.59	1886.18
359.80	1964.00
360.02	1920.99
360.23	2004.96
360.45	2043.87
360.66	1935.33
360.88	1855.46
361.09	2035.68
361.31	1982.43
361.52	2011.11
361.74	2052.06
361.95	2138.08
362.17	1918.95
362.38	2060.26
362.60	2076.64
362.81	1982.43
363.03	1972.19
363.24	1951.71
363.46	2076.64
363.67	1980.39
363.89	2007.01
364.10	2004.96
364.32	1982.43
364.53	2027.49
364.75	1961.95
364.96	2160.61
365.18	2037.73
365.39	1980.39
365.61	1996.77
365.82	2162.66
366.04	2068.45
366.25	1984.48
366.47	2076.64
366.68	2015.20
366.90	1974.24
367.11	2113.50
367.33	2090.98
367.54	2123.74
367.76	1951.71
367.97	2039.78
368.19	2025.44
368.40	2123.74
368.62	1923.04
368.83	1927.14
369.05	2113.50
369.26	2004.96
369.48	2050.02
369.69	2000.87
369.91	1978.34
370.12	2000.87
370.33	2144.22
370.55	1994.72
370.76	2015.20
370.98	2152.42
371.19	2019.30
371.41	2011.11
371.62	2107.36
371.84	1974.24
372.05	2070.50
372.27	2052.06
372.48	2111.46
372.69	2097.12
372.91	2189.28
373.12	2195.42
373.34	2136.03
373.55	2156.51
373.77	2125.79
373.98	2045.92
374.20	2109.41
374.41	2215.90
374.62	2121.70
374.84	2152.42
375.05	2103.26
375.27	2176.99
375.48	2138.08
375.70	2234.33
375.91	2230.24
376.12	2301.92
376.34	2140.13
376.55	2148.32
376.77	2168.80
376.98	2109.41
377.19	2129.89
377.41	2181.09
377.62	2095.07
377.84	2230.24
378.05	2289.63
378.27	2166.75
378.48	2330.59
378.69	2420.70
378.91	2422.75
379.12	2328.54
379.34	2285.53
379.55	2246.62
379.76	2230.24
379.98	2236.38
380.19	2236.38
380.41	2203.61
380.62	2279.39
380.83	2197.47
381.05	2316.25
381.26	2408.41
381.47	2267.10
381.69	2162.66
381.90	2371.55
382.12	2310.11
382.33	2242.53
382.54	2267.10
382.76	2279.39
382.97	2256.86
383.19	2252.77
383.40	2369.50
383.61	2287.58
383.83	2359.26
384.04	2342.88
384.25	2385.88
384.47	2379.74
384.68	2293.72
384.89	2301.92
385.11	2306.01
385.32	2330.59
385.54	2400.22
385.75	2371.55
385.96	2420.70
386.18	2455.51
386.39	2424.80
386.60	2385.88
386.82	2457.56
387.03	2363.36
387.24	2410.46
387.46	2420.70
387.67	2506.71
387.88	2523.10
388.10	2449.37
388.31	2369.50
388.52	2584.54
388.74	2529.24
388.95	2459.61
389.16	2523.10
389.38	2482.14
389.59	2555.86
389.80	2613.21
390.02	2570.20
390.23	2717.65
390.44	2498.52
390.66	2502.62
390.87	2451.42
391.08	2582.49
391.30	2666.46
391.51	2682.84
391.72	2656.22
391.94	2582.49
392.15	2576.34
392.36	2576.34
392.58	2496.47
392.79	2680.79
393.00	2648.02
393.22	2715.61
393.43	2699.22
393.64	2711.51
393.85	2797.53
394.07	2605.02
394.28	2715.61
394.49	2805.72
394.71	2754.52
394.92	2795.48
395.13	2785.24
395.35	2736.09
395.56	2658.26
395.77	2674.65
395.98	2766.81
396.20	2760.66
396.41	2797.53
396.62	2861.01
396.84	2781.14
397.05	2832.34
397.26	2838.48
397.47	2883.54
397.69	2834.39
397.90	2863.06
398.11	2893.78
398.32	2842.58
398.54	2854.87
398.75	2883.54
398.96	2936.79
399.18	3065.81
399.39	2973.65
399.60	3047.38
399.81	2836.44
400.03	2793.43
400.24	3227.60
400.45	2811.86
400.66	2932.69
400.88	3014.61
401.09	3164.11
401.30	2922.45
401.51	3119.06
401.73	2998.23
401.94	3121.10
402.15	3135.44
402.36	3147.73
402.58	3030.99
402.79	3151.82
403.00	3043.28
403.21	3094.48
403.43	3260.37
403.64	3289.04
403.85	3043.28
404.06	3190.74
404.27	3203.02
404.49	3203.02
404.70	3153.87
404.91	3276.75
405.12	3311.57
405.34	3260.37
405.55	3375.05
405.76	3166.16
405.97	3151.82
406.19	3272.65
406.40	3223.50
406.61	3334.09
406.82	3268.56
407.03	3239.89
407.25	3160.02
407.46	3286.99
407.67	3379.15
407.88	3422.16
408.09	3205.07
408.31	3301.33
408.52	3280.85
408.73	3315.66
408.94	3385.29
409.15	3395.53
409.37	3438.54
409.58	3553.23
409.79	3502.03
410.00	3547.08
410.21	3432.40
410.43	3434.44
410.64	3305.42
410.85	3479.50
411.06	3502.03
411.27	3510.22
411.48	3651.53
411.70	3575.75
411.91	3454.92
412.12	3536.84
412.33	3633.10
412.54	3555.27
412.76	3768.26
412.97	3680.20
413.18	3553.23
413.39	3596.23
413.60	3669.96
413.81	3667.91
414.03	3645.38
414.24	3547.08
414.45	3858.37
414.66	3514.31
414.87	3758.02
415.08	3715.02
415.30	3588.04
415.51	3747.78
415.72	3704.78
415.93	3755.97
416.14	3710.92
416.35	3749.83
416.56	3829.70
416.78	3764.17
416.99	3798.98
417.20	3928.00
417.41	3727.30
417.62	3833.80
417.83	3864.52
418.04	3729.35
418.26	4022.21
418.47	3764.17
418.68	3932.10
418.89	3993.54
419.10	4147.14
419.31	3952.58
419.52	4028.35
419.73	3975.11
419.95	4024.26
420.16	3917.76
420.37	3932.10
420.58	4046.79
420.79	4048.83
421.00	4061.12
421.21	4034.50
421.42	4007.87
421.63	4073.41
421.85	3997.64
422.06	4120.51
422.27	4116.42
422.48	4214.72
422.69	4157.38
422.90	4194.24
423.11	4206.53
423.32	4286.40
423.53	4427.71
423.75	4220.86
423.96	4296.64
424.17	4399.04
424.38	4468.67
424.59	4341.69
424.80	4575.16
425.01	4419.52
425.22	4362.17
425.43	4429.76
425.64	4566.97
425.85	4544.44
426.06	4517.82
426.28	4509.63
426.49	4532.15
426.70	4353.98
426.91	4523.96
427.12	4583.35
427.33	4558.78
427.54	4493.24
427.75	4689.85
427.96	4794.29
428.17	4644.79
428.38	4788.15
428.59	4833.21
428.80	4804.53
429.01	4732.86
429.23	4833.21
429.44	4972.47
429.65	4849.59
429.86	4956.08
430.07	4724.66
430.28	4829.11
430.49	4972.47
430.70	5107.63
430.91	4990.90
431.12	4933.56
431.33	5009.33
431.54	5216.18
431.75	5048.24
431.96	5121.97
432.17	5003.19
432.38	5214.13
432.59	5298.10
432.80	5183.41
433.01	5250.99
433.22	5216.18
433.43	5142.45
433.64	5220.27
433.85	5119.92
434.06	5222.32
434.27	5158.83
434.49	5234.61
434.70	5484.46
434.91	5564.33
435.12	5367.73
435.33	5439.40
435.54	5420.97
435.75	5308.34
435.96	5341.10
436.17	5228.46
436.38	5627.82
436.59	5703.59
436.80	5595.05
437.01	5695.40
437.22	5750.70
437.43	5568.43
437.64	5343.15
437.85	5703.59
438.06	5638.06
438.27	5744.55
438.48	5648.30
438.69	5849.00
438.90	5922.73
439.11	5779.37
439.32	5892.01
439.53	5849.00
439.74	5785.51
439.95	5640.11
440.16	5734.31
440.37	5767.08
440.57	5734.31
440.78	5926.82
440.99	5930.92
441.20	5883.81
441.41	5930.92
441.62	5803.94
441.83	5826.47
442.04	5998.50
442.25	6023.08
442.46	6072.23
442.67	6053.80
442.88	6340.51
443.09	5992.36
443.30	5996.45
443.51	6197.15
443.72	6305.70
443.93	6057.89
444.14	6334.37
444.35	6166.43
444.56	6365.09
444.77	6326.18
444.98	6324.13
445.19	6309.79
445.40	6379.42
445.61	6174.63
445.81	6342.56
446.02	6301.60
446.23	6328.22
446.44	6125.47
446.65	6467.49
446.86	6533.02
447.07	6512.54
447.28	6680.47
447.49	6694.81
447.70	6508.44
447.91	6629.27
448.12	6590.36
448.33	6604.70
448.54	6713.24
448.74	6547.36
448.95	6832.02
449.16	6516.64
449.37	6926.23
449.58	6684.57
449.79	6883.22
450.00	6596.51
450.21	6901.65
450.42	6877.08
450.63	6905.75
450.84	6907.80
451.05	7055.25
451.25	6752.15
451.46	6915.99
451.67	7143.32
451.88	6983.57
452.09	7288.72
452.30	6936.47
452.51	7024.53
452.72	7192.47
452.93	7518.09
453.13	6975.38
453.34	7178.13
453.55	7321.49
453.76	7425.93
453.97	7585.68
454.18	7391.12
454.39	7493.52
454.60	7382.93
454.81	7491.47
455.01	7546.76
455.22	7212.95
455.43	7446.41
455.64	7763.85
455.85	7794.57
456.06	7847.82
456.27	7692.17
456.48	7673.74
456.68	7815.05
456.89	7901.06
457.10	7993.22
457.31	7798.66
457.52	7767.95
457.73	8007.56
457.94	8081.28
458.14	7942.02
458.35	8310.66
458.56	8206.21
458.77	8028.04
458.98	8286.08
459.19	8269.70
459.39	8329.09
459.60	8562.56
459.81	8173.44
460.02	8578.94
460.23	8548.22
460.44	8599.42
460.65	8740.73
460.85	8656.76
461.06	8611.71
461.27	8605.56
461.48	8855.42
461.69	8984.44
461.89	8443.78
462.10	8966.01
462.31	8718.20
462.52	8855.42
462.73	8931.19
462.94	9185.14
463.14	9009.01
463.35	9088.89
463.56	9381.74
463.77	9199.48
463.98	9117.56
464.18	9240.44
464.39	9301.87
464.60	9545.58
464.81	9328.50
465.02	9326.45
465.23	9779.05
465.43	9551.73
465.64	9777.00
465.85	9799.53
466.06	9699.18
466.27	9934.70
466.47	9965.42
466.68	9963.37
466.89	9940.84
467.10	10219.36
467.30	10043.24
467.51	10155.88
467.72	10452.83
467.93	9961.32
468.14	10305.38
468.34	10383.20
468.55	10452.83
468.76	10393.44
468.97	10481.50
469.17	10547.04
469.38	10762.08
469.59	10727.26
469.80	10512.22
470.01	10624.86
470.21	10887.00
470.42	10958.68
470.63	11138.90
470.84	10798.94
471.04	11280.21
471.25	11263.83
471.46	11069.27
471.67	11710.29
471.87	11292.50
472.08	11341.65
472.29	11779.92
472.50	11255.64
472.70	11521.87
472.91	11558.74
473.12	11755.34
473.33	12001.10
473.53	12103.50
473.74	12007.24
473.95	12052.30
474.16	12166.98
474.36	12171.08
474.57	12457.79
474.78	12701.50
474.99	12390.21
475.19	12355.40
475.40	12891.96
475.61	12816.19
475.81	12779.32
476.02	13154.10
476.23	12863.29
476.44	13039.42
476.64	13285.17
476.85	13618.99
477.06	13324.08
477.27	13676.34
477.47	13649.71
477.68	13723.44
477.89	13840.17
478.09	13657.90
478.30	13893.42
478.51	13987.63
478.71	13956.91
478.92	14196.52
479.13	14194.47
479.34	14489.38
479.54	14638.88
479.75	14579.49
479.96	14288.68
480.16	14677.79
480.37	14665.50
480.58	14903.07
480.78	15214.36
480.99	15390.49
481.20	15183.64
481.41	15413.01
481.61	15216.41
481.82	15486.74
482.03	15562.51
482.23	15417.11
482.44	15793.94
482.65	15818.51
482.85	15955.72
483.06	15748.88
483.27	16006.92
483.47	16158.47
483.68	16269.06
483.89	16307.98
484.09	16076.55
484.30	16406.28
484.51	16498.44
484.71	16903.93
484.92	16666.37
485.13	17125.11
485.33	16697.09
485.54	16893.69
485.75	17432.31
485.95	17166.07
486.16	17323.77
486.37	17420.02
486.57	17336.06
486.78	17223.42
486.98	17630.96
487.19	17948.40
487.40	17876.72
487.60	17811.18
487.81	17964.78
488.02	17925.87
488.22	18079.47
488.43	18218.73
488.64	18312.94
488.84	18550.50
489.05	18718.43
489.25	18487.01
489.46	18810.59
489.67	18710.24
489.87	18919.14
490.08	18970.33
490.29	18878.18
490.49	19334.87
490.70	19361.50
490.90	19328.73
491.11	19392.22
491.32	19840.72
491.52	19449.56
491.73	19883.73
491.94	19588.82
492.14	19689.17
492.35	19959.50
492.55	20104.91
492.76	20141.77
492.97	20068.05
493.17	20684.48
493.38	20137.68
493.58	20571.85
493.79	20690.63
494.00	20520.65
494.20	20907.71
494.41	20469.45
494.61	20946.62
494.82	21106.37
495.02	21089.98
495.23	21190.33
495.44	21202.62
495.64	21651.13
495.85	21300.92
496.05	21595.83
496.26	21466.81
496.47	21710.52
496.67	21356.22
496.88	21755.57
497.08	21589.69
497.29	22238.89
497.49	21978.80
497.70	22009.52
497.91	22214.32
498.11	22290.09
498.32	22468.27
498.52	22259.37
498.73	22769.32
498.93	22478.50
499.14	22906.53
499.34	22910.63
499.55	22994.59
499.76	23080.61
499.96	23066.27
500.17	22927.01
500.37	23111.33
500.58	22906.53
500.78	23160.48
500.99	23258.78
501.19	23457.43
501.40	23557.78
501.60	23391.90
501.81	23502.49
502.02	23557.78
502.22	23371.42
502.43	23645.85
502.63	23850.64
502.84	23844.50
503.04	24123.02
503.25	24104.59
503.45	24196.75
503.66	24227.47
503.86	24053.39
504.07	24645.26
504.27	24217.23
504.48	24850.05
504.68	24407.69
504.89	24641.16
505.09	24731.27
505.30	24499.85
505.50	24938.12
505.71	25032.32
505.91	24841.86
506.12	24938.12
506.32	24934.02
506.53	25261.69
506.73	25046.66
506.94	25398.91
507.14	25304.70
507.35	25423.48
507.55	25525.88
507.76	25419.39
507.96	25032.32
508.17	25478.78
508.37	25562.75
508.58	25935.48
508.78	25874.04
508.99	26150.51
509.19	25996.92
509.40	25900.66
509.60	26070.64
509.81	26050.16
510.01	25826.93
510.22	26144.37
510.42	26338.93
510.63	26760.81
510.83	26336.88
511.04	26324.59
511.24	26586.73
511.44	26443.37
511.65	26357.36
511.85	26539.63
512.06	26695.27
512.26	26826.34
512.47	26791.53
512.67	26668.65
512.88	26752.62
513.08	26676.84
513.29	27348.57
513.49	26439.28
513.69	26977.89
513.90	26967.65
514.10	27055.72
514.31	27252.32
514.51	27360.86
514.72	27018.85
514.92	27117.15
515.13	27405.92
515.33	27635.29
515.53	27690.59
515.74	27623.00
515.94	27879.00
516.15	27608.67
516.35	27729.50
516.56	27807.32
516.76	28038.74
516.96	27922.01
517.17	28192.34
517.37	27962.97
517.58	27889.24
517.78	27958.87
517.99	28106.32
518.19	28096.08
518.39	28468.81
518.60	28632.65
518.80	28333.65
519.01	28347.98
519.21	28438.09
519.41	28493.39
519.62	28724.81
519.82	28610.12
520.03	28874.31
520.23	28823.11
520.43	28943.94
520.64	29386.30
520.84	29619.77
521.05	29234.75
521.25	29322.82
521.45	29355.58
521.66	29539.90
521.86	29343.30
522.07	29589.05
522.27	29771.32
522.47	29427.26
522.68	30049.85
522.88	30142.00
523.08	30142.00
523.29	30058.04
523.49	30133.81
523.70	29939.26
523.90	30457.39
524.10	30217.78
524.31	30494.25
524.51	30305.84
524.71	30694.96
524.92	30692.91
525.12	30924.33
525.33	30475.82
525.53	31252.00
525.73	31041.06
525.94	31329.83
526.14	31165.99
526.34	31237.67
526.55	31118.89
526.75	31354.40
526.95	31475.23
527.16	31381.03
527.36	31360.55
527.56	31802.91
527.77	32069.14
527.97	31628.83
528.17	31888.92
528.38	32265.75
528.58	32187.92
528.78	32204.31
528.99	32075.29
529.19	32310.80
529.39	32001.56
529.60	32476.69
529.80	32648.72
530.00	32499.22
530.21	32851.47
530.41	32699.92
530.61	32927.24
530.82	32925.19
531.02	32925.19
531.22	33129.99
531.43	33041.93
531.63	33515.01
531.83	33678.85
532.04	33986.04
532.24	33854.97
532.44	33670.65
532.64	34020.86
532.85	33990.14
533.05	34016.76
533.25	34338.29
533.46	34233.85
533.66	34389.49
533.86	34268.66
534.07	34493.94
534.27	34428.40
534.47	35012.07
534.67	35173.86
534.88	34997.74
535.08	34762.22
535.28	34975.21
535.49	35085.80
535.69	35421.67
535.89	35171.82
536.09	35579.36
536.30	35433.96
536.50	35692.00
536.70	35732.96
536.91	35462.63
537.11	35788.25
537.31	36122.07
537.51	35845.60
537.72	36378.07
537.92	36050.39
538.12	36580.82
538.32	36382.16
538.53	36369.88
538.73	36179.42
538.93	36572.63
539.13	36728.27
539.34	36990.41
539.54	36662.74
539.74	37096.91
539.94	36546.00
540.15	36824.53
540.35	36828.62
540.55	37119.43
540.75	37266.89
540.96	37518.79
541.16	37490.12
541.36	37676.48
541.56	37623.23
541.77	37836.22
541.97	37668.29
542.17	37856.70
542.37	37977.53
542.58	38127.03
542.78	38051.26
542.98	38071.74
543.18	38186.43
543.38	38346.17
543.59	38397.37
543.79	38368.69
543.99	38544.82
544.19	38731.18
544.40	38694.32
544.60	38698.42
544.80	38620.59
545.00	38471.09
545.20	39228.84
545.41	38862.26
545.61	39060.91
545.81	39257.51
546.01	39290.28
546.21	38981.04
546.42	39226.79
546.62	39337.38
546.82	39163.31
547.02	39300.52
547.22	39447.97
547.43	39089.58
547.63	39722.40
547.83	39683.49
548.03	39519.65
548.23	39703.97
548.44	39908.77
548.64	39982.49
548.84	39708.07
549.04	40043.93
549.24	40109.47
549.45	40242.59
549.65	39835.04
549.85	39863.71
550.05	40134.04
550.25	40086.94
550.45	40725.91
550.66	40754.58
550.86	40400.28
551.06	40744.34
551.26	41115.02
551.46	40643.99
551.66	40965.52
551.87	40431.00
552.07	40768.91
552.27	40912.27
552.47	41219.47
552.67	41018.77
552.87	41108.88
553.07	40949.14
553.28	41389.45
553.48	41008.53
553.68	41366.92
553.88	41590.15
554.08	41328.01
554.28	41276.81
554.48	41338.25
554.69	41672.07
554.89	41876.86
555.09	41225.61
555.29	41158.03
555.49	41686.40
555.69	41971.07
555.89	41825.67
556.10	41936.26
556.30	41721.22
556.50	41946.50
556.70	41782.66
556.90	42065.28
557.10	42083.71
557.30	41921.92
557.50	42530.17
557.70	42499.45
557.91	42384.76
558.11	42265.98
558.31	42638.71
558.51	42212.73
558.71	42517.88
558.91	42282.36
559.11	42476.92
559.31	42585.46
559.51	42388.86
559.72	42306.94
559.92	42831.22
560.12	42829.17
560.32	42392.95
560.52	42403.19
560.72	43029.87
560.92	42653.05
561.12	42972.53
561.32	43103.60
561.52	42671.48
561.72	43066.73
561.93	42902.90
562.13	43132.27
562.33	42605.94
562.53	43373.93
562.73	42911.09
562.93	42945.90
563.13	43531.62
563.33	43187.56
563.53	43363.69
563.73	43042.16
563.93	43566.44
564.13	43570.54
564.33	43623.78
564.53	43578.73
564.74	43582.82
564.94	42851.70
565.14	43394.41
565.34	43429.23
565.54	43556.20
565.74	43742.56
565.94	44311.90
566.14	43922.79
566.34	43552.10
566.54	43963.75
566.74	43328.87
566.94	44178.78
567.14	44014.94
567.34	43644.26
567.54	43914.59
567.74	43937.12
567.94	43982.18
568.14	44272.99
568.34	44627.29
568.54	44324.19
568.74	44375.39
568.94	44287.32
569.14	44897.62
569.34	44442.97
569.54	44500.31
569.75	44805.46
569.95	44522.84
570.15	45139.28
570.35	44567.90
570.55	44770.64
570.75	44653.91
570.95	44854.61
571.15	44879.19
571.35	44850.52
571.55	45004.11
571.75	44729.69
571.95	45219.15
572.15	44954.96
572.35	44903.76
572.55	44805.46
572.75	44930.39
572.95	45178.19
573.15	45331.79
573.35	45206.86
573.55	44658.01
573.75	45180.24
573.95	45090.13
574.15	45182.29
574.35	45213.01
574.55	45104.46
574.75	45315.40
574.95	45761.86
575.15	45069.65
575.34	45743.43
575.54	45817.16
575.74	46120.26
575.94	45913.41
576.14	45598.02
576.34	46263.61
576.54	46099.78
576.74	45925.70
576.94	46282.05
577.14	46323.01
577.34	46521.66
577.54	45442.38
577.74	46511.42
577.94	46470.46
578.14	46449.98
578.34	46576.95
578.54	45884.74
578.74	46472.51
578.94	46454.08
579.14	46370.11
579.34	46576.95
579.54	46757.17
579.74	47013.17
579.94	47234.35
580.13	46894.39
580.33	47029.55
580.53	46884.15
580.73	47142.19
580.93	46656.82
581.13	47340.85
581.33	47287.60
581.53	47611.18
581.73	47289.65
581.93	47437.10
582.13	47539.50
582.33	47699.24
582.53	47617.32
582.73	47523.11
582.92	47416.62
583.12	47725.86
583.32	47736.10
583.52	47469.87
583.72	47826.21
583.92	47807.78
584.12	47949.09
584.32	48348.45
584.52	48207.14
584.72	48307.49
584.92	48225.57
585.11	48837.91
585.31	48250.14
585.51	48244.00
585.71	48110.88
585.91	48639.26
586.11	48274.72
586.31	48160.03
586.51	48164.13
586.71	48799.00
586.91	49095.95
587.10	48446.75
587.30	49059.09
587.50	48739.61
587.70	48805.14
587.90	49030.42
588.10	49003.80
588.30	48712.98
588.50	49243.41
