SpectraSuite Data File
++++++++++++++++++++++++++++++++++++
Date: Fri Jun 02 14:51:11 CEST 2017
User: INFO_000
Dark Spectrum Present: No
Reference Spectrum Present: No
Number of Sampled Component Spectra: 1
Spectrometers: USB4H00879
Integration Time (usec): 80000 (USB4H00879)
Spectra Averaged: 1 (USB4H00879)
Boxcar Smoothing: 0 (USB4H00879)
Correct for Electrical Dark: No (USB4H00879)
Strobe/Lamp Enabled: No (USB4H00879)
Correct for Detector Non-linearity: No (USB4H00879)
Correct for Stray Light: No (USB4H00879)
Number of Pixels in Processed Spectrum: 3648
>>>>>Begin Processed Spectral Data<<<<<
345.13	1249.26
345.34	1249.26
345.56	1249.26
345.78	1271.79
345.99	1222.64
346.21	1685.48
346.42	1710.05
346.64	1658.85
346.86	1794.02
347.07	1646.57
347.29	1783.78
347.50	1617.90
347.72	1689.57
347.94	1740.77
348.15	1662.95
348.37	1644.52
348.59	1718.25
348.80	1689.57
349.02	1755.11
349.23	1884.13
349.45	1806.31
349.67	1861.60
349.88	1753.06
350.10	2009.06
350.31	1814.50
350.53	1794.02
350.75	1957.86
350.96	1787.88
351.18	1791.97
351.39	1894.37
351.61	1773.54
351.82	1951.71
352.04	1869.80
352.26	1802.21
352.47	1886.18
352.69	1990.63
352.90	1738.73
353.12	1888.23
353.34	1796.07
353.55	2029.54
353.77	1896.42
353.98	1865.70
354.20	1777.64
354.41	1916.90
354.63	1841.12
354.85	2007.01
355.06	1880.04
355.28	1800.16
355.49	1871.84
355.71	1894.37
355.92	1894.37
356.14	1935.33
356.35	1865.70
356.57	1812.45
356.79	1888.23
357.00	1918.95
357.22	1976.29
357.43	1822.69
357.65	1933.28
357.86	1824.74
358.08	1947.62
358.29	1925.09
358.51	1968.10
358.72	1990.63
358.94	1945.57
359.16	1925.09
359.37	1892.32
359.59	1914.85
359.80	1986.53
360.02	1931.23
360.23	1902.56
360.45	1998.82
360.66	1896.42
360.88	1904.61
361.09	1863.65
361.31	1984.48
361.52	1918.95
361.74	1978.34
361.95	2060.26
362.17	1888.23
362.38	2072.54
362.60	2023.39
362.81	1990.63
363.03	1925.09
363.24	1992.67
363.46	2025.44
363.67	2017.25
363.89	1972.19
364.10	2027.49
364.32	1974.24
364.53	2109.41
364.75	1949.67
364.96	2039.78
365.18	2054.11
365.39	2023.39
365.61	1990.63
365.82	2164.70
366.04	1998.82
366.25	1966.05
366.47	2142.18
366.68	2072.54
366.90	1964.00
367.11	2074.59
367.33	2105.31
367.54	2023.39
367.76	2015.20
367.97	2011.11
368.19	1974.24
368.40	2076.64
368.62	1951.71
368.83	2015.20
369.05	2076.64
369.26	1937.38
369.48	1941.47
369.69	2015.20
369.91	2039.78
370.12	2029.54
370.33	2193.37
370.55	2000.87
370.76	1935.33
370.98	2080.74
371.19	2080.74
371.41	2074.59
371.62	2084.83
371.84	2041.82
372.05	2160.61
372.27	2146.27
372.48	2123.74
372.69	2033.63
372.91	2211.81
373.12	2080.74
373.34	2136.03
373.55	2154.46
373.77	2213.85
373.98	2185.18
374.20	2176.99
374.41	2314.20
374.62	2146.27
374.84	2154.46
375.05	2166.75
375.27	2172.89
375.48	2146.27
375.70	2246.62
375.91	2230.24
376.12	2236.38
376.34	2195.42
376.55	2097.12
376.77	2230.24
376.98	2213.85
377.19	2127.84
377.41	2168.80
377.62	2133.98
377.84	2232.29
378.05	2287.58
378.27	2125.79
378.48	2240.48
378.69	2389.98
378.91	2338.78
379.12	2189.28
379.34	2181.09
379.55	2271.20
379.76	2191.33
379.98	2203.61
380.19	2275.29
380.41	2205.66
380.62	2256.86
380.83	2215.90
381.05	2222.05
381.26	2385.88
381.47	2174.94
381.69	2281.44
381.90	2306.01
382.12	2400.22
382.33	2211.81
382.54	2220.00
382.76	2283.49
382.97	2273.25
383.19	2287.58
383.40	2369.50
383.61	2344.92
383.83	2217.95
384.04	2250.72
384.25	2303.96
384.47	2365.40
384.68	2346.97
384.89	2320.35
385.11	2306.01
385.32	2351.07
385.54	2369.50
385.75	2377.69
385.96	2324.44
386.18	2365.40
386.39	2375.64
386.60	2344.92
386.82	2334.68
387.03	2308.06
387.24	2551.77
387.46	2478.04
387.67	2502.62
387.88	2451.42
388.10	2469.85
388.31	2527.19
388.52	2574.30
388.74	2428.89
388.95	2478.04
389.16	2564.06
389.38	2496.47
389.59	2600.92
389.80	2555.86
390.02	2420.70
390.23	2596.82
390.44	2564.06
390.66	2494.43
390.87	2510.81
391.08	2525.15
391.30	2637.78
391.51	2631.64
391.72	2670.55
391.94	2650.07
392.15	2623.45
392.36	2648.02
392.58	2568.15
392.79	2596.82
393.00	2695.13
393.22	2688.98
393.43	2809.81
393.64	2813.91
393.85	2713.56
394.07	2670.55
394.28	2734.04
394.49	2777.05
394.71	2775.00
394.92	2881.49
395.13	2617.30
395.35	2713.56
395.56	2713.56
395.77	2815.96
395.98	2858.96
396.20	2885.59
396.41	2842.58
396.62	2815.96
396.84	2891.73
397.05	2766.81
397.26	2922.45
397.47	2922.45
397.69	2822.10
397.90	3059.67
398.11	2871.25
398.32	2793.43
398.54	2772.95
398.75	2811.86
398.96	2944.98
399.18	3098.58
399.39	3016.66
399.60	2951.12
399.81	2969.55
400.03	2934.74
400.24	3205.07
400.45	2981.84
400.66	3090.38
400.88	3024.85
401.09	3178.45
401.30	3037.14
401.51	3104.72
401.73	3149.78
401.94	3061.71
402.15	3088.34
402.36	3100.62
402.58	3237.84
402.79	3205.07
403.00	3149.78
403.21	3205.07
403.43	3137.49
403.64	3291.09
403.85	3125.20
404.06	3162.06
404.27	3194.83
404.49	3119.06
404.70	3141.58
404.91	3205.07
405.12	3321.81
405.34	3221.45
405.55	3358.67
405.76	3151.82
405.97	3223.50
406.19	3352.52
406.40	3133.39
406.61	3260.37
406.82	3264.46
407.03	3305.42
407.25	3286.99
407.46	3426.25
407.67	3354.57
407.88	3508.17
408.09	3430.35
408.31	3370.96
408.52	3409.87
408.73	3319.76
408.94	3325.90
409.15	3413.96
409.37	3463.12
409.58	3477.45
409.79	3497.93
410.00	3461.07
410.21	3473.36
410.43	3370.96
410.64	3426.25
410.85	3547.08
411.06	3411.92
411.27	3540.94
411.48	3669.96
411.70	3573.71
411.91	3456.97
412.12	3690.44
412.33	3469.26
412.54	3614.66
412.76	3686.34
412.97	3608.52
413.18	3499.98
413.39	3690.44
413.60	3708.87
413.81	3600.33
414.03	3510.22
414.24	3573.71
414.45	3817.41
414.66	3590.09
414.87	3723.21
415.08	3751.88
415.30	3712.97
415.51	3696.58
415.72	3831.75
415.93	3815.37
416.14	3753.93
416.35	3747.78
416.56	3758.02
416.78	3817.41
416.99	3778.50
417.20	3905.48
417.41	3780.55
417.62	3735.50
417.83	3944.39
418.04	3755.97
418.26	3948.48
418.47	3907.52
418.68	4038.59
418.89	3981.25
419.10	4108.23
419.31	3936.20
419.52	3995.59
419.73	3981.25
419.95	3977.16
420.16	3989.44
420.37	4011.97
420.58	4009.92
420.79	3821.51
421.00	4022.21
421.21	4032.45
421.42	4091.84
421.63	4188.10
421.85	4065.22
422.06	4163.52
422.27	4124.61
422.48	4167.62
422.69	4206.53
422.90	4319.17
423.11	4157.38
423.32	4220.86
423.53	4319.17
423.75	4288.45
423.96	4423.61
424.17	4458.43
424.38	4458.43
424.59	4470.72
424.80	4427.71
425.01	4485.05
425.22	4259.78
425.43	4349.89
425.64	4657.08
425.85	4569.02
426.06	4612.03
426.28	4452.28
426.49	4417.47
426.70	4474.81
426.91	4595.64
427.12	4757.43
427.33	4687.80
427.54	4652.98
427.75	4745.14
427.96	4736.95
428.17	4616.12
428.38	4749.24
428.59	4888.50
428.80	4671.42
429.01	4878.26
429.23	4827.06
429.44	5048.24
429.65	4976.56
429.86	4958.13
430.07	4784.06
430.28	4808.63
430.49	4884.41
430.70	4974.52
430.91	5060.53
431.12	5007.28
431.33	5126.07
431.54	5121.97
431.75	5195.70
431.96	5167.03
432.17	5038.00
432.38	5029.81
432.59	5246.90
432.80	5265.33
433.01	5337.01
433.22	5287.86
433.43	5294.00
433.64	5318.57
433.85	5224.37
434.06	5281.71
434.27	5203.89
434.49	5404.59
434.70	5380.01
434.91	5296.05
435.12	5418.93
435.33	5392.30
435.54	5523.37
435.75	5296.05
435.96	5437.36
436.17	5406.64
436.38	5523.37
436.59	5644.20
436.80	5400.49
437.01	5668.78
437.22	5681.07
437.43	5527.47
437.64	5506.99
437.85	5719.98
438.06	5611.43
438.27	5509.04
438.48	5593.00
438.69	5767.08
438.90	5644.20
439.11	5711.78
439.32	5881.77
439.53	5789.61
439.74	5785.51
439.95	5830.57
440.16	5918.63
440.37	5926.82
440.57	5607.34
440.78	5849.00
440.99	5967.78
441.20	5955.49
441.41	5838.76
441.62	6016.93
441.83	5883.81
442.04	5943.21
442.25	5971.88
442.46	5951.40
442.67	6092.71
442.88	6234.02
443.09	5982.12
443.30	6021.03
443.51	6121.38
443.72	6404.00
443.93	5992.36
444.14	6428.57
444.35	6117.28
444.56	6125.47
444.77	6221.73
444.98	6291.36
445.19	6291.36
445.40	6229.92
445.61	6354.85
445.81	6561.69
446.02	6530.97
446.23	6373.28
446.44	6348.70
446.65	6514.59
446.86	6373.28
447.07	6649.75
447.28	6690.71
447.49	6741.91
447.70	6553.50
447.91	6616.99
448.12	6512.54
448.33	6662.04
448.54	6625.18
448.74	6596.51
448.95	6817.69
449.16	6545.31
449.37	6844.31
449.58	6670.23
449.79	7077.78
450.00	6610.84
450.21	6956.95
450.42	7040.92
450.63	7077.78
450.84	6852.50
451.05	6872.98
451.25	7137.17
451.46	6967.19
451.67	7278.48
451.88	7251.86
452.09	7141.27
452.30	7047.06
452.51	6950.81
452.72	7182.23
452.93	7585.68
453.13	7065.49
453.34	7204.75
453.55	7415.69
453.76	7305.10
453.97	7565.20
454.18	7296.91
454.39	7593.87
454.60	7520.14
454.81	7602.06
455.01	7700.36
455.22	7421.84
455.43	7516.05
455.64	7815.05
455.85	7864.20
456.06	7774.09
456.27	7827.34
456.48	7759.75
456.68	7804.81
456.89	7874.44
457.10	7939.97
457.31	7919.50
457.52	7825.29
457.73	7874.44
457.94	8351.62
458.14	7872.39
458.35	8423.30
458.56	8144.77
458.77	8148.87
458.98	8208.26
459.19	8388.48
459.39	8343.42
459.60	8441.73
459.81	8228.74
460.02	8617.85
460.23	8447.87
460.44	8839.03
460.65	8638.33
460.85	8570.75
461.06	8583.04
461.27	8556.41
461.48	8769.40
461.69	8865.66
461.89	8429.44
462.10	8896.38
462.31	8599.42
462.52	8839.03
462.73	8750.97
462.94	9207.67
463.14	9293.68
463.35	8884.09
463.56	9514.86
463.77	9211.76
463.98	9109.36
464.18	9162.61
464.39	9342.83
464.60	9434.99
464.81	9420.66
465.02	9385.84
465.23	9701.23
465.43	9572.21
465.64	9791.34
465.85	9553.77
466.06	9475.95
466.27	10096.49
466.47	9838.44
466.68	9944.94
466.89	10008.42
467.10	10055.53
467.30	10080.10
467.51	10180.45
467.72	10424.16
467.93	10039.14
468.14	10139.49
468.34	10377.06
468.55	10471.26
468.76	10516.32
468.97	10483.55
469.17	10706.78
469.38	10770.27
469.59	10860.38
469.80	10671.97
470.01	10755.93
470.21	10604.38
470.42	11128.66
470.63	11171.67
470.84	11099.99
471.04	11196.25
471.25	11202.39
471.46	11034.46
471.67	11466.58
471.87	11347.79
472.08	11497.30
472.29	11683.66
472.50	11519.82
472.70	11630.41
472.91	11626.32
473.12	11806.54
473.33	11642.70
473.53	12287.81
473.74	11827.02
473.95	12357.44
474.16	12474.18
474.36	12508.99
474.57	12291.91
474.78	12681.02
474.99	12486.47
475.19	12447.55
475.40	12859.20
475.61	12918.59
475.81	13002.55
476.02	13094.71
476.23	12932.92
476.44	13037.37
476.64	13436.72
476.85	13451.06
477.06	13231.93
477.27	13631.28
477.47	13772.59
477.68	13553.46
477.89	13805.36
478.09	13805.36
478.30	13813.55
478.51	14016.30
478.71	14208.81
478.92	14212.90
479.13	14173.99
479.34	14509.86
479.54	14386.98
479.75	14329.64
479.96	14595.87
480.16	14810.91
480.37	14726.94
480.58	14882.59
480.78	14925.60
480.99	15165.21
481.20	15234.84
481.41	15216.41
481.61	15531.80
481.82	15634.19
482.03	15552.27
482.23	15560.47
482.44	15691.54
482.65	16019.21
482.85	15843.09
483.06	15945.48
483.27	15927.05
483.47	16150.28
483.68	16146.19
483.89	16547.59
484.09	16137.99
484.30	16568.07
484.51	16609.03
484.71	17061.63
484.92	16631.55
485.13	16768.77
485.33	16772.86
485.54	16981.76
485.75	17217.27
485.95	17495.80
486.16	17223.42
486.37	17542.90
486.57	17407.73
486.78	17399.54
486.98	17520.37
487.19	17901.29
487.40	17837.81
487.60	17645.30
487.81	18239.21
488.02	18124.52
488.22	18079.47
488.43	18249.45
488.64	18378.47
488.84	18603.75
489.05	18632.42
489.25	18509.54
489.46	18872.03
489.67	18847.46
489.87	19001.05
490.08	19351.26
490.29	18982.62
490.49	19515.09
490.70	19418.84
490.90	19402.46
491.11	19242.71
491.32	19613.40
491.52	19723.99
491.73	19543.77
491.94	19734.23
492.14	19836.63
492.35	20045.52
492.55	20084.43
492.76	19934.93
492.97	20215.50
493.17	20461.26
493.38	20473.54
493.58	20719.30
493.79	20555.46
494.00	20475.59
494.20	20641.48
494.41	21010.11
494.61	20981.44
494.82	21069.50
495.02	20913.86
495.23	21194.43
495.44	21284.54
495.64	21638.84
495.85	21257.92
496.05	21710.52
496.26	21442.23
496.47	21956.27
496.67	21595.83
496.88	22054.58
497.08	21507.77
497.29	22124.21
497.49	21995.18
497.70	22240.94
497.91	22304.43
498.11	22439.59
498.32	22118.06
498.52	22546.09
498.73	22689.45
498.93	22531.75
499.14	22859.43
499.34	22841.00
499.55	22916.77
499.76	23115.42
499.96	23033.50
500.17	23017.12
500.37	23082.66
500.58	23031.46
500.78	23099.04
500.99	23426.71
501.19	23783.06
501.40	23363.23
501.60	23275.16
501.81	23641.75
502.02	23879.32
502.22	23783.06
502.43	23953.04
502.63	23873.17
502.84	23690.90
503.04	23711.38
503.25	24102.54
503.45	24202.89
503.66	24147.60
503.86	23994.00
504.07	24698.50
504.27	24315.53
504.48	24589.96
504.68	24696.46
504.89	24792.71
505.09	24747.65
505.30	24839.81
505.50	24723.08
505.71	24809.09
505.91	25351.81
506.12	25089.67
506.32	24960.64
506.53	25120.38
506.73	25069.19
506.94	25151.10
507.14	25357.95
507.35	25347.71
507.55	25714.30
507.76	25742.97
507.96	25294.46
508.17	25298.56
508.37	25466.49
508.58	25468.54
508.78	25951.86
508.99	25822.84
509.19	25822.84
509.40	26052.21
509.60	25931.38
509.81	26117.75
510.01	26093.17
510.22	26175.09
510.42	26216.05
510.63	26121.84
510.83	26480.24
511.04	26328.69
511.24	26455.66
511.44	26652.27
511.65	26855.01
511.85	26549.87
512.06	26732.14
512.26	26594.92
512.47	26906.21
512.67	26945.12
512.88	26832.49
513.08	26850.92
513.29	27156.07
513.49	27143.78
513.69	27160.16
513.90	26805.86
514.10	27381.34
514.31	27053.67
514.51	27596.38
514.72	27698.78
514.92	27104.87
515.13	27643.48
515.33	27668.06
515.53	27405.92
515.74	27780.70
515.94	27582.04
516.15	27700.83
516.35	27577.95
516.56	27749.98
516.76	27942.49
516.96	27954.77
517.17	28094.04
517.37	28120.66
517.58	27899.48
517.78	28147.28
517.99	28038.74
518.19	28759.63
518.39	28616.27
518.60	28591.69
518.80	28278.35
519.01	28730.95
519.21	28700.23
519.41	28825.16
519.62	28642.89
519.82	28767.82
520.03	29081.16
520.23	28843.59
520.43	28898.89
520.64	29396.54
520.84	29128.26
521.05	29314.62
521.25	29384.26
521.45	29453.89
521.66	29574.72
521.86	29417.02
522.07	29572.67
522.27	29754.94
522.47	29752.89
522.68	29941.30
522.88	29838.90
523.08	30094.90
523.29	30121.52
523.49	29955.64
523.70	30121.52
523.90	30475.82
524.10	30244.40
524.31	30590.51
524.51	29877.82
524.71	31170.08
524.92	30852.65
525.12	30912.04
525.33	30772.78
525.53	30899.75
525.73	31206.95
525.94	31407.65
526.14	31170.08
526.34	31319.59
526.55	31505.95
526.75	31372.83
526.95	31346.21
527.16	31168.04
527.36	31434.27
527.56	31788.57
527.77	31944.22
527.97	31845.91
528.17	31833.63
528.38	32259.60
528.58	32261.65
528.78	32454.16
528.99	32398.87
529.19	32640.53
529.39	32282.13
529.60	32628.24
529.80	32441.87
530.00	32636.43
530.21	32892.43
530.41	33072.65
530.61	32441.87
530.82	33000.97
531.02	32869.90
531.22	33252.87
531.43	33592.83
531.63	33453.57
531.83	33553.92
532.04	33666.56
532.24	33480.19
532.44	34010.62
532.64	33697.28
532.85	34020.86
533.05	34252.28
533.25	33889.79
533.46	33936.89
533.66	34577.90
533.86	34231.80
534.07	34555.38
534.27	34702.83
534.47	34887.15
534.67	35102.18
534.88	34909.68
535.08	34627.06
535.28	35210.73
535.49	35284.45
535.69	35841.50
535.89	35562.98
536.09	35349.99
536.30	35605.98
536.50	35528.16
536.70	35718.62
536.91	35532.26
537.11	35933.66
537.31	35927.52
537.51	35986.91
537.72	36251.09
537.92	36646.35
538.12	36513.23
538.32	36163.03
538.53	36535.76
538.73	36443.60
538.93	36910.54
539.13	36644.30
539.34	36787.66
539.54	36654.54
539.74	37162.44
539.94	36806.09
540.15	36894.16
540.35	37285.32
540.55	37094.86
540.75	37254.60
540.96	37328.33
541.16	37377.48
541.36	37670.34
541.56	37434.82
541.77	37836.22
541.97	37291.46
542.17	37934.53
542.37	38170.04
542.58	38184.38
542.78	38100.41
542.98	38178.23
543.18	38174.14
543.38	38561.20
543.59	38325.69
543.79	38075.84
543.99	38483.38
544.19	38634.93
544.40	38532.53
544.60	38321.59
544.80	38813.10
545.00	38835.63
545.20	39007.66
545.41	38503.86
545.61	38876.59
545.81	38954.41
546.01	39450.02
546.21	39015.85
546.42	39198.12
546.62	39499.17
546.82	39067.05
547.02	39591.33
547.22	39736.74
547.43	39396.77
547.63	39919.01
547.83	39843.23
548.03	39609.76
548.23	39845.28
548.44	39884.19
548.64	39777.70
548.84	39740.83
549.04	39929.25
549.24	39792.03
549.45	40480.15
549.65	39796.13
549.85	40332.70
550.05	40510.87
550.25	40297.88
550.45	40854.93
550.66	40844.69
550.86	40482.20
551.06	40207.77
551.26	40385.94
551.46	40592.79
551.66	40773.01
551.87	40998.29
552.07	40805.78
552.27	41069.97
552.47	41100.68
552.67	40965.52
552.87	41112.97
553.07	41147.79
553.28	41285.00
553.48	41575.81
553.68	41338.25
553.88	41493.89
554.08	41727.36
554.28	41135.50
554.48	41180.56
554.69	41416.07
554.89	41299.34
555.09	41530.76
555.29	41618.82
555.49	42001.79
555.69	41641.35
555.89	42085.76
556.10	41807.23
556.30	41719.17
556.50	42397.05
556.70	41584.01
556.90	42005.89
557.10	42018.17
557.30	42071.42
557.50	41842.05
557.70	41999.74
557.91	42083.71
558.11	42386.81
558.31	42562.93
558.51	42218.88
558.71	42390.91
558.91	42694.00
559.11	42427.77
559.31	42171.77
559.51	42358.14
559.72	42413.43
559.92	42691.96
560.12	42630.52
560.32	42739.06
560.52	42673.52
560.72	43115.89
560.92	42874.23
561.12	43007.34
561.32	43175.28
561.52	43072.88
561.72	43453.80
561.93	43115.89
562.13	43009.39
562.33	42956.14
562.53	43390.31
562.73	43146.61
562.93	42980.72
563.13	43488.62
563.33	43275.63
563.53	43314.54
563.73	43136.37
563.93	43644.26
564.13	43695.46
564.33	43806.05
564.53	43441.51
564.74	43717.99
564.94	43601.25
565.14	43717.99
565.34	43406.70
565.54	43636.07
565.74	43824.48
565.94	43812.20
566.14	43941.22
566.34	43793.76
566.54	44262.75
566.74	43406.70
566.94	44117.34
567.14	44146.01
567.34	43449.70
567.54	44543.32
567.74	43978.08
567.94	43795.81
568.14	44612.95
568.34	44377.43
568.54	44143.97
568.74	44567.90
568.94	44043.62
569.14	44746.07
569.34	44508.50
569.54	44860.76
569.75	44451.16
569.95	44172.64
570.15	45172.05
570.35	44690.77
570.55	44475.74
570.75	44463.45
570.95	44750.17
571.15	44666.20
571.35	44658.01
571.55	44909.91
571.75	44973.39
571.95	45129.04
572.15	44694.87
572.35	45114.70
572.55	45182.29
572.75	45090.13
572.95	44850.52
573.15	45329.74
573.35	45139.28
573.55	45053.26
573.75	45598.02
573.95	45217.10
574.15	45260.11
574.35	45661.51
574.55	45219.15
574.75	45419.85
574.95	45575.50
575.15	45784.39
575.34	45903.17
575.54	45956.42
575.74	45821.25
575.94	46157.12
576.14	45847.88
576.34	46089.54
576.54	45770.05
576.74	46146.88
576.94	45794.63
577.14	46118.21
577.34	46363.96
577.54	46327.10
577.74	46380.35
577.94	46449.98
578.14	46298.43
578.34	46239.04
578.54	46538.04
578.74	46503.23
578.94	46591.29
579.14	46560.57
579.34	46163.26
579.54	46712.12
579.74	46849.33
579.94	46875.96
580.13	47349.04
580.33	47084.85
580.53	47019.31
580.73	47090.99
580.93	46921.01
581.13	47449.39
581.33	47351.09
581.53	47416.62
581.73	47529.26
581.93	47365.42
582.13	47201.58
582.33	47455.53
582.53	47476.01
582.73	47398.19
582.92	48084.26
583.12	47912.23
583.32	47883.56
583.52	47697.19
583.72	48020.77
583.92	47822.12
584.12	47869.22
584.32	48332.06
584.52	48133.41
584.72	48018.72
584.92	48309.53
585.11	48776.47
585.31	48311.58
585.51	48608.54
585.71	48084.26
585.91	48502.04
586.11	48588.06
586.31	48758.04
586.51	48481.56
586.71	48475.42
586.91	48643.35
587.10	48880.92
587.30	49050.90
587.50	49141.01
587.70	48932.12
587.90	48973.08
588.10	49390.86
588.30	49100.05
588.50	49245.46
