SpectraSuite Data File
++++++++++++++++++++++++++++++++++++
Date: Fri Jun 02 14:51:08 CEST 2017
User: INFO_000
Dark Spectrum Present: No
Reference Spectrum Present: No
Number of Sampled Component Spectra: 1
Spectrometers: USB4H00879
Integration Time (usec): 80000 (USB4H00879)
Spectra Averaged: 1 (USB4H00879)
Boxcar Smoothing: 0 (USB4H00879)
Correct for Electrical Dark: No (USB4H00879)
Strobe/Lamp Enabled: No (USB4H00879)
Correct for Detector Non-linearity: No (USB4H00879)
Correct for Stray Light: No (USB4H00879)
Number of Pixels in Processed Spectrum: 3648
>>>>>Begin Processed Spectral Data<<<<<
345.13	1257.45
345.34	1257.45
345.56	1257.45
345.78	1214.45
345.99	1265.64
346.21	1769.44
346.42	1712.10
346.64	1650.66
346.86	1781.73
347.07	1615.85
347.29	1716.20
347.50	1630.18
347.72	1738.73
347.94	1769.44
348.15	1515.50
348.37	1599.46
348.59	1712.10
348.80	1658.85
349.02	1804.26
349.23	1925.09
349.45	1871.84
349.67	1912.80
349.88	1812.45
350.10	1941.47
350.31	1791.97
350.53	1847.27
350.75	1941.47
350.96	1763.30
351.18	1880.04
351.39	1837.03
351.61	1763.30
351.82	1923.04
352.04	1949.67
352.26	1851.36
352.47	1841.12
352.69	1875.94
352.90	1712.10
353.12	1959.91
353.34	1849.32
353.55	2009.06
353.77	1916.90
353.98	1900.52
354.20	1843.17
354.41	1863.65
354.63	1908.71
354.85	1976.29
355.06	1849.32
355.28	1781.73
355.49	1877.99
355.71	1904.61
355.92	1855.46
356.14	1918.95
356.35	1900.52
356.57	1867.75
356.79	1855.46
357.00	1789.92
357.22	1998.82
357.43	1830.88
357.65	1929.19
357.86	1824.74
358.08	1906.66
358.29	1923.04
358.51	2021.35
358.72	1925.09
358.94	1892.32
359.16	1894.37
359.37	1933.28
359.59	1994.72
359.80	1923.04
360.02	1896.42
360.23	1976.29
360.45	2043.87
360.66	1961.95
360.88	1779.68
361.09	1900.52
361.31	1976.29
361.52	1951.71
361.74	2043.87
361.95	2072.54
362.17	1898.47
362.38	1964.00
362.60	2025.44
362.81	1964.00
363.03	1951.71
363.24	1929.19
363.46	2052.06
363.67	1992.67
363.89	1998.82
364.10	2019.30
364.32	1912.80
364.53	2039.78
364.75	1900.52
364.96	2000.87
365.18	2031.58
365.39	1951.71
365.61	2021.35
365.82	2148.32
366.04	1943.52
366.25	1935.33
366.47	2002.91
366.68	2011.11
366.90	1920.99
367.11	2052.06
367.33	1976.29
367.54	2004.96
367.76	1961.95
367.97	1978.34
368.19	2066.40
368.40	1974.24
368.62	1988.58
368.83	2054.11
369.05	2021.35
369.26	1970.15
369.48	2007.01
369.69	1996.77
369.91	2023.39
370.12	2099.17
370.33	2105.31
370.55	2023.39
370.76	1974.24
370.98	2080.74
371.19	2041.82
371.41	2058.21
371.62	2039.78
371.84	1968.10
372.05	2082.78
372.27	2058.21
372.48	2115.55
372.69	2090.98
372.91	2093.02
373.12	2162.66
373.34	2207.71
373.55	2187.23
373.77	2127.84
373.98	2113.50
374.20	2103.26
374.41	2244.57
374.62	2115.55
374.84	2152.42
375.05	2129.89
375.27	2181.09
375.48	2129.89
375.70	2162.66
375.91	2183.13
376.12	2306.01
376.34	2207.71
376.55	2181.09
376.77	2043.87
376.98	2183.13
377.19	2127.84
377.41	2164.70
377.62	2115.55
377.84	2303.96
378.05	2303.96
378.27	2199.52
378.48	2224.09
378.69	2367.45
378.91	2236.38
379.12	2215.90
379.34	2197.47
379.55	2306.01
379.76	2240.48
379.98	2183.13
380.19	2238.43
380.41	2306.01
380.62	2283.49
380.83	2142.18
381.05	2187.23
381.26	2359.26
381.47	2172.89
381.69	2269.15
381.90	2320.35
382.12	2293.72
382.33	2265.05
382.54	2160.61
382.76	2226.14
382.97	2330.59
383.19	2215.90
383.40	2328.54
383.61	2338.78
383.83	2314.20
384.04	2236.38
384.25	2258.91
384.47	2355.16
384.68	2338.78
384.89	2306.01
385.11	2344.92
385.32	2342.88
385.54	2312.16
385.75	2287.58
385.96	2453.47
386.18	2412.51
386.39	2355.16
386.60	2371.55
386.82	2328.54
387.03	2404.32
387.24	2398.17
387.46	2453.47
387.67	2422.75
387.88	2496.47
388.10	2441.18
388.31	2447.32
388.52	2484.19
388.74	2486.23
388.95	2439.13
389.16	2506.71
389.38	2365.40
389.59	2467.80
389.80	2535.39
390.02	2586.58
390.23	2562.01
390.44	2500.57
390.66	2516.95
390.87	2424.80
391.08	2512.86
391.30	2625.50
391.51	2676.70
391.72	2617.30
391.94	2519.00
392.15	2559.96
392.36	2625.50
392.58	2594.78
392.79	2645.98
393.00	2621.40
393.22	2639.83
393.43	2758.61
393.64	2787.29
393.85	2754.52
394.07	2648.02
394.28	2652.12
394.49	2691.03
394.71	2789.33
394.92	2793.43
395.13	2559.96
395.35	2715.61
395.56	2666.46
395.77	2688.98
395.98	2899.92
396.20	2838.48
396.41	2705.37
396.62	2803.67
396.84	2813.91
397.05	2736.09
397.26	2924.50
397.47	2883.54
397.69	2738.13
397.90	2996.18
398.11	2787.29
398.32	2885.59
398.54	2838.48
398.75	2781.14
398.96	2834.39
399.18	3088.34
399.39	2938.84
399.60	3022.80
399.81	2834.39
400.03	2992.08
400.24	3211.22
400.45	2869.20
400.66	3035.09
400.88	2889.68
401.09	3180.50
401.30	2990.03
401.51	3037.14
401.73	3000.27
401.94	3061.71
402.15	3131.34
402.36	3121.10
402.58	3078.10
402.79	3233.74
403.00	3106.77
403.21	3123.15
403.43	3160.02
403.64	3272.65
403.85	3033.04
404.06	3207.12
404.27	3024.85
404.49	3237.84
404.70	3063.76
404.91	3198.93
405.12	3219.41
405.34	3147.73
405.55	3350.48
405.76	3092.43
405.97	3233.74
406.19	3258.32
406.40	3284.94
406.61	3330.00
406.82	3323.85
407.03	3256.27
407.25	3229.65
407.46	3426.25
407.67	3356.62
407.88	3364.81
408.09	3309.52
408.31	3303.37
408.52	3299.28
408.73	3203.02
408.94	3221.45
409.15	3395.53
409.37	3508.17
409.58	3450.83
409.79	3313.61
410.00	3418.06
410.21	3352.52
410.43	3395.53
410.64	3321.81
410.85	3473.36
411.06	3493.83
411.27	3405.77
411.48	3547.08
411.70	3491.79
411.91	3471.31
412.12	3573.71
412.33	3491.79
412.54	3553.23
412.76	3659.72
412.97	3680.20
413.18	3272.65
413.39	3475.40
413.60	3540.94
413.81	3604.42
414.03	3536.84
414.24	3622.86
414.45	3790.79
414.66	3430.35
414.87	3579.85
415.08	3624.90
415.30	3717.06
415.51	3608.52
415.72	3594.19
415.93	3620.81
416.14	3663.82
416.35	3577.80
416.56	3745.73
416.78	3641.29
416.99	3747.78
417.20	3727.30
417.41	3743.69
417.62	3764.17
417.83	3788.74
418.04	3659.72
418.26	3891.14
418.47	3807.17
418.68	3966.92
418.89	3770.31
419.10	3993.54
419.31	3819.46
419.52	3923.91
419.73	3989.44
419.95	3985.35
420.16	3805.13
420.37	3893.19
420.58	3876.80
420.79	3680.20
421.00	3911.62
421.21	4030.40
421.42	3893.19
421.63	3977.16
421.85	3860.42
422.06	4007.87
422.27	3911.62
422.48	4001.73
422.69	4032.45
422.90	4063.17
423.11	4061.12
423.32	4161.47
423.53	4247.49
423.75	4104.13
423.96	4159.42
424.17	4253.63
424.38	4272.06
424.59	4263.87
424.80	4388.80
425.01	4251.58
425.22	4265.92
425.43	4288.45
425.64	4407.23
425.85	4501.44
426.06	4360.13
426.28	4376.51
426.49	4224.96
426.70	4298.69
426.91	4386.75
427.12	4550.59
427.33	4556.73
427.54	4380.61
427.75	4554.68
427.96	4605.88
428.17	4644.79
428.38	4687.80
428.59	4655.03
428.80	4620.22
429.01	4726.71
429.23	4622.27
429.44	4845.49
429.65	4786.10
429.86	4853.69
430.07	4755.38
430.28	4652.98
430.49	4835.25
430.70	5009.33
430.91	4958.13
431.12	4947.89
431.33	4968.37
431.54	4964.28
431.75	4906.93
431.96	4818.87
432.17	5062.58
432.38	5003.19
432.59	5140.40
432.80	5121.97
433.01	5164.98
433.22	5052.34
433.43	5250.99
433.64	5066.67
433.85	5158.83
434.06	5203.89
434.27	5179.31
434.49	5332.91
434.70	5445.55
434.91	5441.45
435.12	5377.97
435.33	5261.23
435.54	5205.94
435.75	5257.14
435.96	5263.28
436.17	5044.15
436.38	5496.75
436.59	5488.56
436.80	5429.17
437.01	5693.35
437.22	5574.57
437.43	5506.99
437.64	5365.68
437.85	5539.76
438.06	5754.79
438.27	5531.56
438.48	5513.13
438.69	5732.26
438.90	5597.10
439.11	5695.40
439.32	5705.64
439.53	5742.50
439.74	5781.42
439.95	5830.57
440.16	5711.78
440.37	5820.33
440.57	5738.41
440.78	5801.90
440.99	5805.99
441.20	5683.11
441.41	5689.26
441.62	5935.01
441.83	5765.03
442.04	5998.50
442.25	5975.97
442.46	5838.76
442.67	6092.71
442.88	6379.42
443.09	5795.75
443.30	5984.16
443.51	6164.39
443.72	6217.63
443.93	6016.93
444.14	6260.64
444.35	5984.16
444.56	6301.60
444.77	6215.59
444.98	6356.90
445.19	6195.11
445.40	6328.22
445.61	6141.86
445.81	6483.87
446.02	6332.32
446.23	6291.36
446.44	6217.63
446.65	6381.47
446.86	6373.28
447.07	6305.70
447.28	6623.13
447.49	6678.43
447.70	6272.93
447.91	6375.33
448.12	6477.73
448.33	6616.99
448.54	6514.59
448.74	6487.96
448.95	6438.81
449.16	6614.94
449.37	6891.41
449.58	6522.78
449.79	6809.50
450.00	6690.71
450.21	6729.63
450.42	6827.93
450.63	6676.38
450.84	6840.22
451.05	6723.48
451.25	6760.34
451.46	6635.42
451.67	7036.82
451.88	6920.09
452.09	6856.60
452.30	6813.59
452.51	6952.85
452.72	7090.07
452.93	7303.06
453.13	7065.49
453.34	7128.98
453.55	7008.15
453.76	7108.50
453.97	7391.12
454.18	7077.78
454.39	7194.51
454.60	7169.94
454.81	7266.19
455.01	7346.06
455.22	7055.25
455.43	7329.68
455.64	7489.42
455.85	7434.13
456.06	7622.54
456.27	7448.46
456.48	7444.37
456.68	7655.31
456.89	7448.46
457.10	7597.96
457.31	7589.77
457.52	7538.57
457.73	7671.69
457.94	7817.10
458.14	7626.64
458.35	7892.87
458.56	7780.23
458.77	7726.99
458.98	7925.64
459.19	7802.76
459.39	7925.64
459.60	8034.18
459.81	7784.33
460.02	8195.97
460.23	8036.23
460.44	8177.54
460.65	8124.29
460.85	8134.53
461.06	8157.06
461.27	8208.26
461.48	8503.17
461.69	8417.15
461.89	8130.44
462.10	8226.69
462.31	8247.17
462.52	8224.64
462.73	8333.18
462.94	8583.04
463.14	8451.97
463.35	8603.52
463.56	9017.21
463.77	8728.44
463.98	8826.75
464.18	8724.35
464.39	8972.15
464.60	9090.93
464.81	9056.12
465.02	8947.58
465.23	9183.09
465.43	9127.80
465.64	9326.45
465.85	9117.56
466.06	9215.86
466.27	9480.05
466.47	9473.90
466.68	9484.14
466.89	9539.44
467.10	9482.10
467.30	9406.32
467.51	9637.74
467.72	9922.41
467.93	9582.45
468.14	9709.42
468.34	10067.81
468.55	9842.54
468.76	10045.29
468.97	9842.54
469.17	10145.64
469.38	10123.11
469.59	10395.49
469.80	10159.97
470.01	10151.78
470.21	10391.39
470.42	10501.98
470.63	10727.26
470.84	10403.68
471.04	10688.35
471.25	10553.18
471.46	10862.43
471.67	10913.63
471.87	10733.40
472.08	10907.48
472.29	11427.67
472.50	10938.20
472.70	11106.13
472.91	11312.98
473.12	11204.44
473.33	11624.27
473.53	11716.43
473.74	11347.79
473.95	11648.85
474.16	11849.55
474.36	11870.03
474.57	11908.94
474.78	11997.00
474.99	12046.15
475.19	11997.00
475.40	12240.71
475.61	12513.09
475.81	12695.36
476.02	12707.65
476.23	12494.66
476.44	12785.47
476.64	13053.75
476.85	13180.73
477.06	12830.52
477.27	13160.25
477.47	13336.37
477.68	13162.30
477.89	13530.93
478.09	13444.91
478.30	13322.04
478.51	13627.18
478.71	13727.53
478.92	13821.74
479.13	13750.06
479.34	14173.99
479.54	14323.49
479.75	14202.66
479.96	14169.90
480.16	14112.55
480.37	14550.82
480.58	14626.59
480.78	14868.25
480.99	14710.56
481.20	14788.38
481.41	14896.92
481.61	15169.30
481.82	15208.22
482.03	15286.04
482.23	15085.34
482.44	15304.47
482.65	15531.80
482.85	15623.95
483.06	15572.75
483.27	15800.08
483.47	15959.82
483.68	15845.13
483.89	16092.94
484.09	16164.62
484.30	16267.02
484.51	16328.45
484.71	16332.55
484.92	16291.59
485.13	16703.23
485.33	16729.86
485.54	16656.13
485.75	16957.18
485.95	17121.02
486.16	17110.78
486.37	17325.82
486.57	17151.74
486.78	17112.83
486.98	17293.05
487.19	17374.97
487.40	17649.39
487.60	17645.30
487.81	17708.79
488.02	17770.22
488.22	17749.75
488.43	18095.85
488.64	18169.58
488.84	18226.92
489.05	18317.03
489.25	18228.97
489.46	18360.04
489.67	18304.74
489.87	18544.36
490.08	18906.85
490.29	18710.24
490.49	18968.29
490.70	19031.77
490.90	19269.34
491.11	18974.43
491.32	19431.13
491.52	19453.66
491.73	19252.95
491.94	19318.49
492.14	19404.50
492.35	19607.25
492.55	19693.27
492.76	19973.84
492.97	19771.09
493.17	20014.80
493.38	20229.84
493.58	20278.99
493.79	20031.18
494.00	20395.72
494.20	20217.55
494.41	20627.14
494.61	20594.37
494.82	20747.97
495.02	20522.69
495.23	20784.83
495.44	20879.04
495.64	20782.79
495.85	21038.78
496.05	21046.97
496.26	20958.91
496.47	21460.66
496.67	20790.98
496.88	21710.52
497.08	21006.02
497.29	21597.88
497.49	21288.64
497.70	21415.61
497.91	21913.27
498.11	21651.13
498.32	21892.79
498.52	21833.39
498.73	21997.23
498.93	21819.06
499.14	21997.23
499.34	21890.74
499.55	22040.24
499.76	21943.99
499.96	22206.13
500.17	22316.72
500.37	22398.63
500.58	22261.42
500.78	22390.44
500.99	22574.76
501.19	22451.88
501.40	22630.05
501.60	22585.00
501.81	22757.03
502.02	22949.54
502.22	22830.76
502.43	22841.00
502.63	23180.96
502.84	23193.25
503.04	23056.03
503.25	23293.60
503.45	23176.86
503.66	23459.48
503.86	23266.97
504.07	23525.02
504.27	23113.38
504.48	23651.99
504.68	23228.06
504.89	23885.46
505.09	23584.41
505.30	23803.54
505.50	23383.71
505.71	23684.76
505.91	24069.78
506.12	23762.58
506.32	24159.89
506.53	24110.74
506.73	24090.26
506.94	23994.00
507.14	24096.40
507.35	24082.06
507.55	24254.09
507.76	24090.26
507.96	24360.59
508.17	24370.83
508.37	24133.26
508.58	24557.19
508.78	24307.34
508.99	24366.73
509.19	24684.17
509.40	24686.22
509.60	24667.78
509.81	24598.15
510.01	24643.21
510.22	24731.27
510.42	24606.34
510.63	24974.98
510.83	25050.75
511.04	25069.19
511.24	25136.77
511.44	24948.36
511.65	25038.47
511.85	25314.94
512.06	24897.16
512.26	25228.93
512.47	25378.43
512.67	25134.72
512.88	25218.69
513.08	25097.86
513.29	25321.09
513.49	25470.59
513.69	25689.72
513.90	25695.86
514.10	25577.08
514.31	25581.18
514.51	25814.65
514.72	25878.13
514.92	26017.40
515.13	25730.68
515.33	25808.50
515.53	26064.50
515.74	26144.37
515.94	26095.22
516.15	26076.79
516.35	26111.60
516.56	26375.79
516.76	26060.40
516.96	26234.48
517.17	26627.69
517.37	26349.17
517.58	26678.89
517.78	26521.20
517.99	26601.07
518.19	26703.46
518.39	26676.84
518.60	26805.86
518.80	26855.01
519.01	26986.08
519.21	26701.42
519.41	27027.04
519.62	26865.25
519.82	27190.88
520.03	27450.97
520.23	27395.68
520.43	27369.05
520.64	27666.01
520.84	27932.25
521.05	27520.60
521.25	27823.70
521.45	27915.86
521.66	27792.98
521.86	27919.96
522.07	28014.16
522.27	28202.58
522.47	28098.13
522.68	28266.06
522.88	28542.54
523.08	28722.76
523.29	28438.09
523.49	28567.12
523.70	28806.73
523.90	28888.65
524.10	28560.97
524.31	29134.40
524.51	28556.88
524.71	29263.43
524.92	29103.68
525.12	29466.17
525.33	29443.65
525.53	29521.47
525.73	29867.58
525.94	29974.07
526.14	29546.05
526.34	30049.85
526.55	30021.17
526.75	29759.03
526.95	30045.75
527.16	30010.93
527.36	29914.68
527.56	30297.65
527.77	30398.00
527.97	30619.18
528.17	30715.44
528.38	30819.88
528.58	30993.96
528.78	30916.14
528.99	31028.77
529.19	31061.54
529.39	30834.22
529.60	31311.39
529.80	31241.76
530.00	31331.87
530.21	31733.28
530.41	31747.61
530.61	31413.79
530.82	31686.17
531.02	31755.80
531.22	32001.56
531.43	31993.37
531.63	32374.29
531.83	32685.58
532.04	32792.08
532.24	32405.01
532.44	33160.71
532.64	33256.96
532.85	32710.16
533.05	32867.85
533.25	33048.07
533.46	32798.22
533.66	33564.16
533.86	33388.03
534.07	33885.69
534.27	33295.88
534.47	33844.73
534.67	33947.13
534.88	33660.41
535.08	34029.05
535.28	34491.89
535.49	34051.58
535.69	34696.69
535.89	34373.11
536.09	34821.61
536.30	34723.31
536.50	34881.00
536.70	35384.80
536.91	34860.52
537.11	35032.55
537.31	34983.40
537.51	34942.44
537.72	35659.23
537.92	35876.32
538.12	35630.56
538.32	35335.65
538.53	35814.88
538.73	35812.83
538.93	35839.45
539.13	35804.64
539.34	36410.84
539.54	35968.48
539.74	36656.59
539.94	36312.53
540.15	36431.32
540.35	36892.11
540.55	36511.19
540.75	36808.14
540.96	36976.08
541.16	36961.74
541.36	36885.97
541.56	37148.11
541.77	37578.18
541.97	36980.17
542.17	37268.94
542.37	37524.93
542.58	37705.15
542.78	37285.32
542.98	37297.61
543.18	37682.62
543.38	38145.47
543.59	38311.35
543.79	37963.20
543.99	38004.16
544.19	38139.32
544.40	37674.43
544.60	38393.27
544.80	38358.45
545.00	38503.86
545.20	38557.11
545.41	38679.99
545.61	38571.44
545.81	38811.06
546.01	38692.27
546.21	38446.52
546.42	38866.35
546.62	38563.25
546.82	38708.66
547.02	38659.51
547.22	38847.92
547.43	38915.50
547.63	38882.73
547.83	38983.09
548.03	38811.06
548.23	39654.82
548.44	39185.83
548.64	39454.12
548.84	39749.03
549.04	39376.30
549.24	39597.48
549.45	39716.26
549.65	39527.84
549.85	39798.18
550.05	40510.87
550.25	39441.83
550.45	40379.80
550.66	39884.19
550.86	39857.57
551.06	39863.71
551.26	40377.75
551.46	40265.11
551.66	40017.31
551.87	40250.78
552.07	40232.35
552.27	40019.36
552.47	40250.78
552.67	40674.71
552.87	40349.08
553.07	40613.27
553.28	40547.73
553.48	40652.18
553.68	40517.01
553.88	40711.57
554.08	40555.93
554.28	40641.94
554.48	40449.43
554.69	41217.42
554.89	40689.04
555.09	41129.36
555.29	40717.71
555.49	40906.13
555.69	40687.00
555.89	40961.42
556.10	40940.94
556.30	40766.87
556.50	41016.72
556.70	40643.99
556.90	41252.23
557.10	41250.19
557.30	40953.23
557.50	41147.79
557.70	41209.23
557.91	41409.93
558.11	41508.23
558.31	41543.05
558.51	41506.18
558.71	41457.03
558.91	41309.58
559.11	41397.64
559.31	41375.11
559.51	41205.13
559.72	41571.72
559.92	41418.12
560.12	41215.37
560.32	41596.29
560.52	41256.33
560.72	41360.78
560.92	41581.96
561.12	41651.59
561.32	41686.40
561.52	41123.21
561.72	42370.43
561.93	41321.87
562.13	41821.57
562.33	41375.11
562.53	42020.22
562.73	41379.21
562.93	41610.63
563.13	41616.77
563.33	41420.17
563.53	41799.04
563.73	41342.35
563.93	41880.96
564.13	42380.67
564.33	41780.61
564.53	41581.96
564.74	41942.40
564.94	41500.04
565.14	42077.57
565.34	41928.06
565.54	41858.43
565.74	42225.02
565.94	42470.78
566.14	41950.59
566.34	41663.88
566.54	42163.58
566.74	41790.85
566.94	42077.57
567.14	42390.91
567.34	41887.10
567.54	42333.56
567.74	41872.77
567.94	42204.54
568.14	42507.64
568.34	42538.36
568.54	41973.12
568.74	41887.10
568.94	42354.04
569.14	42286.46
569.34	42435.96
569.54	42253.69
569.75	41979.26
569.95	42466.68
570.15	42859.89
570.35	42159.48
570.55	42636.66
570.75	42255.74
570.95	42665.33
571.15	42679.67
571.35	42476.92
571.55	42833.27
571.75	42726.77
571.95	42581.37
572.15	42245.50
572.35	42616.18
572.55	42972.53
572.75	42562.93
572.95	42780.02
573.15	42976.62
573.35	42925.42
573.55	42636.66
573.75	42614.13
573.95	42984.82
574.15	42687.86
574.35	42833.27
574.55	42732.92
574.75	42988.91
574.95	43156.85
575.15	43095.41
575.34	43111.79
575.54	43195.76
575.74	43140.46
575.94	43382.12
576.14	43582.82
576.34	43371.88
576.54	43621.73
576.74	43337.07
576.94	43300.20
577.14	43715.94
577.34	44004.70
577.54	43253.10
577.74	43900.26
577.94	43859.30
578.14	44115.29
578.34	43742.56
578.54	43312.49
578.74	43574.63
578.94	43867.49
579.14	43795.81
579.34	43914.59
579.54	43914.59
579.74	44227.93
579.94	43799.91
580.13	44082.53
580.33	44107.10
580.53	44047.71
580.73	44182.88
580.93	44621.14
581.13	44356.96
581.33	44823.89
581.53	44588.38
581.73	44582.23
581.93	44662.10
582.13	44739.93
582.33	44950.87
582.53	44545.37
582.73	45073.74
582.92	45284.68
583.12	45108.56
583.32	44918.10
583.52	44463.45
583.72	45395.28
583.92	44643.67
584.12	44969.30
584.32	45587.78
584.52	45081.94
584.72	45653.32
584.92	45249.87
585.11	46013.76
585.31	45321.55
585.51	45456.71
585.71	45337.93
585.91	45829.44
586.11	45806.92
586.31	45299.02
586.51	45536.59
586.71	45800.77
586.91	45819.20
587.10	45806.92
587.30	45751.62
587.50	45827.40
587.70	46257.47
587.90	46359.87
588.10	45960.51
588.30	46181.70
588.50	46519.61
588.69	46640.44
