SpectraSuite Data File
++++++++++++++++++++++++++++++++++++
Date: Fri Jun 02 14:51:10 CEST 2017
User: INFO_000
Dark Spectrum Present: No
Reference Spectrum Present: No
Number of Sampled Component Spectra: 1
Spectrometers: USB4H00879
Integration Time (usec): 80000 (USB4H00879)
Spectra Averaged: 1 (USB4H00879)
Boxcar Smoothing: 0 (USB4H00879)
Correct for Electrical Dark: No (USB4H00879)
Strobe/Lamp Enabled: No (USB4H00879)
Correct for Detector Non-linearity: No (USB4H00879)
Correct for Stray Light: No (USB4H00879)
Number of Pixels in Processed Spectrum: 3648
>>>>>Begin Processed Spectral Data<<<<<
345.13	1294.32
345.34	1294.32
345.56	1294.32
345.78	1249.26
345.99	1310.70
346.21	1769.44
346.42	1695.72
346.64	1681.38
346.86	1763.30
347.07	1677.29
347.29	1683.43
347.50	1581.03
347.72	1714.15
347.94	1779.68
348.15	1578.98
348.37	1636.33
348.59	1742.82
348.80	1691.62
349.02	1808.36
349.23	1781.73
349.45	1783.78
349.67	1791.97
349.88	1800.16
350.10	1968.10
350.31	1849.32
350.53	1875.94
350.75	1929.19
350.96	1724.39
351.18	1832.93
351.39	1869.80
351.61	1865.70
351.82	1908.71
352.04	1865.70
352.26	1837.03
352.47	1826.79
352.69	1923.04
352.90	1804.26
353.12	1804.26
353.34	1826.79
353.55	1906.66
353.77	1861.60
353.98	1810.40
354.20	1839.08
354.41	1937.38
354.63	1867.75
354.85	2074.59
355.06	1902.56
355.28	1753.06
355.49	1875.94
355.71	1873.89
355.92	1855.46
356.14	1857.51
356.35	1849.32
356.57	1880.04
356.79	1865.70
357.00	1845.22
357.22	1939.43
357.43	1875.94
357.65	1923.04
357.86	1894.37
358.08	1929.19
358.29	1929.19
358.51	2002.91
358.72	1953.76
358.94	1880.04
359.16	1880.04
359.37	1900.52
359.59	1945.57
359.80	1966.05
360.02	1943.52
360.23	1935.33
360.45	1994.72
360.66	1970.15
360.88	1851.36
361.09	1957.86
361.31	1957.86
361.52	1964.00
361.74	2019.30
361.95	2039.78
362.17	1939.43
362.38	1996.77
362.60	2066.40
362.81	2009.06
363.03	1908.71
363.24	2029.54
363.46	2097.12
363.67	2021.35
363.89	1961.95
364.10	2037.73
364.32	1994.72
364.53	2039.78
364.75	1937.38
364.96	1982.43
365.18	1996.77
365.39	2011.11
365.61	1980.39
365.82	2142.18
366.04	2017.25
366.25	1920.99
366.47	2015.20
366.68	1994.72
366.90	1959.91
367.11	2086.88
367.33	1998.82
367.54	2076.64
367.76	2023.39
367.97	2027.49
368.19	2019.30
368.40	2072.54
368.62	1970.15
368.83	1916.90
369.05	2072.54
369.26	1923.04
369.48	1972.19
369.69	1980.39
369.91	2037.73
370.12	1996.77
370.33	2181.09
370.55	1968.10
370.76	2019.30
370.98	2117.60
371.19	2056.16
371.41	1998.82
371.62	2021.35
371.84	2000.87
372.05	2125.79
372.27	2074.59
372.48	2013.15
372.69	2047.97
372.91	2109.41
373.12	2113.50
373.34	2123.74
373.55	2023.39
373.77	2136.03
373.98	2162.66
374.20	2148.32
374.41	2238.43
374.62	2111.46
374.84	2113.50
375.05	2181.09
375.27	2181.09
375.48	2131.94
375.70	2136.03
375.91	2185.18
376.12	2207.71
376.34	2101.22
376.55	2211.81
376.77	2133.98
376.98	2129.89
377.19	2193.37
377.41	2176.99
377.62	2172.89
377.84	2250.72
378.05	2346.97
378.27	2158.56
378.48	2310.11
378.69	2346.97
378.91	2320.35
379.12	2189.28
379.34	2277.34
379.55	2273.25
379.76	2230.24
379.98	2277.34
380.19	2224.09
380.41	2258.91
380.62	2271.20
380.83	2269.15
381.05	2158.56
381.26	2404.32
381.47	2246.62
381.69	2244.57
381.90	2379.74
382.12	2269.15
382.33	2267.10
382.54	2211.81
382.76	2248.67
382.97	2351.07
383.19	2291.68
383.40	2404.32
383.61	2310.11
383.83	2332.64
384.04	2265.05
384.25	2246.62
384.47	2365.40
384.68	2357.21
384.89	2367.45
385.11	2281.44
385.32	2324.44
385.54	2285.53
385.75	2435.03
385.96	2373.60
386.18	2443.23
386.39	2389.98
386.60	2353.12
386.82	2367.45
387.03	2428.89
387.24	2457.56
387.46	2430.94
387.67	2457.56
387.88	2473.95
388.10	2484.19
388.31	2478.04
388.52	2572.25
388.74	2478.04
388.95	2533.34
389.16	2463.71
389.38	2492.38
389.59	2645.98
389.80	2559.96
390.02	2471.90
390.23	2662.36
390.44	2594.78
390.66	2553.82
390.87	2535.39
391.08	2650.07
391.30	2707.41
391.51	2670.55
391.72	2717.65
391.94	2656.22
392.15	2641.88
392.36	2619.35
392.58	2605.02
392.79	2625.50
393.00	2705.37
393.22	2682.84
393.43	2766.81
393.64	2877.40
393.85	2863.06
394.07	2637.78
394.28	2693.08
394.49	2754.52
394.71	2787.29
394.92	2850.77
395.13	2729.94
395.35	2717.65
395.56	2740.18
395.77	2703.32
395.98	2725.85
396.20	2826.20
396.41	2805.72
396.62	2834.39
396.84	2928.60
397.05	2754.52
397.26	2879.44
397.47	2955.22
397.69	2879.44
397.90	3059.67
398.11	2916.31
398.32	2764.76
398.54	2824.15
398.75	2826.20
398.96	2867.16
399.18	2990.03
399.39	2969.55
399.60	2998.23
399.81	2992.08
400.03	2877.40
400.24	3180.50
400.45	3030.99
400.66	2992.08
400.88	2990.03
401.09	3160.02
401.30	2953.17
401.51	3057.62
401.73	3053.52
401.94	3131.34
402.15	3133.39
402.36	3059.67
402.58	3145.68
402.79	3084.24
403.00	3180.50
403.21	3192.78
403.43	3176.40
403.64	3268.56
403.85	3149.78
404.06	3221.45
404.27	3030.99
404.49	3151.82
404.70	3223.50
404.91	3293.13
405.12	3168.21
405.34	3196.88
405.55	3379.15
405.76	3170.26
405.97	3180.50
406.19	3405.77
406.40	3229.65
406.61	3325.90
406.82	3360.72
407.03	3321.81
407.25	3340.24
407.46	3391.44
407.67	3385.29
407.88	3438.54
408.09	3393.48
408.31	3256.27
408.52	3325.90
408.73	3293.13
408.94	3409.87
409.15	3366.86
409.37	3479.50
409.58	3463.12
409.79	3469.26
410.00	3559.37
410.21	3336.14
410.43	3497.93
410.64	3471.31
410.85	3518.41
411.06	3475.40
411.27	3440.59
411.48	3469.26
411.70	3590.09
411.91	3469.26
412.12	3612.62
412.33	3588.04
412.54	3608.52
412.76	3633.10
412.97	3710.92
413.18	3395.53
413.39	3655.62
413.60	3649.48
413.81	3641.29
414.03	3626.95
414.24	3557.32
414.45	3760.07
414.66	3491.79
414.87	3692.49
415.08	3735.50
415.30	3620.81
415.51	3770.31
415.72	3733.45
415.93	3764.17
416.14	3704.78
416.35	3811.27
416.56	3729.35
416.78	3821.51
416.99	3977.16
417.20	3895.24
417.41	3837.89
417.62	3962.82
417.83	3917.76
418.04	3971.01
418.26	3864.52
418.47	3895.24
418.68	3891.14
418.89	3825.61
419.10	4100.03
419.31	3968.96
419.52	4030.40
419.73	3907.52
419.95	4091.84
420.16	3882.95
420.37	4014.02
420.58	4136.90
420.79	3901.38
421.00	4161.47
421.21	4007.87
421.42	4030.40
421.63	4192.19
421.85	4024.26
422.06	4138.94
422.27	4042.69
422.48	4149.18
422.69	4181.95
422.90	4364.22
423.11	4153.28
423.32	4292.54
423.53	4435.90
423.75	4390.84
423.96	4425.66
424.17	4333.50
424.38	4515.77
424.59	4452.28
424.80	4526.01
425.01	4370.37
425.22	4394.94
425.43	4409.28
425.64	4597.69
425.85	4503.48
426.06	4497.34
426.28	4470.72
426.49	4423.61
426.70	4440.00
426.91	4493.24
427.12	4720.57
427.33	4757.43
427.54	4526.01
427.75	4747.19
427.96	4904.89
428.17	4716.47
428.38	4865.97
428.59	4876.21
428.80	4743.10
429.01	4804.53
429.23	4673.46
429.44	4902.84
429.65	5048.24
429.86	4859.83
430.07	4718.52
430.28	4769.72
430.49	4974.52
430.70	4892.60
430.91	4945.84
431.12	4919.22
431.33	5230.51
431.54	5185.46
431.75	5199.79
431.96	5009.33
432.17	4982.71
432.38	5126.07
432.59	5287.86
432.80	5144.50
433.01	5267.38
433.22	5238.70
433.43	5189.55
433.64	5351.34
433.85	5259.18
434.06	5289.90
434.27	5285.81
434.49	5339.05
434.70	5400.49
434.91	5398.45
435.12	5361.58
435.33	5429.17
435.54	5447.60
435.75	5416.88
435.96	5377.97
436.17	5300.14
436.38	5519.28
436.59	5638.06
436.80	5580.71
437.01	5681.07
437.22	5654.44
437.43	5576.62
437.64	5515.18
437.85	5654.44
438.06	5795.75
438.27	5517.23
438.48	5685.16
438.69	5808.04
438.90	5773.22
439.11	5605.29
439.32	5791.66
439.53	5728.17
439.74	5879.72
439.95	5863.33
440.16	5728.17
440.37	5781.42
440.57	5703.59
440.78	5922.73
440.99	5982.12
441.20	5814.18
441.41	5816.23
441.62	5965.73
441.83	5820.33
442.04	6139.81
442.25	5965.73
442.46	5996.45
442.67	6172.58
442.88	6457.25
443.09	5953.45
443.30	6102.95
443.51	6129.57
443.72	6408.09
443.93	6131.62
444.14	6404.00
444.35	6213.54
444.56	6274.98
444.77	6203.30
444.98	6270.88
445.19	6227.87
445.40	6354.85
445.61	6412.19
445.81	6348.70
446.02	6416.29
446.23	6463.39
446.44	6229.92
446.65	6504.35
446.86	6549.40
447.07	6547.36
447.28	6848.41
447.49	6606.75
447.70	6516.64
447.91	6645.66
448.12	6825.88
448.33	6705.05
448.54	6733.72
448.74	6614.94
448.95	6866.84
449.16	6829.98
449.37	7085.97
449.58	6729.63
449.79	7002.01
450.00	6686.62
450.21	6967.19
450.42	7008.15
450.63	6993.81
450.84	6883.22
451.05	6983.57
451.25	6795.16
451.46	6903.70
451.67	7030.68
451.88	7339.92
452.09	7120.79
452.30	7188.37
452.51	7169.94
452.72	7344.02
452.93	7557.00
453.13	7069.59
453.34	7196.56
453.55	7331.73
453.76	7223.19
453.97	7536.52
454.18	7423.89
454.39	7475.09
454.60	7352.21
454.81	7481.23
455.01	7569.29
455.22	7376.78
455.43	7620.49
455.64	7712.65
455.85	7802.76
456.06	7767.95
456.27	7776.14
456.48	7798.66
456.68	7755.66
456.89	7825.29
457.10	8120.20
457.31	7937.93
457.52	8015.75
457.73	7794.57
457.94	8128.39
458.14	8095.62
458.35	8396.67
458.56	8144.77
458.77	8210.31
458.98	8204.16
459.19	8238.98
459.39	8406.91
459.60	8421.25
459.81	8216.45
460.02	8570.75
460.23	8427.39
460.44	8693.63
460.65	8613.76
460.85	8707.96
461.06	8660.86
461.27	8484.73
461.48	8968.06
461.69	8920.95
461.89	8617.85
462.10	8802.17
462.31	8533.89
462.52	8822.65
462.73	8742.78
462.94	9398.13
463.14	9041.78
463.35	9019.25
463.56	9518.96
463.77	9404.27
463.98	9006.97
464.18	9314.16
464.39	9326.45
464.60	9674.60
464.81	9645.93
465.02	9328.50
465.23	9695.08
465.43	9451.38
465.64	9723.76
465.85	9711.47
466.06	9611.12
466.27	9942.89
466.47	9938.79
466.68	9844.59
466.89	9936.74
467.10	10080.10
467.30	9785.19
467.51	10202.98
467.72	10336.10
467.93	9955.18
468.14	10153.83
468.34	10514.27
468.55	10348.39
468.76	10518.37
468.97	10262.37
469.17	10577.76
469.38	10760.03
469.59	10809.18
469.80	10641.25
470.01	10872.67
470.21	10923.87
470.42	11077.46
470.63	11157.33
470.84	11161.43
471.04	11374.42
471.25	11155.29
471.46	11257.68
471.67	11540.30
471.87	11370.32
472.08	11544.40
472.29	11513.68
472.50	11415.38
472.70	11698.00
472.91	11640.65
473.12	11833.16
473.33	11978.57
473.53	11978.57
473.74	11945.80
473.95	12201.80
474.16	12336.96
474.36	12238.66
474.57	12369.73
474.78	12441.41
474.99	12408.64
475.19	12523.33
475.40	12879.68
475.61	12728.13
475.81	12916.54
476.02	12973.88
476.23	13139.77
476.44	12980.03
476.64	13297.46
476.85	13563.70
477.06	13264.69
477.27	13428.53
477.47	13864.75
477.68	13664.05
477.89	13799.21
478.09	13776.69
478.30	13889.32
478.51	13930.28
478.71	14032.68
478.92	14171.94
479.13	14255.91
479.34	14470.95
479.54	14477.09
479.75	14542.63
479.96	14563.11
480.16	14620.45
480.37	14868.25
480.58	14929.69
480.78	15281.94
480.99	14978.84
481.20	15464.21
481.41	15185.69
481.61	15472.40
481.82	15480.60
482.03	15392.53
482.23	15517.46
482.44	15736.59
482.65	15965.96
482.85	16150.28
483.06	15767.31
483.27	15730.45
483.47	16262.92
483.68	16008.97
483.89	16432.90
484.09	16443.14
484.30	16406.28
484.51	16496.39
484.71	16817.92
484.92	16594.69
485.13	17020.67
485.33	16836.35
485.54	17164.03
485.75	17346.30
485.95	17643.25
486.16	17288.95
486.37	17344.25
486.57	17250.04
486.78	17745.65
486.98	17618.68
487.19	17616.63
487.40	18065.13
487.60	18185.96
487.81	17942.25
488.02	17843.95
488.22	18065.13
488.43	18525.93
488.64	18347.75
488.84	18718.43
489.05	18691.81
489.25	18480.87
489.46	18511.59
489.67	18892.51
489.87	18861.79
490.08	18773.73
490.29	19103.45
490.49	19580.63
490.70	19291.87
490.90	19447.51
491.11	19334.87
491.32	19693.27
491.52	19467.99
491.73	19756.75
491.94	20045.52
492.14	19775.19
492.35	19795.67
492.55	19914.45
492.76	20057.81
492.97	20399.82
493.17	20543.17
493.38	20209.36
493.58	20448.97
493.79	20528.84
494.00	20571.85
494.20	20621.00
494.41	20854.47
494.61	21110.46
494.82	21096.13
495.02	21030.59
495.23	21280.44
495.44	20920.00
495.64	21325.50
495.85	21300.92
496.05	21431.99
496.26	21532.34
496.47	21814.96
496.67	21575.35
496.88	21956.27
497.08	21675.70
497.29	22081.20
497.49	21903.03
497.70	22329.00
497.91	22435.50
498.11	22175.41
498.32	22367.91
498.52	22292.14
498.73	22861.48
498.93	22836.90
499.14	23031.46
499.34	22619.81
499.55	22941.35
499.76	22871.72
499.96	23185.05
500.17	22900.39
500.37	23133.86
500.58	23123.62
500.78	23072.42
500.99	23369.37
501.19	23512.73
501.40	23565.98
501.60	23484.06
501.81	23445.15
502.02	23733.91
502.22	23469.72
502.43	23699.09
502.63	23836.31
502.84	23934.61
503.04	24114.83
503.25	24039.06
503.45	24374.92
503.66	24579.72
503.86	24307.34
504.07	24600.20
504.27	24315.53
504.48	24649.35
504.68	24436.36
504.89	24821.38
505.09	24704.65
505.30	24958.60
505.50	24964.74
505.71	24716.93
505.91	25030.27
506.12	24903.30
506.32	24684.17
506.53	25114.24
506.73	25349.76
506.94	25302.65
507.14	25085.57
507.35	25407.10
507.55	25378.43
507.76	25648.76
507.96	25411.20
508.17	25642.62
508.37	25792.12
508.58	25882.23
508.78	25882.23
508.99	26277.49
509.19	26234.48
509.40	26035.83
509.60	25749.11
509.81	26228.34
510.01	26267.25
510.22	26234.48
510.42	26097.27
510.63	26273.39
510.83	26545.77
511.04	26515.05
511.24	26306.16
511.44	26386.03
511.65	26474.09
511.85	26648.17
512.06	26676.84
512.26	26480.24
512.47	26762.86
512.67	26926.69
512.88	27006.56
513.08	26717.80
513.29	27346.53
513.49	26996.32
513.69	26990.18
513.90	27205.22
514.10	27430.49
514.31	27383.39
514.51	27401.82
514.72	27063.91
514.92	27362.91
515.13	27457.12
515.33	27768.41
515.53	27629.15
515.74	27674.20
515.94	27567.71
516.15	27686.49
516.35	27760.22
516.56	27840.09
516.76	27922.01
516.96	28124.75
517.17	28317.26
517.37	28053.08
517.58	27975.25
517.78	28337.74
517.99	28370.51
518.19	28589.64
518.39	28683.85
518.60	28628.56
518.80	28640.84
519.01	28511.82
519.21	28819.02
519.41	28769.86
519.62	28591.69
519.82	29120.07
520.03	29120.07
520.23	29048.39
520.43	29060.68
520.64	29408.83
520.84	29392.45
521.05	29269.57
521.25	29206.08
521.45	29476.41
521.66	29306.43
521.86	29605.44
522.07	29591.10
522.27	29490.75
522.47	29482.56
522.68	29840.95
522.88	29826.62
523.08	29998.65
523.29	30025.27
523.49	30398.00
523.70	30189.11
523.90	30690.86
524.10	30438.96
524.31	30379.57
524.51	30340.66
524.71	30981.67
524.92	30811.69
525.12	30762.54
525.33	30869.03
525.53	30969.38
525.73	31348.26
525.94	31139.36
526.14	31335.97
526.34	31442.46
526.55	31370.79
526.75	31323.68
526.95	31526.43
527.16	31524.38
527.36	31378.98
527.56	31620.64
527.77	31907.35
527.97	31888.92
528.17	32034.33
528.38	32142.87
528.58	32196.12
528.78	32189.97
528.99	32177.68
529.19	32497.17
529.39	31774.24
529.60	32597.52
529.80	32536.08
530.00	32744.97
530.21	33181.19
530.41	33086.98
530.61	32900.62
530.82	33314.31
531.02	33093.13
531.22	33310.21
531.43	33461.76
531.63	33355.27
531.83	33398.27
532.04	33652.22
532.24	33353.22
532.44	33754.62
532.64	33895.93
532.85	34340.34
533.05	33959.42
533.25	34123.26
533.46	33998.33
533.66	34133.50
533.86	34430.45
534.07	34756.08
534.27	34616.82
534.47	35040.75
534.67	34625.01
534.88	34727.41
535.08	35245.54
535.28	35147.24
535.49	35329.51
535.69	35683.81
535.89	35362.28
536.09	35683.81
536.30	35661.28
536.50	35646.94
536.70	35896.80
536.91	35550.69
537.11	36169.18
537.31	36070.87
537.51	35735.01
537.72	36087.26
537.92	36597.20
538.12	36498.90
538.32	36732.37
538.53	36720.08
538.73	36498.90
538.93	36566.48
539.13	37154.25
539.34	36726.22
539.54	36685.26
539.74	37082.57
539.94	37240.26
540.15	36779.47
540.35	37338.57
540.55	37434.82
540.75	37365.19
540.96	37608.90
541.16	37770.69
541.36	37701.06
541.56	37551.56
541.77	37836.22
541.97	37498.31
542.17	37905.85
542.37	37977.53
542.58	37879.23
542.78	38065.60
542.98	38034.88
543.18	38544.82
543.38	38679.99
543.59	38344.12
543.79	38436.28
543.99	38292.92
544.19	38763.95
544.40	38239.67
544.60	39189.93
544.80	38737.33
545.00	39062.96
545.20	38684.08
545.41	38665.65
545.61	38942.13
545.81	39022.00
546.01	39398.82
546.21	39083.44
546.42	39392.68
546.62	39325.10
546.82	39065.00
547.02	39568.80
547.22	39601.57
547.43	39708.07
547.63	39663.01
547.83	39787.94
548.03	39730.59
548.23	40252.83
548.44	39697.83
548.64	39925.15
548.84	39890.34
549.04	39773.60
549.24	40091.04
549.45	40584.60
549.65	40119.71
549.85	40340.89
550.05	40609.17
550.25	40203.67
550.45	40904.08
550.66	40545.69
550.86	40465.81
551.06	40646.04
551.26	40836.50
551.46	40822.16
551.66	40775.06
551.87	40816.02
552.07	40840.59
552.27	40705.43
552.47	40713.62
552.67	41045.39
552.87	41229.71
553.07	41084.30
553.28	41237.90
553.48	41358.73
553.68	41176.46
553.88	41792.90
554.08	41420.17
554.28	41567.62
554.48	41391.50
554.69	41244.04
554.89	41541.00
555.09	41745.80
555.29	41385.35
555.49	42091.90
555.69	41622.92
555.89	41823.62
556.10	42112.38
556.30	41840.00
556.50	41809.28
556.70	42136.96
556.90	42098.05
557.10	42399.10
557.30	41772.42
557.50	42149.24
557.70	42298.75
557.91	42419.58
558.11	42069.37
558.31	42581.37
558.51	42220.92
558.71	42319.23
558.91	42884.47
559.11	42427.77
559.31	42753.40
559.51	42239.36
559.72	42513.78
559.92	42732.92
560.12	42698.10
560.32	42927.47
560.52	42546.55
560.72	43074.93
560.92	43074.93
561.12	42597.75
561.32	43337.07
561.52	42950.00
561.72	43070.83
561.93	42734.96
562.13	43023.73
562.33	42685.81
562.53	43539.82
562.73	43265.39
562.93	43238.76
563.13	43111.79
563.33	43560.30
563.53	43388.27
563.73	43214.19
563.93	43468.14
564.13	43924.83
564.33	43570.54
564.53	43224.43
564.74	43580.78
564.94	43566.44
565.14	44103.01
565.34	43324.78
565.54	43871.59
565.74	43804.00
565.94	44123.49
566.14	43926.88
566.34	43611.49
566.54	44209.50
566.74	43650.41
566.94	44422.49
567.14	44270.94
567.34	43783.52
567.54	44496.22
567.74	43969.89
567.94	44131.68
568.14	44307.80
568.34	44307.80
568.54	44193.12
568.74	44143.97
568.94	44225.89
569.14	44547.42
569.34	44397.91
569.54	44635.48
569.75	44275.04
569.95	44795.22
570.15	44916.05
570.35	45014.35
570.55	44715.35
570.75	44674.39
570.95	44793.17
571.15	44774.74
571.35	45161.81
571.55	45194.57
571.75	45014.35
571.95	44932.43
572.15	44731.73
572.35	45004.11
572.55	45413.71
572.75	45307.21
572.95	45233.49
573.15	45196.62
573.35	45577.54
573.55	44827.99
573.75	44979.54
573.95	45411.66
574.15	45339.98
574.35	45321.55
574.55	45649.22
574.75	45765.96
574.95	45612.36
575.15	45495.63
575.34	45708.61
575.54	46024.00
575.74	45651.27
575.94	45753.67
576.14	45657.42
576.34	45864.26
576.54	46169.41
576.74	46167.36
576.94	45966.66
577.14	46390.59
577.34	46439.74
577.54	45862.21
577.74	46302.53
577.94	46632.25
578.14	46746.93
578.34	46802.23
578.54	46064.96
578.74	46249.28
578.94	46540.09
579.14	46667.06
579.34	46796.09
579.54	47123.76
579.74	47428.91
579.94	47019.31
580.13	47144.24
580.33	47203.63
580.53	46984.50
580.73	47181.10
580.93	47045.94
581.13	47080.75
581.33	47250.74
581.53	47414.57
581.73	47002.93
581.93	47719.72
582.13	47346.99
582.33	47543.59
582.53	47512.88
582.73	47801.64
582.92	48026.92
583.12	47992.10
583.32	47547.69
583.52	47486.25
583.72	47783.21
583.92	47670.57
584.12	48039.20
584.32	48180.51
584.52	48266.53
584.72	48059.68
584.92	48174.37
585.11	48790.81
585.31	48215.33
585.51	48344.35
585.71	48303.39
585.91	48618.78
586.11	48559.39
586.31	48168.22
586.51	48848.15
586.71	48995.60
586.91	49331.47
587.10	48995.60
587.30	49067.28
587.50	48600.35
587.70	48964.88
587.90	48645.40
588.10	49075.48
588.30	48878.87
588.50	49175.83
