SpectraSuite Data File
++++++++++++++++++++++++++++++++++++
Date: Fri Jun 02 14:51:12 CEST 2017
User: INFO_000
Dark Spectrum Present: No
Reference Spectrum Present: No
Number of Sampled Component Spectra: 1
Spectrometers: USB4H00879
Integration Time (usec): 80000 (USB4H00879)
Spectra Averaged: 1 (USB4H00879)
Boxcar Smoothing: 0 (USB4H00879)
Correct for Electrical Dark: No (USB4H00879)
Strobe/Lamp Enabled: No (USB4H00879)
Correct for Detector Non-linearity: No (USB4H00879)
Correct for Stray Light: No (USB4H00879)
Number of Pixels in Processed Spectrum: 3648
>>>>>Begin Processed Spectral Data<<<<<
345.13	1245.16
345.34	1245.16
345.56	1245.16
345.78	1257.45
345.99	1277.93
346.21	1646.57
346.42	1708.01
346.64	1642.47
346.86	1783.78
347.07	1695.72
347.29	1773.54
347.50	1609.70
347.72	1660.90
347.94	1791.97
348.15	1519.59
348.37	1626.09
348.59	1736.68
348.80	1644.52
349.02	1728.49
349.23	1861.60
349.45	1839.08
349.67	1861.60
349.88	1794.02
350.10	2000.87
350.31	1886.18
350.53	1884.13
350.75	1972.19
350.96	1789.92
351.18	1888.23
351.39	1830.88
351.61	1757.16
351.82	1867.75
352.04	1925.09
352.26	1834.98
352.47	1820.64
352.69	1894.37
352.90	1787.88
353.12	1863.65
353.34	1861.60
353.55	1937.38
353.77	1888.23
353.98	1746.92
354.20	1791.97
354.41	2002.91
354.63	1910.75
354.85	2025.44
355.06	1888.23
355.28	1744.87
355.49	1953.76
355.71	1861.60
355.92	1875.94
356.14	2015.20
356.35	1980.39
356.57	1847.27
356.79	1961.95
357.00	1937.38
357.22	1882.08
357.43	1804.26
357.65	1970.15
357.86	1826.79
358.08	1906.66
358.29	1953.76
358.51	1957.86
358.72	1910.75
358.94	1970.15
359.16	1910.75
359.37	1945.57
359.59	1996.77
359.80	2025.44
360.02	1961.95
360.23	1943.52
360.45	2025.44
360.66	1861.60
360.88	1896.42
361.09	1843.17
361.31	1992.67
361.52	2033.63
361.74	2068.45
361.95	2101.22
362.17	1882.08
362.38	2047.97
362.60	2136.03
362.81	1941.47
363.03	1927.14
363.24	1959.91
363.46	2129.89
363.67	2066.40
363.89	2035.68
364.10	1951.71
364.32	1994.72
364.53	2054.11
364.75	1884.13
364.96	2039.78
365.18	2019.30
365.39	1998.82
365.61	1961.95
365.82	2136.03
366.04	1970.15
366.25	1998.82
366.47	2060.26
366.68	2011.11
366.90	2007.01
367.11	2125.79
367.33	2052.06
367.54	2072.54
367.76	2013.15
367.97	2111.46
368.19	1998.82
368.40	1994.72
368.62	1935.33
368.83	1966.05
369.05	2004.96
369.26	1986.53
369.48	1984.48
369.69	2019.30
369.91	1970.15
370.12	2045.92
370.33	2199.52
370.55	1923.04
370.76	2047.97
370.98	2064.35
371.19	1966.05
371.41	2015.20
371.62	2045.92
371.84	1955.81
372.05	2115.55
372.27	2099.17
372.48	1992.67
372.69	2097.12
372.91	2133.98
373.12	2215.90
373.34	2068.45
373.55	2072.54
373.77	2195.42
373.98	2101.22
374.20	2209.76
374.41	2334.68
374.62	2140.13
374.84	2076.64
375.05	2185.18
375.27	2127.84
375.48	2185.18
375.70	2088.93
375.91	2191.33
376.12	2156.51
376.34	2246.62
376.55	2185.18
376.77	2160.61
376.98	2168.80
377.19	2070.50
377.41	2107.36
377.62	2205.66
377.84	2244.57
378.05	2340.83
378.27	2138.08
378.48	2281.44
378.69	2435.03
378.91	2260.96
379.12	2289.63
379.34	2191.33
379.55	2179.04
379.76	2252.77
379.98	2252.77
380.19	2228.19
380.41	2146.27
380.62	2295.77
380.83	2224.09
381.05	2199.52
381.26	2439.13
381.47	2293.72
381.69	2279.39
381.90	2369.50
382.12	2330.59
382.33	2279.39
382.54	2246.62
382.76	2220.00
382.97	2336.73
383.19	2222.05
383.40	2326.49
383.61	2314.20
383.83	2217.95
384.04	2265.05
384.25	2412.51
384.47	2379.74
384.68	2312.16
384.89	2365.40
385.11	2340.83
385.32	2303.96
385.54	2303.96
385.75	2328.54
385.96	2367.45
386.18	2463.71
386.39	2379.74
386.60	2471.90
386.82	2467.80
387.03	2420.70
387.24	2418.65
387.46	2463.71
387.67	2469.85
387.88	2516.95
388.10	2535.39
388.31	2516.95
388.52	2553.82
388.74	2486.23
388.95	2420.70
389.16	2488.28
389.38	2537.43
389.59	2594.78
389.80	2580.44
390.02	2533.34
390.23	2641.88
390.44	2492.38
390.66	2570.20
390.87	2543.58
391.08	2635.74
391.30	2641.88
391.51	2660.31
391.72	2531.29
391.94	2580.44
392.15	2598.87
392.36	2682.84
392.58	2668.50
392.79	2707.41
393.00	2668.50
393.22	2549.72
393.43	2789.33
393.64	2764.76
393.85	2875.35
394.07	2617.30
394.28	2691.03
394.49	2834.39
394.71	2713.56
394.92	2828.24
395.13	2738.13
395.35	2711.51
395.56	2723.80
395.77	2824.15
395.98	2766.81
396.20	2799.57
396.41	2803.67
396.62	2844.63
396.84	2721.75
397.05	2858.96
397.26	2877.40
397.47	2961.36
397.69	2740.18
397.90	3059.67
398.11	2930.64
398.32	2820.05
398.54	2768.85
398.75	2744.28
398.96	2871.25
399.18	3059.67
399.39	2910.16
399.60	2961.36
399.81	2951.12
400.03	2824.15
400.24	3125.20
400.45	2899.92
400.66	3057.62
400.88	2963.41
401.09	3203.02
401.30	3055.57
401.51	3112.91
401.73	3166.16
401.94	3129.30
402.15	3041.23
402.36	3108.82
402.58	3129.30
402.79	3114.96
403.00	2994.13
403.21	3117.01
403.43	3114.96
403.64	3229.65
403.85	3030.99
404.06	3215.31
404.27	3094.48
404.49	3250.13
404.70	3151.82
404.91	3282.89
405.12	3149.78
405.34	3309.52
405.55	3360.72
405.76	3078.10
405.97	3260.37
406.19	3319.76
406.40	3305.42
406.61	3280.85
406.82	3229.65
407.03	3301.33
407.25	3211.22
407.46	3301.33
407.67	3459.02
407.88	3391.44
408.09	3246.03
408.31	3352.52
408.52	3387.34
408.73	3358.67
408.94	3280.85
409.15	3469.26
409.37	3475.40
409.58	3452.88
409.79	3383.24
410.00	3487.69
410.21	3448.78
410.43	3467.21
410.64	3385.29
410.85	3557.32
411.06	3540.94
411.27	3571.66
411.48	3561.42
411.70	3563.47
411.91	3514.31
412.12	3637.19
412.33	3665.86
412.54	3555.27
412.76	3755.97
412.97	3706.82
413.18	3504.07
413.39	3575.75
413.60	3604.42
413.81	3653.58
414.03	3618.76
414.24	3620.81
414.45	3692.49
414.66	3567.56
414.87	3805.13
415.08	3571.66
415.30	3542.99
415.51	3768.26
415.72	3803.08
415.93	3831.75
416.14	3809.22
416.35	3743.69
416.56	3772.36
416.78	3831.75
416.99	3841.99
417.20	3811.27
417.41	3887.04
417.62	3985.35
417.83	3956.68
418.04	3917.76
418.26	3813.32
418.47	3792.84
418.68	3936.20
418.89	3897.28
419.10	4167.62
419.31	3934.15
419.52	4083.65
419.73	3991.49
419.95	4065.22
420.16	3975.11
420.37	3905.48
420.58	3958.72
420.79	3950.53
421.00	4151.23
421.21	4018.11
421.42	3983.30
421.63	4089.79
421.85	4106.18
422.06	4247.49
422.27	3979.20
422.48	4149.18
422.69	4167.62
422.90	4171.71
423.11	4136.90
423.32	4229.06
423.53	4401.08
423.75	4255.68
423.96	4489.15
424.17	4333.50
424.38	4380.61
424.59	4253.63
424.80	4444.09
425.01	4444.09
425.22	4483.00
425.43	4384.70
425.64	4550.59
425.85	4712.38
426.06	4595.64
426.28	4577.21
426.49	4401.08
426.70	4517.82
426.91	4587.45
427.12	4698.04
427.33	4595.64
427.54	4605.88
427.75	4663.22
427.96	4855.73
428.17	4804.53
428.38	4646.84
428.59	4751.29
428.80	4626.36
429.01	4853.69
429.23	4777.91
429.44	5038.00
429.65	4872.12
429.86	4906.93
430.07	4878.26
430.28	4911.03
430.49	4921.27
430.70	5015.48
430.91	5115.83
431.12	5017.52
431.33	5187.50
431.54	5117.87
431.75	5109.68
431.96	5103.54
432.17	5042.10
432.38	5093.30
432.59	5318.57
432.80	5279.66
433.01	5300.14
433.22	5167.03
433.43	5363.63
433.64	5392.30
433.85	5222.32
434.06	5406.64
434.27	5255.09
434.49	5404.59
434.70	5425.07
434.91	5371.82
435.12	5361.58
435.33	5459.88
435.54	5498.80
435.75	5210.03
435.96	5400.49
436.17	5408.69
436.38	5595.05
436.59	5535.66
436.80	5447.60
437.01	5771.18
437.22	5775.27
437.43	5408.69
437.64	5498.80
437.85	5660.59
438.06	5683.11
438.27	5648.30
438.48	5601.19
438.69	5877.67
438.90	5787.56
439.11	5689.26
439.32	5859.24
439.53	5973.92
439.74	5867.43
439.95	5855.14
440.16	5887.91
440.37	5937.06
440.57	5803.94
440.78	5937.06
440.99	5861.29
441.20	5865.38
441.41	5826.47
441.62	5861.29
441.83	5799.85
442.04	6010.79
442.25	5957.54
442.46	5791.66
442.67	5986.21
442.88	6371.23
443.09	5982.12
443.30	6031.27
443.51	6156.19
443.72	6432.67
443.93	6139.81
444.14	6248.35
444.35	6053.80
444.56	6234.02
444.77	6336.42
444.98	6191.01
445.19	6401.95
445.40	6348.70
445.61	6326.18
445.81	6426.53
446.02	6367.13
446.23	6279.07
446.44	6244.26
446.65	6459.29
446.86	6502.30
447.07	6360.99
447.28	6694.81
447.49	6557.60
447.70	6420.38
447.91	6649.75
448.12	6737.82
448.33	6717.34
448.54	6717.34
448.74	6651.80
448.95	6682.52
449.16	6678.43
449.37	6922.13
449.58	6770.58
449.79	7049.11
450.00	6686.62
450.21	6819.74
450.42	6977.43
450.63	6762.39
450.84	6930.33
451.05	6903.70
451.25	6897.56
451.46	7016.34
451.67	7131.03
451.88	7159.70
452.09	7161.75
452.30	7057.30
452.51	7034.77
452.72	7219.09
452.93	7489.42
453.13	7081.88
453.34	7030.68
453.55	7169.94
453.76	7184.27
453.97	7444.37
454.18	7243.67
454.39	7575.44
454.60	7483.28
454.81	7305.10
455.01	7575.44
455.22	7227.28
455.43	7423.89
455.64	7567.24
455.85	7667.60
456.06	7810.95
456.27	7761.80
456.48	7567.24
456.68	7671.69
456.89	7659.40
457.10	7739.27
457.31	8054.66
457.52	7999.37
457.73	7933.83
457.94	8138.63
458.14	7931.78
458.35	8320.90
458.56	8003.46
458.77	8073.09
458.98	8253.31
459.19	8370.05
459.39	8193.92
459.60	8292.23
459.81	8112.00
460.02	8462.21
460.23	8392.58
460.44	8671.10
460.65	8591.23
460.85	8818.55
461.06	8726.39
461.27	8466.30
461.48	8714.11
461.69	9000.82
461.89	8656.76
462.10	8857.46
462.31	8773.50
462.52	8624.00
462.73	8806.27
462.94	9111.41
463.14	9009.01
463.35	8955.77
463.56	9248.63
463.77	9394.03
463.98	9248.63
464.18	9305.97
464.39	9330.55
464.60	9400.18
464.81	9514.86
465.02	9310.07
465.23	9531.25
465.43	9414.51
465.64	9805.67
465.85	9447.28
466.06	9637.74
466.27	9897.83
466.47	9899.88
466.68	9856.87
466.89	9736.04
467.10	10094.44
467.30	9920.36
467.51	10266.47
467.72	10356.58
467.93	10159.97
468.14	10192.74
468.34	10547.04
468.55	10538.85
468.76	10479.46
468.97	10454.88
469.17	10565.47
469.38	10483.55
469.59	10833.75
469.80	10461.02
470.01	10839.90
470.21	10835.80
470.42	10989.40
470.63	11110.23
470.84	10854.23
471.04	11081.56
471.25	11175.77
471.46	11065.18
471.67	11407.19
471.87	11280.21
472.08	11439.95
472.29	11530.06
472.50	11368.27
472.70	11497.30
472.91	11730.76
473.12	11839.31
473.33	11755.34
473.53	11943.75
473.74	11841.36
473.95	12199.75
474.16	12300.10
474.36	12263.24
474.57	12269.38
474.78	12441.41
474.99	12291.91
475.19	12386.12
475.40	12654.40
475.61	12627.78
475.81	13016.89
476.02	13076.28
476.23	12732.22
476.44	13053.75
476.64	13520.69
476.85	13379.38
477.06	13403.96
477.27	13582.13
477.47	13575.98
477.68	13670.19
477.89	13862.70
478.09	13731.63
478.30	13827.88
478.51	13864.75
478.71	14036.78
478.92	14104.36
479.13	14350.12
479.34	14145.32
479.54	14380.84
479.75	14485.28
479.96	14663.46
480.16	14550.82
480.37	14544.67
480.58	14790.43
480.78	15240.98
480.99	14933.79
481.20	15120.15
481.41	15214.36
481.61	15380.25
481.82	15517.46
482.03	15410.96
482.23	15271.70
482.44	15626.00
482.65	15812.37
482.85	15914.77
483.06	15765.26
483.27	16109.32
483.47	16068.36
483.68	16240.39
483.89	16271.11
484.09	16338.69
484.30	16596.74
484.51	16520.96
484.71	16779.01
484.92	16664.32
485.13	16975.61
485.33	16807.68
485.54	17006.33
485.75	17028.86
485.95	17368.82
486.16	17219.32
486.37	17583.86
486.57	17153.79
486.78	17524.47
486.98	17639.15
487.19	17708.79
487.40	17870.58
487.60	18036.46
487.81	18192.11
488.02	18077.42
488.22	18218.73
488.43	18048.75
488.64	18224.87
488.84	18370.28
489.05	18337.51
489.25	18515.69
489.46	18591.46
489.67	18845.41
489.87	18859.74
490.08	18992.86
490.29	18941.66
490.49	19502.81
490.70	18953.95
490.90	19261.15
491.11	19410.65
491.32	19576.53
491.52	19592.92
491.73	19543.77
491.94	19748.56
492.14	19713.75
492.35	20055.76
492.55	20027.09
492.76	20176.59
492.97	20262.60
493.17	20287.18
493.38	20469.45
493.58	20754.12
493.79	20594.37
494.00	20770.50
494.20	20537.03
494.41	20618.95
494.61	20786.88
494.82	20874.95
495.02	20991.68
495.23	21274.30
495.44	21067.45
495.64	21311.16
495.85	21237.44
496.05	21591.73
496.26	21417.66
496.47	21665.46
496.67	21567.16
496.88	22013.62
497.08	21620.41
497.29	22212.27
497.49	21972.66
497.70	22079.15
497.91	22138.54
498.11	22345.39
498.32	22083.25
498.52	22505.13
498.73	22728.36
498.93	22570.66
499.14	22734.50
499.34	22740.64
499.55	22875.81
499.76	22742.69
499.96	22937.25
500.17	23049.89
500.37	23041.70
500.58	23189.15
500.78	23051.94
500.99	23086.75
501.19	23488.15
501.40	23518.87
501.60	23324.32
501.81	23744.15
502.02	23355.04
502.22	23629.46
502.43	23637.66
502.63	24055.44
502.84	24063.63
503.04	23791.25
503.25	23922.32
503.45	24231.57
503.66	24372.88
503.86	24053.39
504.07	24389.26
504.27	24217.23
504.48	24710.79
504.68	24583.82
504.89	24942.21
505.09	24768.13
505.30	24997.51
505.50	24848.00
505.71	25060.99
505.91	24708.74
506.12	24870.53
506.32	25089.67
506.53	25075.33
506.73	25155.20
506.94	25081.47
507.14	25241.21
507.35	25519.74
507.55	25159.30
507.76	25728.63
507.96	25187.97
508.17	25788.02
508.37	25196.16
508.58	25607.80
508.78	25720.44
508.99	26336.88
509.19	25960.05
509.40	25970.29
509.60	25917.04
509.81	26214.00
510.01	26062.45
510.22	26324.59
510.42	26226.29
510.63	26150.51
510.83	26234.48
511.04	26338.93
511.24	26709.61
511.44	26367.60
511.65	26373.74
511.85	26541.68
512.06	26814.05
512.26	26725.99
512.47	26914.41
512.67	26699.37
512.88	26769.00
513.08	26484.33
513.29	27092.58
513.49	27039.33
513.69	26865.25
513.90	27043.43
514.10	27434.59
514.31	27373.15
514.51	27194.98
514.72	27248.22
514.92	27111.01
515.13	27332.19
515.33	27285.09
515.53	27274.85
515.74	27725.40
515.94	27858.52
516.15	28130.90
516.35	27602.52
516.56	27774.55
516.76	28102.23
516.96	27901.53
517.17	28216.91
517.37	27811.42
517.58	27930.20
517.78	28048.98
517.99	28188.24
518.19	28040.79
518.39	28761.67
518.60	28530.25
518.80	28466.77
519.01	28634.70
519.21	28776.01
519.41	28646.99
519.62	28935.75
519.82	28808.78
520.03	28761.67
520.23	28859.98
520.43	28675.66
520.64	29140.55
520.84	29251.14
521.05	29156.93
521.25	29013.57
521.45	29679.16
521.66	29517.37
521.86	29425.22
522.07	29507.13
522.27	29662.78
522.47	29398.59
522.68	30012.98
522.88	29560.38
523.08	30166.58
523.29	29906.49
523.49	29933.11
523.70	29963.83
523.90	30352.94
524.10	30150.20
524.31	30656.04
524.51	30379.57
524.71	30733.87
524.92	30555.69
525.12	30385.71
525.33	30654.00
525.53	30871.08
525.73	31256.10
525.94	30711.34
526.14	30760.49
526.34	31424.03
526.55	31387.17
526.75	31260.20
526.95	31508.00
527.16	31315.49
527.36	31319.59
527.56	31551.01
527.77	32040.47
527.97	31747.61
528.17	31798.81
528.38	31874.59
528.58	32083.48
528.78	32658.96
528.99	32155.16
529.19	32577.04
529.39	32302.61
529.60	32243.22
529.80	32661.01
530.00	32681.49
530.21	32749.07
530.41	33121.80
530.61	33115.65
530.82	32976.39
531.02	32650.77
531.22	33216.01
531.43	33148.42
531.63	33336.84
531.83	33308.16
532.04	33910.27
532.24	33531.39
532.44	33916.41
532.64	34119.16
532.85	33971.71
533.05	33949.18
533.25	33834.49
533.46	34031.10
533.66	34184.69
533.86	34272.76
534.07	34723.31
534.27	34745.84
534.47	35073.51
534.67	34733.55
534.88	34498.03
535.08	34887.15
535.28	34805.23
535.49	34993.64
535.69	35167.72
535.89	35175.91
536.09	35579.36
536.30	35423.72
536.50	35462.63
536.70	35681.76
536.91	35585.50
537.11	35773.92
537.31	35964.38
537.51	35589.60
537.72	36548.05
537.92	36097.50
538.12	36484.56
538.32	36115.93
538.53	36619.73
538.73	36234.71
538.93	36845.01
539.13	36804.05
539.34	36601.30
539.54	36357.59
539.74	37045.71
539.94	36767.18
540.15	37033.42
540.35	37262.79
540.55	37189.06
540.75	37311.94
540.96	37567.94
541.16	37393.86
541.36	37690.82
541.56	37270.98
541.77	37893.57
541.97	37418.44
542.17	37993.92
542.37	37993.92
542.58	38159.80
542.78	37776.83
542.98	37918.14
543.18	38462.90
543.38	38221.24
543.59	38602.16
543.79	38143.42
543.99	38172.09
544.19	38708.66
544.40	38514.10
544.60	39085.48
544.80	38704.56
545.00	38557.11
545.20	39105.96
545.41	38745.52
545.61	38817.20
545.81	39216.55
546.01	38948.27
546.21	39177.64
546.42	39126.44
546.62	38972.85
546.82	39396.77
547.02	39570.85
547.22	39599.52
547.43	39058.86
547.63	39933.34
547.83	39450.02
548.03	39019.95
548.23	39832.99
548.44	40142.24
548.64	39654.82
548.84	39906.72
549.04	39724.45
549.24	40306.07
549.45	40420.76
549.65	39675.30
549.85	40422.81
550.05	40461.72
550.25	40287.64
550.45	40867.22
550.66	40717.71
550.86	40293.79
551.06	40549.78
551.26	40648.08
551.46	40781.20
551.66	40742.29
551.87	41051.53
552.07	40992.14
552.27	40609.17
552.47	40992.14
552.67	41133.45
552.87	41084.30
553.07	40910.22
553.28	41110.92
553.48	41207.18
553.68	40887.70
553.88	41692.55
554.08	41166.22
554.28	41244.04
554.48	41516.42
554.69	41530.76
554.89	41557.38
555.09	41387.40
555.29	41538.95
555.49	41645.44
555.69	41545.09
555.89	41778.56
556.10	42186.11
556.30	41950.59
556.50	41915.78
556.70	41737.60
556.90	41846.15
557.10	41756.03
557.30	41743.75
557.50	42372.47
557.70	41975.17
557.91	42374.52
558.11	42169.72
558.31	42380.67
558.51	42333.56
558.71	42452.34
558.91	42458.49
559.11	42261.88
559.31	42505.59
559.51	42421.62
559.72	42593.65
559.92	42354.04
560.12	42114.43
560.32	42679.67
560.52	42622.33
560.72	42743.16
560.92	42911.09
561.12	42767.73
561.32	42734.96
561.52	42759.54
561.72	43070.83
561.93	42878.32
562.13	42798.45
562.33	42685.81
562.53	43439.47
562.73	42861.94
562.93	42939.76
563.13	43390.31
563.33	42966.38
563.53	43294.06
563.73	42724.72
563.93	43572.58
564.13	43629.93
564.33	43183.47
564.53	43511.14
564.74	43519.34
564.94	43275.63
565.14	43332.97
565.34	43378.03
565.54	43554.15
565.74	43582.82
565.94	43564.39
566.14	43550.06
566.34	43634.02
566.54	44250.46
566.74	43742.56
566.94	43996.51
567.14	43904.35
567.34	43849.06
567.54	44037.47
567.74	43920.74
567.94	44066.14
568.14	44260.70
568.34	44246.36
568.54	44207.45
568.74	44002.66
568.94	44170.59
569.14	44522.84
569.34	44103.01
569.54	44115.29
569.75	44336.48
569.95	44316.00
570.15	45149.52
570.35	44684.63
570.55	44553.56
570.75	44641.62
570.95	44619.10
571.15	44799.32
571.35	45114.70
571.55	45028.69
571.75	44569.94
571.95	44946.77
572.15	44653.91
572.35	45157.71
572.55	44936.53
572.75	45049.17
572.95	44807.51
573.15	44987.73
573.35	45079.89
573.55	45030.74
573.75	45323.60
573.95	45403.47
574.15	45395.28
574.35	45669.70
574.55	45374.80
574.75	45208.91
574.95	45839.68
575.15	45290.83
575.34	45737.29
575.54	45860.16
575.74	45626.70
575.94	46185.79
576.14	45428.04
576.34	46093.63
576.54	45935.94
576.74	46413.12
576.94	45917.51
577.14	46153.02
577.34	46466.36
577.54	46097.73
577.74	46294.33
577.94	46423.36
578.14	46290.24
578.34	46603.58
578.54	45987.14
578.74	46167.36
578.94	46441.79
579.14	46337.34
579.34	46486.84
579.54	46351.68
579.74	46804.28
579.94	46634.30
580.13	46693.69
580.33	46882.10
580.53	47123.76
580.73	46896.44
580.93	47076.66
581.13	46800.18
581.33	47355.18
581.53	47480.11
581.73	47072.56
581.93	47146.29
582.13	47619.37
582.33	47959.33
582.53	47285.55
582.73	47441.20
582.92	47797.54
583.12	47918.37
583.32	47740.20
583.52	47510.83
583.72	47928.61
583.92	47748.39
584.12	47551.79
584.32	48162.08
584.52	47959.33
584.72	47975.72
584.92	48127.27
585.11	48157.99
585.31	48264.48
585.51	48600.35
585.71	47969.57
585.91	49124.63
586.11	48217.38
586.31	48487.71
586.51	48678.17
586.71	48403.74
586.91	48708.89
587.10	48545.05
587.30	48940.31
587.50	48831.77
587.70	48891.16
587.90	48829.72
588.10	48669.98
588.30	49034.52
588.50	49247.50
