SpectraSuite Data File
++++++++++++++++++++++++++++++++++++
Date: Fri Jun 02 14:51:07 CEST 2017
User: INFO_000
Dark Spectrum Present: No
Reference Spectrum Present: No
Number of Sampled Component Spectra: 1
Spectrometers: USB4H00879
Integration Time (usec): 80000 (USB4H00879)
Spectra Averaged: 1 (USB4H00879)
Boxcar Smoothing: 0 (USB4H00879)
Correct for Electrical Dark: No (USB4H00879)
Strobe/Lamp Enabled: No (USB4H00879)
Correct for Detector Non-linearity: No (USB4H00879)
Correct for Stray Light: No (USB4H00879)
Number of Pixels in Processed Spectrum: 3648
>>>>>Begin Processed Spectral Data<<<<<
345.13	1296.36
345.34	1296.36
345.56	1296.36
345.78	1232.88
345.99	1347.56
346.21	1658.85
346.42	1626.09
346.64	1599.46
346.86	1781.73
347.07	1685.48
347.29	1728.49
347.50	1634.28
347.72	1687.53
347.94	1761.25
348.15	1562.60
348.37	1568.74
348.59	1689.57
348.80	1683.43
349.02	1712.10
349.23	1871.84
349.45	1759.21
349.67	1869.80
349.88	1910.75
350.10	1978.34
350.31	1843.17
350.53	1789.92
350.75	1964.00
350.96	1828.84
351.18	1882.08
351.39	1853.41
351.61	1804.26
351.82	1888.23
352.04	1877.99
352.26	1796.07
352.47	1912.80
352.69	1955.81
352.90	1814.50
353.12	1765.35
353.34	1839.08
353.55	1945.57
353.77	1832.93
353.98	1841.12
354.20	1796.07
354.41	1916.90
354.63	1947.62
354.85	2072.54
355.06	1916.90
355.28	1810.40
355.49	1904.61
355.71	1918.95
355.92	1800.16
356.14	1871.84
356.35	1851.36
356.57	1744.87
356.79	1847.27
357.00	1800.16
357.22	1943.52
357.43	1857.51
357.65	1927.14
357.86	1914.85
358.08	1957.86
358.29	1894.37
358.51	1992.67
358.72	2009.06
358.94	1976.29
359.16	1837.03
359.37	1892.32
359.59	1910.75
359.80	2004.96
360.02	1945.57
360.23	1939.43
360.45	1908.71
360.66	1972.19
360.88	1853.41
361.09	1900.52
361.31	1974.24
361.52	1998.82
361.74	2017.25
361.95	2093.02
362.17	1988.58
362.38	2072.54
362.60	2007.01
362.81	1957.86
363.03	1918.95
363.24	2011.11
363.46	2066.40
363.67	1964.00
363.89	1980.39
364.10	1927.14
364.32	1953.76
364.53	2160.61
364.75	1869.80
364.96	2062.30
365.18	2019.30
365.39	1976.29
365.61	2033.63
365.82	2103.26
366.04	2019.30
366.25	1941.47
366.47	2013.15
366.68	2109.41
366.90	1986.53
367.11	2047.97
367.33	2082.78
367.54	2031.58
367.76	1998.82
367.97	2047.97
368.19	1978.34
368.40	2025.44
368.62	2017.25
368.83	1984.48
369.05	2056.16
369.26	1951.71
369.48	1933.28
369.69	1904.61
369.91	2074.59
370.12	1970.15
370.33	2129.89
370.55	1884.13
370.76	2080.74
370.98	2117.60
371.19	2054.11
371.41	2009.06
371.62	2047.97
371.84	1955.81
372.05	2111.46
372.27	2021.35
372.48	2080.74
372.69	2062.30
372.91	2150.37
373.12	2166.75
373.34	2084.83
373.55	2068.45
373.77	2156.51
373.98	2138.08
374.20	2113.50
374.41	2242.53
374.62	2131.94
374.84	2172.89
375.05	2109.41
375.27	2228.19
375.48	2158.56
375.70	2111.46
375.91	2164.70
376.12	2263.01
376.34	2136.03
376.55	2203.61
376.77	2160.61
376.98	2035.68
377.19	2086.88
377.41	2043.87
377.62	2199.52
377.84	2232.29
378.05	2344.92
378.27	2142.18
378.48	2394.08
378.69	2273.25
378.91	2248.67
379.12	2195.42
379.34	2174.94
379.55	2349.02
379.76	2252.77
379.98	2093.02
380.19	2158.56
380.41	2277.34
380.62	2275.29
380.83	2310.11
381.05	2199.52
381.26	2453.47
381.47	2265.05
381.69	2263.01
381.90	2377.69
382.12	2211.81
382.33	2256.86
382.54	2256.86
382.76	2254.81
382.97	2301.92
383.19	2250.72
383.40	2357.21
383.61	2246.62
383.83	2275.29
384.04	2344.92
384.25	2346.97
384.47	2387.93
384.68	2301.92
384.89	2287.58
385.11	2269.15
385.32	2236.38
385.54	2263.01
385.75	2355.16
385.96	2365.40
386.18	2381.79
386.39	2404.32
386.60	2379.74
386.82	2394.08
387.03	2349.02
387.24	2359.26
387.46	2426.84
387.67	2432.99
387.88	2432.99
388.10	2430.94
388.31	2410.46
388.52	2498.52
388.74	2392.03
388.95	2482.14
389.16	2502.62
389.38	2439.13
389.59	2572.25
389.80	2619.35
390.02	2508.76
390.23	2590.68
390.44	2580.44
390.66	2484.19
390.87	2459.61
391.08	2537.43
391.30	2574.30
391.51	2533.34
391.72	2650.07
391.94	2678.74
392.15	2611.16
392.36	2469.85
392.58	2543.58
392.79	2648.02
393.00	2619.35
393.22	2666.46
393.43	2770.90
393.64	2740.18
393.85	2762.71
394.07	2512.86
394.28	2641.88
394.49	2664.41
394.71	2660.31
394.92	2807.77
395.13	2721.75
395.35	2613.21
395.56	2607.06
395.77	2723.80
395.98	2799.57
396.20	2850.77
396.41	2734.04
396.62	2897.88
396.84	2789.33
397.05	2707.41
397.26	2797.53
397.47	2807.77
397.69	2793.43
397.90	2961.36
398.11	2891.73
398.32	2795.48
398.54	2838.48
398.75	2791.38
398.96	2852.82
399.18	3004.37
399.39	2854.87
399.60	3020.75
399.81	2883.54
400.03	2869.20
400.24	3139.54
400.45	2922.45
400.66	2994.13
400.88	2961.36
401.09	3121.10
401.30	2979.79
401.51	3135.44
401.73	3114.96
401.94	3078.10
402.15	3041.23
402.36	3059.67
402.58	3053.52
402.79	3096.53
403.00	3084.24
403.21	3028.95
403.43	3088.34
403.64	3209.17
403.85	2985.94
404.06	3110.86
404.27	2996.18
404.49	3080.14
404.70	3076.05
404.91	3198.93
405.12	3151.82
405.34	3291.09
405.55	3354.57
405.76	2953.17
405.97	3196.88
406.19	3215.31
406.40	3121.10
406.61	3274.70
406.82	3342.28
407.03	3303.37
407.25	3235.79
407.46	3311.57
407.67	3338.19
407.88	3358.67
408.09	3299.28
408.31	3286.99
408.52	3330.00
408.73	3270.61
408.94	3246.03
409.15	3354.57
409.37	3399.63
409.58	3489.74
409.79	3370.96
410.00	3485.64
410.21	3364.81
410.43	3403.72
410.64	3334.09
410.85	3502.03
411.06	3583.95
411.27	3461.07
411.48	3573.71
411.70	3491.79
411.91	3514.31
412.12	3635.14
412.33	3477.45
412.54	3475.40
412.76	3602.38
412.97	3641.29
413.18	3542.99
413.39	3471.31
413.60	3577.80
413.81	3540.94
414.03	3514.31
414.24	3719.11
414.45	3753.93
414.66	3518.41
414.87	3604.42
415.08	3553.23
415.30	3676.10
415.51	3665.86
415.72	3743.69
415.93	3803.08
416.14	3667.91
416.35	3674.06
416.56	3669.96
416.78	3688.39
416.99	3850.18
417.20	3831.75
417.41	3792.84
417.62	3852.23
417.83	3950.53
418.04	3770.31
418.26	3878.85
418.47	3755.97
418.68	3782.60
418.89	3833.80
419.10	4026.31
419.31	3887.04
419.52	3848.13
419.73	3995.59
419.95	3909.57
420.16	3844.04
420.37	3999.68
420.58	3885.00
420.79	3796.93
421.00	3831.75
421.21	4067.27
421.42	3962.82
421.63	3928.00
421.85	4075.46
422.06	4270.01
422.27	4071.36
422.48	3981.25
422.69	4190.14
422.90	4153.28
423.11	4075.46
423.32	4132.80
423.53	4335.55
423.75	4265.92
423.96	4272.06
424.17	4280.25
424.38	4450.24
424.59	4218.82
424.80	4419.52
425.01	4343.74
425.22	4296.64
425.43	4298.69
425.64	4470.72
425.85	4499.39
426.06	4452.28
426.28	4405.18
426.49	4282.30
426.70	4399.04
426.91	4466.62
427.12	4458.43
427.33	4507.58
427.54	4429.76
427.75	4405.18
427.96	4579.26
428.17	4550.59
428.38	4554.68
428.59	4626.36
428.80	4536.25
429.01	4558.78
429.23	4620.22
429.44	4896.69
429.65	4702.14
429.86	4755.38
430.07	4687.80
430.28	4753.34
430.49	4763.58
430.70	4902.84
430.91	4865.97
431.12	4722.62
431.33	4911.03
431.54	4825.01
431.75	4900.79
431.96	4999.09
432.17	4806.58
432.38	4945.84
432.59	5144.50
432.80	5029.81
433.01	5197.74
433.22	5193.65
433.43	4974.52
433.64	5066.67
433.85	4990.90
434.06	5164.98
434.27	4999.09
434.49	5185.46
434.70	5328.81
434.91	5150.64
435.12	5271.47
435.33	5308.34
435.54	5238.70
435.75	5195.70
435.96	5244.85
436.17	5185.46
436.38	5410.73
436.59	5339.05
436.80	5347.25
437.01	5601.19
437.22	5586.86
437.43	5427.12
437.64	5472.17
437.85	5504.94
438.06	5613.48
438.27	5449.64
438.48	5418.93
438.69	5595.05
438.90	5709.74
439.11	5369.77
439.32	5750.70
439.53	5515.18
439.74	5633.96
439.95	5722.02
440.16	5670.83
440.37	5640.11
440.57	5580.71
440.78	5810.09
440.99	5765.03
441.20	5869.48
441.41	5769.13
441.62	5738.41
441.83	5670.83
442.04	5742.50
442.25	5982.12
442.46	5818.28
442.67	5889.96
442.88	6094.76
443.09	5943.21
443.30	5943.21
443.51	5971.88
443.72	6293.41
443.93	5914.53
444.14	6178.72
444.35	5871.53
444.56	6113.19
444.77	6059.94
444.98	6104.99
445.19	6197.15
445.40	6152.10
445.61	6133.67
445.81	6264.74
446.02	6281.12
446.23	6211.49
446.44	6322.08
446.65	6287.26
446.86	6344.61
447.07	6420.38
447.28	6547.36
447.49	6449.05
447.70	6490.01
447.91	6498.20
448.12	6526.88
448.33	6639.51
448.54	6631.32
448.74	6549.40
448.95	6719.39
449.16	6487.96
449.37	6872.98
449.58	6637.47
449.79	6975.38
450.00	6614.94
450.21	6934.42
450.42	6754.20
450.63	6854.55
450.84	6815.64
451.05	6907.80
451.25	6893.46
451.46	6868.89
451.67	7004.05
451.88	7151.51
452.09	7098.26
452.30	6889.37
452.51	7030.68
452.72	7081.88
452.93	7264.15
453.13	6995.86
453.34	6975.38
453.55	7124.88
453.76	7141.27
453.97	7524.24
454.18	7221.14
454.39	7233.43
454.60	7270.29
454.81	7280.53
455.01	7462.80
455.22	7098.26
455.43	7438.22
455.64	7763.85
455.85	7548.81
456.06	7774.09
456.27	7430.03
456.48	7645.07
456.68	7485.33
456.89	7559.05
457.10	7751.56
457.31	7735.18
457.52	7745.42
457.73	7798.66
457.94	7913.35
458.14	7638.92
458.35	8138.63
458.56	8028.04
458.77	7942.02
458.98	8150.92
459.19	8011.65
459.39	8058.76
459.60	8226.69
459.81	8163.20
460.02	8165.25
460.23	8093.57
460.44	8243.07
460.65	8343.42
460.85	8527.74
461.06	8490.88
461.27	8189.83
461.48	8433.54
461.69	8750.97
461.89	8263.55
462.10	8593.28
462.31	8349.57
462.52	8499.07
462.73	8542.08
462.94	8828.79
463.14	8787.83
463.35	8697.72
463.56	9035.64
463.77	8929.14
463.98	8740.73
464.18	8937.34
464.39	9080.69
464.60	9185.14
464.81	9297.78
465.02	9060.21
465.23	9375.60
465.43	9265.01
465.64	9426.80
465.85	9369.46
466.06	9412.46
466.27	9752.43
466.47	9480.05
466.68	9461.62
466.89	9437.04
467.10	9625.45
467.30	9490.29
467.51	9805.67
467.72	9725.80
467.93	9631.60
468.14	9873.26
468.34	10049.38
468.55	9936.74
468.76	10059.62
468.97	9918.31
469.17	10123.11
469.38	10202.98
469.59	10428.26
469.80	10366.82
470.01	10176.36
470.21	10299.23
470.42	10467.17
470.63	10481.50
470.84	10643.29
471.04	10800.99
471.25	10755.93
471.46	10823.51
471.67	10823.51
471.87	11091.80
472.08	10913.63
472.29	11235.16
472.50	10970.97
472.70	10925.91
472.91	11073.37
473.12	11450.19
473.33	11458.39
473.53	11517.78
473.74	11339.60
473.95	11577.17
474.16	11798.35
474.36	11661.13
474.57	11884.36
474.78	12013.38
474.99	11915.08
475.19	11728.72
475.40	12308.29
475.61	12253.00
475.81	12339.01
476.02	12531.52
476.23	12361.54
476.44	12521.28
476.64	12619.58
476.85	12984.12
477.06	12920.63
477.27	13078.33
477.47	12859.20
477.68	12994.36
477.89	13287.22
478.09	12959.55
478.30	13403.96
478.51	13274.93
478.71	13506.35
478.92	13535.03
479.13	13766.45
479.34	13819.69
479.54	13936.43
479.75	13823.79
479.96	14180.14
480.16	14047.02
480.37	14024.49
480.58	14108.46
480.78	14468.90
480.99	14468.90
481.20	14511.91
481.41	14792.48
481.61	14733.09
481.82	14845.73
482.03	14812.96
482.23	14786.33
482.44	15273.75
482.65	15085.34
482.85	15372.05
483.06	15224.60
483.27	15570.71
483.47	15527.70
483.68	15705.87
483.89	15673.10
484.09	15836.94
484.30	15681.30
484.51	16135.95
484.71	16172.81
484.92	16185.10
485.13	16246.54
485.33	16207.62
485.54	16418.57
485.75	16668.42
485.95	16897.79
486.16	16813.82
486.37	16897.79
486.57	17026.81
486.78	16969.47
486.98	17198.84
487.19	17010.43
487.40	17383.16
487.60	17434.36
487.81	17774.32
488.02	17401.59
488.22	17481.46
488.43	17846.00
488.64	17823.47
488.84	18231.02
489.05	18081.52
489.25	18087.66
489.46	18370.28
489.67	18212.59
489.87	18489.06
490.08	18577.12
490.29	18550.50
490.49	19003.10
490.70	18919.14
490.90	19166.94
491.11	19201.76
491.32	19089.12
491.52	19363.54
491.73	19316.44
491.94	19226.33
492.14	19252.95
492.35	19771.09
492.55	19689.17
492.76	19629.78
492.97	19828.43
493.17	20088.53
493.38	19885.78
493.58	20018.89
493.79	20127.44
494.00	20178.64
494.20	20399.82
494.41	20479.69
494.61	20612.81
494.82	20588.23
495.02	20479.69
495.23	20666.05
495.44	20876.99
495.64	20741.83
495.85	21102.27
496.05	21184.19
496.26	21108.41
496.47	21259.96
496.67	21110.46
496.88	21548.73
497.08	21329.59
497.29	21581.49
497.49	21364.41
497.70	21663.41
497.91	21706.42
498.11	22058.67
498.32	21886.64
498.52	22107.82
498.73	22240.94
498.93	22410.92
499.14	22462.12
499.34	22345.39
499.55	22529.70
499.76	22298.28
499.96	22460.07
500.17	22378.15
500.37	22632.10
500.58	22623.91
500.78	23025.31
500.99	22724.26
501.19	23158.43
501.40	23041.70
501.60	22896.29
501.81	22978.21
502.02	23127.71
502.22	22888.10
502.43	23393.95
502.63	23654.04
502.84	23510.68
503.04	23326.36
503.25	23443.10
503.45	23490.20
503.66	23668.37
503.86	23787.16
504.07	24159.89
504.27	23883.41
504.48	24456.84
504.68	24303.25
504.89	24252.05
505.09	23959.19
505.30	24135.31
505.50	24186.51
505.71	24356.49
505.91	24303.25
506.12	24237.71
506.32	24528.52
506.53	24424.08
506.73	24661.64
506.94	24563.34
507.14	24624.78
507.35	24778.37
507.55	24647.30
507.76	24903.30
507.96	24542.86
508.17	25083.52
508.37	24792.71
508.58	24987.27
508.78	25171.58
508.99	25202.30
509.19	25302.65
509.40	25169.54
509.60	25163.39
509.81	25157.25
510.01	25386.62
510.22	25060.99
510.42	25208.45
510.63	25405.05
510.83	25515.64
511.04	25548.41
511.24	25540.22
511.44	25411.20
511.65	25837.17
511.85	25757.30
512.06	26037.87
512.26	25841.27
512.47	25857.65
512.67	25884.28
512.88	26134.13
513.08	25794.17
513.29	26252.91
513.49	26101.36
513.69	26033.78
513.90	25998.96
514.10	26224.24
514.31	26064.50
514.51	26461.80
514.72	26113.65
514.92	26185.33
515.13	26179.18
515.33	26572.39
515.53	26517.10
515.74	26736.23
515.94	26416.75
516.15	26635.88
516.35	26306.16
516.56	26586.73
516.76	26498.67
516.96	26601.07
517.17	26816.10
517.37	26728.04
517.58	27025.00
517.78	26844.77
517.99	27084.39
518.19	27084.39
518.39	27205.22
518.60	27467.36
518.80	27258.46
519.01	27301.47
519.21	27348.57
519.41	27055.72
519.62	27457.12
519.82	27586.14
520.03	27512.41
520.23	27387.49
520.43	27743.83
520.64	28044.88
520.84	27967.06
521.05	27821.66
521.25	27887.19
521.45	27844.18
521.66	28206.67
521.86	28091.99
522.07	28114.52
522.27	28087.89
522.47	28079.70
522.68	28284.50
522.88	28434.00
523.08	28491.34
523.29	28608.08
523.49	28528.20
523.70	28362.32
523.90	28884.55
524.10	28739.15
524.31	29173.31
524.51	28603.98
524.71	29298.24
524.92	28958.28
525.12	29427.26
525.33	28962.37
525.53	29236.80
525.73	29644.35
525.94	29414.98
526.14	29390.40
526.34	29515.33
526.55	29693.50
526.75	29763.13
526.95	29820.47
527.16	29601.34
527.36	29953.59
527.56	30195.25
527.77	30318.13
527.97	30561.84
528.17	30236.21
528.38	30363.18
528.58	30473.78
528.78	30604.84
528.99	30711.34
529.19	31149.60
529.39	30498.35
529.60	30883.37
529.80	30821.93
530.00	30809.64
530.21	31104.55
530.41	31411.74
530.61	31409.70
530.82	31401.50
531.02	31217.19
531.22	31436.32
531.43	31333.92
531.63	31669.79
531.83	32157.21
532.04	32106.01
532.24	32036.38
532.44	32312.85
532.64	32376.34
532.85	32681.49
533.05	32609.81
533.25	32531.98
533.46	32695.82
533.66	32652.81
533.86	32501.26
534.07	33220.10
534.27	32968.20
534.47	33289.73
534.67	33142.28
534.88	33048.07
535.08	33531.39
535.28	33519.10
535.49	33420.80
535.69	34002.43
535.89	33580.54
536.09	33965.56
536.30	34164.21
536.50	34137.59
536.70	34522.61
536.91	34391.54
537.11	34358.77
537.31	34801.13
537.51	34455.03
537.72	35177.96
537.92	34838.00
538.12	35368.42
538.32	35057.13
538.53	34809.32
538.73	35272.17
538.93	35419.62
539.13	35184.10
539.34	35438.05
539.54	35247.59
539.74	35362.28
539.94	35429.86
540.15	35362.28
540.35	36160.98
540.55	35935.71
540.75	35698.14
540.96	36234.71
541.16	36220.38
541.36	36283.86
541.56	36498.90
541.77	36539.86
541.97	36629.97
542.17	36300.25
542.37	36470.23
542.58	36715.98
542.78	36799.95
542.98	36642.26
543.18	37086.67
543.38	37475.78
543.59	37334.47
543.79	37273.03
543.99	37180.87
544.19	37400.01
544.40	37152.20
544.60	37494.21
544.80	37533.12
545.00	37692.86
545.20	37895.61
545.41	37588.42
545.61	38090.17
545.81	37944.76
546.01	38194.62
546.21	38321.59
546.42	38057.40
546.62	38399.41
546.82	38399.41
547.02	38712.75
547.22	38575.54
547.43	38761.90
547.63	38712.75
547.83	38766.00
548.03	38761.90
548.23	39079.34
548.44	38458.81
548.64	38860.21
548.84	39251.37
549.04	39140.78
549.24	39808.42
549.45	39245.23
549.65	39226.79
549.85	39462.31
550.05	39835.04
550.25	39384.49
550.45	39908.77
550.66	39765.41
550.86	39806.37
551.06	39732.64
551.26	39910.82
551.46	39863.71
551.66	40078.75
551.87	40238.49
552.07	40140.19
552.27	40293.79
552.47	40541.59
552.67	40535.45
552.87	40072.60
553.07	40183.19
553.28	40658.32
553.48	40463.77
553.68	40621.46
553.88	40727.95
554.08	40820.11
554.28	40117.66
554.48	40746.39
554.69	40803.73
554.89	40662.42
555.09	40813.97
555.29	40924.56
555.49	41256.33
555.69	41016.72
555.89	40687.00
556.10	41131.40
556.30	41112.97
556.50	41371.02
556.70	41112.97
556.90	41416.07
557.10	41545.09
557.30	41155.98
557.50	41461.13
557.70	41403.78
557.91	41842.05
558.11	41317.77
558.31	41811.33
558.51	41616.77
558.71	41788.80
558.91	41932.16
559.11	41334.15
559.31	41596.29
559.51	41624.96
559.72	41401.74
559.92	42018.17
560.12	41727.36
560.32	41827.71
560.52	41792.90
560.72	42130.81
560.92	41899.39
561.12	42599.80
561.32	42102.14
561.52	42202.49
561.72	42423.67
561.93	41932.16
562.13	42220.92
562.33	42323.32
562.53	42597.75
562.73	42274.17
562.93	42257.79
563.13	42599.80
563.33	42423.67
563.53	43015.54
563.73	42321.27
563.93	42702.20
564.13	43050.35
564.33	42499.45
564.53	42476.92
564.74	42724.72
564.94	42651.00
565.14	42964.34
565.34	42646.90
565.54	42691.96
565.74	42839.41
565.94	43046.26
566.14	42655.09
566.34	42894.71
566.54	42980.72
566.74	42491.26
566.94	42958.19
567.14	43009.39
567.34	42354.04
567.54	42921.33
567.74	43050.35
567.94	42765.68
568.14	42964.34
568.34	43548.01
568.54	43083.12
568.74	43560.30
568.94	42857.84
569.14	43687.27
569.34	43314.54
569.54	43543.91
569.75	43183.47
569.95	43212.14
570.15	43662.69
570.35	43451.75
570.55	43406.70
570.75	43179.37
570.95	43885.92
571.15	43677.03
571.35	43654.50
571.55	43685.22
571.75	43668.84
571.95	43599.21
572.15	43552.10
572.35	44002.66
572.55	43838.82
572.75	43605.35
572.95	43500.90
573.15	43427.18
573.35	43998.56
573.55	44002.66
573.75	43371.88
573.95	44072.29
574.15	43644.26
574.35	43844.96
574.55	43951.46
574.75	43930.98
574.95	44158.30
575.15	43769.19
575.34	43781.48
575.54	44326.24
575.74	44260.70
575.94	44703.06
576.14	44070.24
576.34	44488.03
576.54	44442.97
576.74	44428.63
576.94	44434.78
577.14	44475.74
577.34	44733.78
577.54	44238.17
577.74	44637.53
577.94	44840.28
578.14	44506.46
578.34	44909.91
578.54	44053.86
578.74	44307.80
578.94	44793.17
579.14	44313.95
579.34	44784.98
579.54	44844.37
579.74	45139.28
579.94	44971.35
580.13	45417.80
580.33	45000.02
580.53	44862.80
580.73	44848.47
580.93	44985.68
581.13	44926.29
581.33	45282.64
581.53	45170.00
581.73	45006.16
581.93	45528.39
582.13	45749.57
582.33	45313.36
582.53	45227.34
582.73	45221.20
582.92	45559.11
583.12	45452.62
583.32	45833.54
583.52	45184.33
583.72	45876.55
583.92	46028.10
584.12	45440.33
584.32	46060.87
584.52	45942.08
584.72	45718.85
584.92	46114.11
585.11	46517.56
585.31	46095.68
585.51	45890.88
585.71	45849.92
585.91	46439.74
586.11	46146.88
586.31	46118.21
586.51	45841.73
586.71	46226.75
586.91	46425.40
587.10	46335.29
587.30	46404.92
587.50	46599.48
587.70	46464.32
587.90	46474.55
588.10	46822.71
588.30	46654.78
588.50	46095.68
588.69	46468.41
