SpectraSuite Data File
++++++++++++++++++++++++++++++++++++
Date: Fri Jun 02 14:51:13 CEST 2017
User: INFO_000
Dark Spectrum Present: No
Reference Spectrum Present: No
Number of Sampled Component Spectra: 1
Spectrometers: USB4H00879
Integration Time (usec): 80000 (USB4H00879)
Spectra Averaged: 1 (USB4H00879)
Boxcar Smoothing: 0 (USB4H00879)
Correct for Electrical Dark: No (USB4H00879)
Strobe/Lamp Enabled: No (USB4H00879)
Correct for Detector Non-linearity: No (USB4H00879)
Correct for Stray Light: No (USB4H00879)
Number of Pixels in Processed Spectrum: 3648
>>>>>Begin Processed Spectral Data<<<<<
345.13	1314.80
345.34	1314.80
345.56	1314.80
345.78	1298.41
345.99	1239.02
346.21	1724.39
346.42	1701.86
346.64	1638.38
346.86	1859.56
347.07	1652.71
347.29	1667.05
347.50	1634.28
347.72	1673.19
347.94	1781.73
348.15	1554.41
348.37	1626.09
348.59	1775.59
348.80	1626.09
349.02	1777.64
349.23	1849.32
349.45	1849.32
349.67	1839.08
349.88	1830.88
350.10	1996.77
350.31	1853.41
350.53	1861.60
350.75	1939.43
350.96	1798.12
351.18	1839.08
351.39	1902.56
351.61	1753.06
351.82	1884.13
352.04	1890.28
352.26	1855.46
352.47	1869.80
352.69	1865.70
352.90	1773.54
353.12	1871.84
353.34	1841.12
353.55	1953.76
353.77	2011.11
353.98	1896.42
354.20	1867.75
354.41	1908.71
354.63	1937.38
354.85	2070.50
355.06	1863.65
355.28	1796.07
355.49	1904.61
355.71	1949.67
355.92	1886.18
356.14	1900.52
356.35	1886.18
356.57	1806.31
356.79	1933.28
357.00	1896.42
357.22	1896.42
357.43	1845.22
357.65	1939.43
357.86	1877.99
358.08	1890.28
358.29	1931.23
358.51	2023.39
358.72	1929.19
358.94	1863.65
359.16	1851.36
359.37	1951.71
359.59	1890.28
359.80	1974.24
360.02	1902.56
360.23	1951.71
360.45	1986.53
360.66	1955.81
360.88	1945.57
361.09	1920.99
361.31	2011.11
361.52	1953.76
361.74	1961.95
361.95	2033.63
362.17	2000.87
362.38	2031.58
362.60	2056.16
362.81	1908.71
363.03	1945.57
363.24	1970.15
363.46	2086.88
363.67	2078.69
363.89	2009.06
364.10	2004.96
364.32	1945.57
364.53	2056.16
364.75	1972.19
364.96	1976.29
365.18	2011.11
365.39	2013.15
365.61	1920.99
365.82	2123.74
366.04	1978.34
366.25	1964.00
366.47	1984.48
366.68	2101.22
366.90	1988.58
367.11	2039.78
367.33	2056.16
367.54	2074.59
367.76	2011.11
367.97	2140.13
368.19	2064.35
368.40	2002.91
368.62	1890.28
368.83	2017.25
369.05	2031.58
369.26	1978.34
369.48	2023.39
369.69	1957.86
369.91	2025.44
370.12	2015.20
370.33	2097.12
370.55	2015.20
370.76	2007.01
370.98	2111.46
371.19	2080.74
371.41	2025.44
371.62	2050.02
371.84	1988.58
372.05	2158.56
372.27	2056.16
372.48	2093.02
372.69	2045.92
372.91	2125.79
373.12	2144.22
373.34	2064.35
373.55	2000.87
373.77	2170.85
373.98	2109.41
374.20	2195.42
374.41	2301.92
374.62	2176.99
374.84	2142.18
375.05	2213.85
375.27	2181.09
375.48	2199.52
375.70	2176.99
375.91	2222.05
376.12	2265.05
376.34	2121.70
376.55	2207.71
376.77	2158.56
376.98	2140.13
377.19	2125.79
377.41	2031.58
377.62	2222.05
377.84	2246.62
378.05	2344.92
378.27	2123.74
378.48	2273.25
378.69	2396.12
378.91	2312.16
379.12	2217.95
379.34	2250.72
379.55	2289.63
379.76	2156.51
379.98	2248.67
380.19	2295.77
380.41	2293.72
380.62	2265.05
380.83	2265.05
381.05	2199.52
381.26	2375.64
381.47	2258.91
381.69	2301.92
381.90	2314.20
382.12	2314.20
382.33	2248.67
382.54	2289.63
382.76	2375.64
382.97	2326.49
383.19	2248.67
383.40	2445.27
383.61	2363.36
383.83	2310.11
384.04	2322.40
384.25	2410.46
384.47	2392.03
384.68	2389.98
384.89	2367.45
385.11	2252.77
385.32	2328.54
385.54	2332.64
385.75	2314.20
385.96	2414.56
386.18	2340.83
386.39	2437.08
386.60	2449.37
386.82	2451.42
387.03	2471.90
387.24	2498.52
387.46	2455.51
387.67	2437.08
387.88	2486.23
388.10	2426.84
388.31	2414.56
388.52	2516.95
388.74	2500.57
388.95	2543.58
389.16	2500.57
389.38	2453.47
389.59	2637.78
389.80	2613.21
390.02	2543.58
390.23	2635.74
390.44	2566.10
390.66	2494.43
390.87	2502.62
391.08	2580.44
391.30	2662.36
391.51	2703.32
391.72	2691.03
391.94	2660.31
392.15	2555.86
392.36	2533.34
392.58	2635.74
392.79	2678.74
393.00	2674.65
393.22	2678.74
393.43	2779.09
393.64	2801.62
393.85	2682.84
394.07	2609.11
394.28	2697.17
394.49	2709.46
394.71	2711.51
394.92	2844.63
395.13	2662.36
395.35	2793.43
395.56	2682.84
395.77	2758.61
395.98	2801.62
396.20	2912.21
396.41	2836.44
396.62	2895.83
396.84	2772.95
397.05	2748.37
397.26	2897.88
397.47	2885.59
397.69	2852.82
397.90	3035.09
398.11	2815.96
398.32	2895.83
398.54	2838.48
398.75	2828.24
398.96	2901.97
399.18	3078.10
399.39	2955.22
399.60	2965.46
399.81	2944.98
400.03	2932.69
400.24	3133.39
400.45	2899.92
400.66	3020.75
400.88	2944.98
401.09	3196.88
401.30	3121.10
401.51	3043.28
401.73	3121.10
401.94	3098.58
402.15	3162.06
402.36	3104.72
402.58	3026.90
402.79	3133.39
403.00	3207.12
403.21	3243.98
403.43	3131.34
403.64	3264.46
403.85	3141.58
404.06	3100.62
404.27	3108.82
404.49	3211.22
404.70	3203.02
404.91	3246.03
405.12	3188.69
405.34	3229.65
405.55	3297.23
405.76	3088.34
405.97	3231.69
406.19	3303.37
406.40	3166.16
406.61	3295.18
406.82	3352.52
407.03	3227.60
407.25	3274.70
407.46	3409.87
407.67	3387.34
407.88	3377.10
408.09	3375.05
408.31	3319.76
408.52	3391.44
408.73	3319.76
408.94	3393.48
409.15	3454.92
409.37	3495.88
409.58	3471.31
409.79	3420.11
410.00	3551.18
410.21	3481.55
410.43	3581.90
410.64	3338.19
410.85	3495.88
411.06	3549.13
411.27	3590.09
411.48	3565.51
411.70	3565.51
411.91	3469.26
412.12	3614.66
412.33	3649.48
412.54	3565.51
412.76	3743.69
412.97	3518.41
413.18	3418.06
413.39	3530.70
413.60	3577.80
413.81	3696.58
414.03	3624.90
414.24	3528.65
414.45	3776.45
414.66	3581.90
414.87	3694.54
415.08	3639.24
415.30	3653.58
415.51	3694.54
415.72	3622.86
415.93	3665.86
416.14	3776.45
416.35	3788.74
416.56	3792.84
416.78	3798.98
416.99	3897.28
417.20	3823.56
417.41	3811.27
417.62	3772.36
417.83	3717.06
418.04	3936.20
418.26	3895.24
418.47	3930.05
418.68	3930.05
418.89	3932.10
419.10	4163.52
419.31	4014.02
419.52	4040.64
419.73	3966.92
419.95	4093.89
420.16	3942.34
420.37	4046.79
420.58	4018.11
420.79	3903.43
421.00	3973.06
421.21	4261.82
421.42	4057.03
421.63	4124.61
421.85	4014.02
422.06	4138.94
422.27	4138.94
422.48	4153.28
422.69	4265.92
422.90	4267.97
423.11	4114.37
423.32	4329.41
423.53	4351.93
423.75	4310.97
423.96	4380.61
424.17	4390.84
424.38	4538.30
424.59	4417.47
424.80	4605.88
425.01	4358.08
425.22	4409.28
425.43	4380.61
425.64	4562.87
425.85	4626.36
426.06	4589.50
426.28	4552.63
426.49	4425.66
426.70	4530.11
426.91	4712.38
427.12	4540.35
427.33	4655.03
427.54	4712.38
427.75	4620.22
427.96	4749.24
428.17	4790.20
428.38	4679.61
428.59	4835.25
428.80	4681.66
429.01	4786.10
429.23	4730.81
429.44	4925.36
429.65	4849.59
429.86	5013.43
430.07	4718.52
430.28	4820.92
430.49	4925.36
430.70	4937.65
430.91	4945.84
431.12	5089.20
431.33	5101.49
431.54	4992.95
431.75	4992.95
431.96	5007.28
432.17	5087.15
432.38	4954.04
432.59	5339.05
432.80	5150.64
433.01	5148.59
433.22	5377.97
433.43	5248.94
433.64	5263.28
433.85	5171.12
434.06	5332.91
434.27	5396.40
434.49	5343.15
434.70	5468.08
434.91	5330.86
435.12	5353.39
435.33	5404.59
435.54	5420.97
435.75	5457.84
435.96	5361.58
436.17	5285.81
436.38	5658.54
436.59	5519.28
436.80	5410.73
437.01	5666.73
437.22	5681.07
437.43	5773.22
437.64	5404.59
437.85	5791.66
438.06	5754.79
438.27	5490.60
438.48	5642.15
438.69	5767.08
438.90	5818.28
439.11	5590.95
439.32	5875.62
439.53	5703.59
439.74	5795.75
439.95	5775.27
440.16	5902.25
440.37	5959.59
440.57	5722.02
440.78	5889.96
440.99	5992.36
441.20	5920.68
441.41	5822.38
441.62	5865.38
441.83	5932.97
442.04	6053.80
442.25	5906.34
442.46	5937.06
442.67	6014.88
442.88	6422.43
443.09	6047.65
443.30	6002.60
443.51	6148.00
443.72	6262.69
443.93	6045.60
444.14	6432.67
444.35	6094.76
444.56	6256.54
444.77	6143.91
444.98	6367.13
445.19	6301.60
445.40	6354.85
445.61	6322.08
445.81	6469.53
446.02	6440.86
446.23	6371.23
446.44	6438.81
446.65	6541.21
446.86	6332.32
447.07	6614.94
447.28	6535.07
447.49	6647.71
447.70	6404.00
447.91	6551.45
448.12	6541.21
448.33	6694.81
448.54	6666.14
448.74	6473.63
448.95	6643.61
449.16	6537.12
449.37	7063.44
449.58	6715.29
449.79	6999.96
450.00	6741.91
450.21	6856.60
450.42	7067.54
450.63	6936.47
450.84	6870.94
451.05	6981.53
451.25	6971.29
451.46	6971.29
451.67	7104.40
451.88	6999.96
452.09	7092.12
452.30	7036.82
452.51	7024.53
452.72	7128.98
452.93	7442.32
453.13	7071.64
453.34	7085.97
453.55	7219.09
453.76	7149.46
453.97	7729.03
454.18	7301.01
454.39	7479.18
454.60	7470.99
454.81	7427.98
455.01	7579.53
455.22	7278.48
455.43	7640.97
455.64	7739.27
455.85	7827.34
456.06	7804.81
456.27	7661.45
456.48	7509.90
456.68	7837.58
456.89	7716.75
457.10	7958.41
457.31	7942.02
457.52	7737.23
457.73	7819.14
457.94	8226.69
458.14	7917.45
458.35	8488.83
458.56	8091.52
458.77	8025.99
458.98	8247.17
459.19	8148.87
459.39	8275.84
459.60	8439.68
459.81	8253.31
460.02	8583.04
460.23	8447.87
460.44	8707.96
460.65	8497.02
460.85	8576.89
461.06	8597.37
461.27	8497.02
461.48	8707.96
461.69	8789.88
461.89	8632.19
462.10	9054.07
462.31	8834.94
462.52	8695.68
462.73	9009.01
462.94	9011.06
463.14	9052.02
463.35	8998.77
463.56	9385.84
463.77	9201.52
463.98	9097.08
464.18	9121.65
464.39	9465.71
464.60	9629.55
464.81	9441.14
465.02	9396.08
465.23	9721.71
465.43	9400.18
465.64	9897.83
465.85	9647.98
466.06	9604.97
466.27	10090.34
466.47	9949.03
466.68	9791.34
466.89	9723.76
467.10	10012.52
467.30	9746.28
467.51	10045.29
467.72	10213.22
467.93	9957.22
468.14	10258.28
468.34	10309.47
468.55	10483.55
468.76	10479.46
468.97	10317.67
469.17	10555.23
469.38	10602.33
469.59	10805.08
469.80	10786.65
470.01	10753.88
470.21	10794.84
470.42	10895.19
470.63	11216.72
470.84	10966.87
471.04	11169.62
471.25	11073.37
471.46	11128.66
471.67	11437.91
471.87	11368.27
472.08	11577.17
472.29	11595.60
472.50	11284.31
472.70	11601.74
472.91	11618.13
473.12	11792.20
473.33	11894.60
473.53	12146.50
473.74	11964.23
473.95	12195.65
474.16	12296.00
474.36	12209.99
474.57	12382.02
474.78	12572.48
474.99	12494.66
475.19	12386.12
475.40	12631.87
475.61	12889.92
475.81	12814.14
476.02	12996.41
476.23	12887.87
476.44	13107.00
476.64	13143.86
476.85	13485.87
477.06	13328.18
477.27	13664.05
477.47	13807.41
477.68	13696.82
477.89	13571.89
478.09	13653.81
478.30	13987.63
478.51	13948.72
478.71	14126.89
478.92	14067.50
479.13	14372.64
479.34	14389.03
479.54	14421.80
479.75	14327.59
479.96	14405.41
480.16	14415.65
480.37	14786.33
480.58	15009.56
480.78	15265.56
480.99	14927.64
481.20	14931.74
481.41	15142.68
481.61	15101.72
481.82	15558.42
482.03	15441.68
482.23	15492.88
482.44	15976.20
482.65	15931.15
482.85	15894.29
483.06	15896.33
483.27	16031.50
483.47	15988.49
483.68	16203.53
483.89	16154.38
484.09	16293.64
484.30	16312.07
484.51	16672.51
484.71	16756.48
484.92	16717.57
485.13	16994.04
485.33	17016.57
485.54	16860.93
485.75	17127.16
485.95	17284.86
486.16	17260.28
486.37	17528.56
486.57	17174.27
486.78	17342.20
486.98	17745.65
487.19	17600.24
487.40	17737.46
487.60	17704.69
487.81	18222.83
488.02	17985.26
488.22	17929.97
488.43	18147.05
488.64	18149.10
488.84	18554.60
489.05	18556.64
489.25	18482.92
489.46	18759.39
489.67	18689.76
489.87	19193.56
490.08	19007.20
490.29	19105.50
490.49	19427.03
490.70	19306.20
490.90	19367.64
491.11	19171.04
491.32	19566.29
491.52	19388.12
491.73	19711.70
491.94	19783.38
492.14	19750.61
492.35	20061.90
492.55	20129.48
492.76	20176.59
492.97	20141.77
493.17	20311.75
493.38	20453.06
493.58	20487.88
493.79	20616.90
494.00	20451.02
494.20	20944.58
494.41	21098.17
494.61	21020.35
494.82	21044.93
495.02	20922.05
495.23	21319.35
495.44	21120.70
495.64	21388.99
495.85	21374.65
496.05	21386.94
496.26	21192.38
496.47	22095.53
496.67	21886.64
496.88	21962.42
497.08	21718.71
497.29	22165.17
497.49	21941.94
497.70	22224.56
497.91	22062.77
498.11	22058.67
498.32	22458.03
498.52	22240.94
498.73	22836.90
498.93	22730.41
499.14	22625.96
499.34	22466.22
499.55	22910.63
499.76	22746.79
499.96	22918.82
500.17	22984.35
500.37	23109.28
500.58	23180.96
500.78	23379.61
500.99	23346.84
501.19	23676.57
501.40	23363.23
501.60	23291.55
501.81	23357.08
502.02	23371.42
502.22	23625.37
502.43	23682.71
502.63	24145.55
502.84	23799.44
503.04	23893.65
503.25	23883.41
503.45	23752.34
503.66	24137.36
503.86	24303.25
504.07	24542.86
504.27	24219.28
504.48	24563.34
504.68	24520.33
504.89	24637.06
505.09	24915.59
505.30	24600.20
505.50	24747.65
505.71	24843.91
505.91	24813.19
506.12	24776.33
506.32	25147.01
506.53	25202.30
506.73	24942.21
506.94	25017.99
507.14	25308.80
507.35	25329.28
507.55	25538.17
507.76	25278.08
507.96	25585.27
508.17	25601.66
508.37	25458.30
508.58	25630.33
508.78	25663.10
508.99	25966.20
509.19	25636.47
509.40	26179.18
509.60	25671.29
509.81	26156.66
510.01	25847.41
510.22	25902.71
510.42	25876.09
510.63	26343.02
510.83	26177.14
511.04	26142.32
511.24	26467.95
511.44	26758.76
511.65	26578.54
511.85	26578.54
512.06	26693.22
512.26	26877.54
512.47	26861.16
512.67	27076.19
512.88	26682.98
513.08	26566.25
513.29	26826.34
513.49	26961.51
513.69	26740.33
513.90	26865.25
514.10	27047.52
514.31	26728.04
514.51	27424.35
514.72	27256.42
514.92	27278.94
515.13	27367.01
515.33	27670.11
515.53	27149.92
515.74	27362.91
515.94	27725.40
516.15	27598.43
516.35	27672.15
516.56	27629.15
516.76	27770.46
516.96	27719.26
517.17	27960.92
517.37	27821.66
517.58	27909.72
517.78	28089.94
517.99	28253.78
518.19	28329.55
518.39	28237.39
518.60	28356.18
518.80	28626.51
519.01	28776.01
519.21	28649.03
519.41	28763.72
519.62	28536.40
519.82	28921.41
520.03	28767.82
520.23	28884.55
520.43	28522.06
520.64	29400.64
520.84	29414.98
521.05	29294.14
521.25	29277.76
521.45	29365.82
521.66	29263.43
521.86	29292.10
522.07	29642.30
522.27	29257.28
522.47	29394.50
522.68	29765.18
522.88	29681.21
523.08	30289.46
523.29	30303.79
523.49	30053.94
523.70	30150.20
523.90	30162.48
524.10	30238.26
524.31	30441.01
524.51	30080.56
524.71	30565.93
524.92	30625.32
525.12	30713.39
525.33	30707.24
525.53	30799.40
525.73	31282.72
525.94	30762.54
526.14	31079.97
526.34	31499.81
526.55	31039.01
526.75	31188.52
526.95	31970.84
527.16	31473.18
527.36	31505.95
527.56	32030.23
527.77	31688.22
527.97	31880.73
528.17	31989.27
528.38	32255.51
528.58	31983.13
528.78	32187.92
528.99	32122.39
529.19	32378.39
529.39	31893.02
529.60	32638.48
529.80	32597.52
530.00	32589.33
530.21	32792.08
530.41	32814.60
530.61	32728.59
530.82	32941.58
531.02	32785.93
531.22	33033.74
531.43	32919.05
531.63	33551.87
531.83	33553.92
532.04	34037.24
532.24	33668.61
532.44	34010.62
532.64	33871.36
532.85	34018.81
533.05	34047.48
533.25	34092.54
533.46	34311.67
533.66	34565.62
533.86	34532.85
534.07	34649.58
534.27	34377.20
534.47	34645.49
534.67	35036.65
534.88	34711.02
535.08	34985.45
535.28	35034.60
535.49	34944.49
535.69	35169.77
535.89	35319.27
536.09	35274.21
536.30	35536.35
536.50	35853.79
536.70	35644.90
536.91	35542.50
537.11	36044.25
537.31	36050.39
537.51	35761.63
537.72	36298.20
537.92	36222.42
538.12	36382.16
538.32	36222.42
538.53	36496.85
538.73	36097.50
538.93	36912.59
539.13	36781.52
539.34	36353.49
539.54	36558.29
539.74	36976.08
539.94	36892.11
540.15	36963.79
540.35	37096.91
540.55	37131.72
540.75	37369.29
540.96	37434.82
541.16	37508.55
541.36	37572.03
541.56	37436.87
541.77	37737.92
541.97	37631.43
542.17	37860.80
542.37	37705.15
542.58	38178.23
542.78	38241.72
542.98	37881.28
543.18	38317.50
543.38	38567.35
543.59	38120.89
543.79	37963.20
543.99	38229.43
544.19	38835.63
544.40	38604.21
544.60	38587.83
544.80	38626.74
545.00	38569.40
545.20	38749.62
545.41	38700.47
545.61	38974.89
545.81	38886.83
546.01	39038.38
546.21	39003.56
546.42	39216.55
546.62	39484.84
546.82	39089.58
547.02	39097.77
547.22	39337.38
547.43	39321.00
547.63	39445.93
547.83	39814.56
548.03	39427.49
548.23	39538.08
548.44	39841.18
548.64	39708.07
548.84	40029.60
549.04	39955.87
549.24	40033.69
549.45	40277.40
549.65	39749.03
549.85	40166.81
550.05	40523.16
550.25	40105.37
550.45	40637.84
550.66	40283.55
550.86	40299.93
551.06	40519.06
551.26	40697.24
551.46	40672.66
551.66	40394.14
551.87	40813.97
552.07	40930.70
552.27	40910.22
552.47	41129.36
552.67	41016.72
552.87	41078.16
553.07	41012.62
553.28	40902.03
553.48	41276.81
553.68	41178.51
553.88	41670.02
554.08	41592.20
554.28	41239.95
554.48	41352.58
554.69	41434.50
554.89	41250.19
555.09	41338.25
555.29	41557.38
555.49	41620.87
555.69	41614.72
555.89	41448.84
556.10	41727.36
556.30	41549.19
556.50	41805.19
556.70	41416.07
556.90	41971.07
557.10	42182.01
557.30	42032.51
557.50	42120.57
557.70	41928.06
557.91	42591.61
558.11	42134.91
558.31	42354.04
558.51	42349.95
558.71	42362.23
558.91	42501.50
559.11	42317.18
559.31	42659.19
559.51	42409.34
559.72	42597.75
559.92	42761.59
560.12	42571.13
560.32	42591.61
560.52	42284.41
560.72	42651.00
560.92	42669.43
561.12	42528.12
561.32	43349.35
561.52	42694.00
561.72	43279.72
561.93	42458.49
562.13	43089.26
562.33	42728.82
562.53	43353.45
562.73	42831.22
562.93	42980.72
563.13	42960.24
563.33	42747.25
563.53	43283.82
563.73	42777.97
563.93	43642.21
564.13	43738.47
564.33	43595.11
564.53	43492.71
564.74	43527.53
564.94	43181.42
565.14	43601.25
565.34	43404.65
565.54	43658.60
565.74	43634.02
565.94	44021.09
566.14	43758.95
566.34	43859.30
566.54	43855.20
566.74	43818.34
566.94	43746.66
567.14	44000.61
567.34	43396.46
567.54	43836.77
567.74	43742.56
567.94	43920.74
568.14	44639.57
568.34	44594.52
568.54	44152.16
568.74	44528.98
568.94	44338.52
569.14	44510.55
569.34	44334.43
569.54	44447.07
569.75	44266.84
569.95	44391.77
570.15	45000.02
570.35	44918.10
570.55	44805.46
570.75	44440.92
570.95	44733.78
571.15	44930.39
571.35	44635.48
571.55	44709.21
571.75	44670.29
571.95	44995.92
572.15	44453.21
572.35	45040.98
572.55	44748.12
572.75	44840.28
572.95	44961.11
573.15	45094.22
573.35	44914.00
573.55	44967.25
573.75	45204.81
573.95	45020.50
574.15	45382.99
574.35	45415.76
574.55	45399.37
574.75	45282.64
574.95	45540.68
575.15	45114.70
575.34	45970.75
575.54	45495.63
575.74	45927.75
575.94	45987.14
576.14	45731.14
576.34	46083.39
576.54	45776.20
576.74	46167.36
576.94	45989.19
577.14	46001.47
577.34	46368.06
577.54	46007.62
577.74	45987.14
577.94	46075.20
578.14	46118.21
578.34	46585.15
578.54	46001.47
578.74	46132.54
578.94	46980.40
579.14	46320.96
579.34	46267.71
579.54	46398.78
579.74	46974.26
579.94	46888.24
580.13	46830.90
580.33	47004.98
580.53	47031.60
580.73	46892.34
580.93	46765.37
581.13	46978.36
581.33	47289.65
581.53	47330.61
581.73	47215.92
581.93	47607.08
582.13	47234.35
582.33	47234.35
582.53	47512.88
582.73	47758.63
582.92	47901.99
583.12	48084.26
583.32	47893.80
583.52	47815.97
583.72	48055.59
583.92	47908.13
584.12	48303.39
584.32	48164.13
584.52	47996.20
584.72	47928.61
584.92	48287.01
585.11	48725.27
585.31	47924.52
585.51	48332.06
585.71	48229.66
585.91	48624.92
586.11	48239.90
586.31	48356.64
586.51	48121.12
586.71	48424.22
586.91	49005.84
587.10	48825.62
587.30	48772.38
587.50	49028.37
587.70	48983.32
587.90	48813.34
588.10	48960.79
588.30	48979.22
588.50	49151.25
