SpectraSuite Data File
++++++++++++++++++++++++++++++++++++
Date: Fri Jun 02 14:51:08 CEST 2017
User: INFO_000
Dark Spectrum Present: No
Reference Spectrum Present: No
Number of Sampled Component Spectra: 1
Spectrometers: USB4H00879
Integration Time (usec): 80000 (USB4H00879)
Spectra Averaged: 1 (USB4H00879)
Boxcar Smoothing: 0 (USB4H00879)
Correct for Electrical Dark: No (USB4H00879)
Strobe/Lamp Enabled: No (USB4H00879)
Correct for Detector Non-linearity: No (USB4H00879)
Correct for Stray Light: No (USB4H00879)
Number of Pixels in Processed Spectrum: 3648
>>>>>Begin Processed Spectral Data<<<<<
345.13	1290.22
345.34	1290.22
345.56	1290.22
345.78	1269.74
345.99	1296.36
346.21	1742.82
346.42	1783.78
346.64	1613.80
346.86	1804.26
347.07	1652.71
347.29	1773.54
347.50	1562.60
347.72	1712.10
347.94	1839.08
348.15	1605.61
348.37	1617.90
348.59	1683.43
348.80	1587.18
349.02	1781.73
349.23	1847.27
349.45	1853.41
349.67	1847.27
349.88	1796.07
350.10	1961.95
350.31	1828.84
350.53	1779.68
350.75	1900.52
350.96	1783.78
351.18	1865.70
351.39	1816.55
351.61	1736.68
351.82	1933.28
352.04	1916.90
352.26	1863.65
352.47	1959.91
352.69	1910.75
352.90	1796.07
353.12	1806.31
353.34	1828.84
353.55	1912.80
353.77	1912.80
353.98	1898.47
354.20	1863.65
354.41	1910.75
354.63	1914.85
354.85	2111.46
355.06	1828.84
355.28	1714.15
355.49	1839.08
355.71	1933.28
355.92	1832.93
356.14	1918.95
356.35	1855.46
356.57	1882.08
356.79	1957.86
357.00	1822.69
357.22	1939.43
357.43	1863.65
357.65	2013.15
357.86	1853.41
358.08	1935.33
358.29	1910.75
358.51	1916.90
358.72	2002.91
358.94	1884.13
359.16	1910.75
359.37	1896.42
359.59	1933.28
359.80	1920.99
360.02	1927.14
360.23	1896.42
360.45	1988.58
360.66	1964.00
360.88	1841.12
361.09	2007.01
361.31	1957.86
361.52	1894.37
361.74	2084.83
361.95	2033.63
362.17	1882.08
362.38	2072.54
362.60	2039.78
362.81	1927.14
363.03	1861.60
363.24	1923.04
363.46	2080.74
363.67	2047.97
363.89	1996.77
364.10	1984.48
364.32	1914.85
364.53	1984.48
364.75	1828.84
364.96	2037.73
365.18	1945.57
365.39	1964.00
365.61	1929.19
365.82	2076.64
366.04	2084.83
366.25	1822.69
366.47	2084.83
366.68	2074.59
366.90	2015.20
367.11	2011.11
367.33	2090.98
367.54	2021.35
367.76	2021.35
367.97	2058.21
368.19	1998.82
368.40	2127.84
368.62	1894.37
368.83	1941.47
369.05	1998.82
369.26	1976.29
369.48	2027.49
369.69	1929.19
369.91	1990.63
370.12	1972.19
370.33	2078.69
370.55	1920.99
370.76	2093.02
370.98	2043.87
371.19	2070.50
371.41	2002.91
371.62	1966.05
371.84	1955.81
372.05	2123.74
372.27	1990.63
372.48	2058.21
372.69	2035.68
372.91	2093.02
373.12	2148.32
373.34	2041.82
373.55	2058.21
373.77	2150.37
373.98	2054.11
374.20	2146.27
374.41	2279.39
374.62	2131.94
374.84	2197.47
375.05	2123.74
375.27	2191.33
375.48	2109.41
375.70	2111.46
375.91	2131.94
376.12	2263.01
376.34	2115.55
376.55	2271.20
376.77	2246.62
376.98	2131.94
377.19	2158.56
377.41	2156.51
377.62	2170.85
377.84	2185.18
378.05	2234.33
378.27	2176.99
378.48	2295.77
378.69	2365.40
378.91	2242.53
379.12	2258.91
379.34	2215.90
379.55	2295.77
379.76	2281.44
379.98	2250.72
380.19	2189.28
380.41	2201.57
380.62	2295.77
380.83	2197.47
381.05	2170.85
381.26	2344.92
381.47	2207.71
381.69	2224.09
381.90	2359.26
382.12	2293.72
382.33	2234.33
382.54	2281.44
382.76	2265.05
382.97	2322.40
383.19	2207.71
383.40	2336.73
383.61	2271.20
383.83	2271.20
384.04	2256.86
384.25	2289.63
384.47	2400.22
384.68	2428.89
384.89	2234.33
385.11	2332.64
385.32	2334.68
385.54	2291.68
385.75	2353.12
385.96	2338.78
386.18	2365.40
386.39	2383.84
386.60	2320.35
386.82	2432.99
387.03	2355.16
387.24	2402.27
387.46	2389.98
387.67	2441.18
387.88	2398.17
388.10	2498.52
388.31	2469.85
388.52	2428.89
388.74	2486.23
388.95	2453.47
389.16	2502.62
389.38	2330.59
389.59	2514.91
389.80	2590.68
390.02	2494.43
390.23	2629.59
390.44	2516.95
390.66	2461.66
390.87	2416.60
391.08	2588.63
391.30	2605.02
391.51	2609.11
391.72	2703.32
391.94	2568.15
392.15	2557.91
392.36	2451.42
392.58	2539.48
392.79	2611.16
393.00	2656.22
393.22	2662.36
393.43	2652.12
393.64	2791.38
393.85	2648.02
394.07	2605.02
394.28	2627.54
394.49	2641.88
394.71	2686.94
394.92	2699.22
395.13	2531.29
395.35	2723.80
395.56	2607.06
395.77	2762.71
395.98	2688.98
396.20	2775.00
396.41	2797.53
396.62	2830.29
396.84	2768.85
397.05	2768.85
397.26	2811.86
397.47	2828.24
397.69	2746.33
397.90	2996.18
398.11	2727.89
398.32	2858.96
398.54	2772.95
398.75	2852.82
398.96	2889.68
399.18	2949.08
399.39	2877.40
399.60	2908.12
399.81	2924.50
400.03	2850.77
400.24	3153.87
400.45	2865.11
400.66	2987.99
400.88	2924.50
401.09	3043.28
401.30	3000.27
401.51	3114.96
401.73	3076.05
401.94	2992.08
402.15	3004.37
402.36	3059.67
402.58	3192.78
402.79	3084.24
403.00	3053.52
403.21	3108.82
403.43	3121.10
403.64	3205.07
403.85	3020.75
404.06	3170.26
404.27	3094.48
404.49	3170.26
404.70	3065.81
404.91	3106.77
405.12	3258.32
405.34	3160.02
405.55	3375.05
405.76	3069.91
405.97	3117.01
406.19	3307.47
406.40	3147.73
406.61	3293.13
406.82	3293.13
407.03	3274.70
407.25	3280.85
407.46	3303.37
407.67	3373.00
407.88	3456.97
408.09	3278.80
408.31	3284.94
408.52	3413.96
408.73	3375.05
408.94	3286.99
409.15	3313.61
409.37	3454.92
409.58	3444.68
409.79	3438.54
410.00	3418.06
410.21	3350.48
410.43	3379.15
410.64	3485.64
410.85	3475.40
411.06	3508.17
411.27	3547.08
411.48	3579.85
411.70	3477.45
411.91	3616.71
412.12	3588.04
412.33	3508.17
412.54	3514.31
412.76	3639.24
412.97	3655.62
413.18	3373.00
413.39	3581.90
413.60	3577.80
413.81	3575.75
414.03	3538.89
414.24	3608.52
414.45	3629.00
414.66	3551.18
414.87	3643.34
415.08	3567.56
415.30	3581.90
415.51	3598.28
415.72	3712.97
415.93	3635.14
416.14	3661.77
416.35	3727.30
416.56	3745.73
416.78	3813.32
416.99	3715.02
417.20	3696.58
417.41	3698.63
417.62	3792.84
417.83	3837.89
418.04	3766.21
418.26	3805.13
418.47	3796.93
418.68	3794.89
418.89	3942.34
419.10	3893.19
419.31	3827.65
419.52	3983.30
419.73	3764.17
419.95	4042.69
420.16	3833.80
420.37	3866.56
420.58	3979.20
420.79	3719.11
421.00	3946.44
421.21	3930.05
421.42	3950.53
421.63	4016.07
421.85	3991.49
422.06	4075.46
422.27	4065.22
422.48	4087.75
422.69	4050.88
422.90	4001.73
423.11	4067.27
423.32	4147.14
423.53	4274.11
423.75	4220.86
423.96	4317.12
424.17	4165.57
424.38	4321.21
424.59	4298.69
424.80	4458.43
425.01	4163.52
425.22	4196.29
425.43	4255.68
425.64	4378.56
425.85	4454.33
426.06	4388.80
426.28	4360.13
426.49	4315.07
426.70	4399.04
426.91	4396.99
427.12	4499.39
427.33	4448.19
427.54	4417.47
427.75	4483.00
427.96	4616.12
428.17	4530.11
428.38	4657.08
428.59	4693.94
428.80	4433.85
429.01	4790.20
429.23	4540.35
429.44	4849.59
429.65	4784.06
429.86	4593.59
430.07	4599.74
430.28	4640.70
430.49	4859.83
430.70	4800.44
430.91	5029.81
431.12	4898.74
431.33	4951.99
431.54	4861.88
431.75	4988.85
431.96	4874.17
432.17	4792.25
432.38	4933.56
432.59	5136.31
432.80	5083.06
433.01	5148.59
433.22	5121.97
433.43	5160.88
433.64	5066.67
433.85	5042.10
434.06	5238.70
434.27	5040.05
434.49	5144.50
434.70	5273.52
434.91	5310.38
435.12	5220.27
435.33	5306.29
435.54	5287.86
435.75	5160.88
435.96	5302.19
436.17	5136.31
436.38	5361.58
436.59	5400.49
436.80	5310.38
437.01	5511.08
437.22	5492.65
437.43	5384.11
437.64	5220.27
437.85	5603.24
438.06	5582.76
438.27	5515.18
438.48	5681.07
438.69	5642.15
438.90	5650.35
439.11	5533.61
439.32	5672.87
439.53	5754.79
439.74	5668.78
439.95	5697.45
440.16	5545.90
440.37	5728.17
440.57	5701.54
440.78	5740.46
440.99	5975.97
441.20	5760.94
441.41	5715.88
441.62	5889.96
441.83	5658.54
442.04	5904.29
442.25	6057.89
442.46	5887.91
442.67	6145.95
442.88	6346.66
443.09	5967.78
443.30	6041.51
443.51	6010.79
443.72	6393.76
443.93	5988.26
444.14	6391.71
444.35	6057.89
444.56	6207.39
444.77	6141.86
444.98	6281.12
445.19	6322.08
445.40	6385.57
445.61	6254.50
445.81	6408.09
446.02	6473.63
446.23	6250.40
446.44	6158.24
446.65	6416.29
446.86	6283.17
447.07	6399.90
447.28	6537.12
447.49	6457.25
447.70	6569.88
447.91	6727.58
448.12	6639.51
448.33	6616.99
448.54	6672.28
448.74	6590.36
448.95	6707.10
449.16	6633.37
449.37	6782.87
449.58	6748.06
449.79	6858.65
450.00	6623.13
450.21	6899.61
450.42	6678.43
450.63	6961.05
450.84	6668.19
451.05	6868.89
451.25	6739.87
451.46	6764.44
451.67	6999.96
451.88	7047.06
452.09	7038.87
452.30	6784.92
452.51	7049.11
452.72	7202.71
452.93	7524.24
453.13	6907.80
453.34	6934.42
453.55	7143.32
453.76	7057.30
453.97	7557.00
454.18	7323.54
454.39	7233.43
454.60	7348.11
454.81	7352.21
455.01	7444.37
455.22	7182.23
455.43	7331.73
455.64	7620.49
455.85	7597.96
456.06	7503.76
456.27	7522.19
456.48	7501.71
456.68	7593.87
456.89	7600.01
457.10	7765.90
457.31	7800.71
457.52	7833.48
457.73	7843.72
457.94	7997.32
458.14	7702.41
458.35	7978.89
458.56	7880.58
458.77	7804.81
458.98	7931.78
459.19	7909.26
459.39	8019.85
459.60	8030.09
459.81	8064.90
460.02	8216.45
460.23	8079.24
460.44	8269.70
460.65	8294.27
460.85	8355.71
461.06	8361.86
461.27	8165.25
461.48	8509.31
461.69	8632.19
461.89	8165.25
462.10	8458.11
462.31	8419.20
462.52	8456.06
462.73	8423.30
462.94	8830.84
463.14	8716.16
463.35	8589.18
463.56	9111.41
463.77	9029.49
463.98	8601.47
464.18	8818.55
464.39	9023.35
464.60	8953.72
464.81	9197.43
465.02	8959.86
465.23	9138.04
465.43	9152.37
465.64	9449.33
465.85	9232.24
466.06	9090.93
466.27	9504.62
466.47	9318.26
466.68	9473.90
466.89	9346.93
467.10	9576.30
467.30	9322.35
467.51	9512.81
467.72	9779.05
467.93	9635.69
468.14	9846.63
468.34	9961.32
468.55	9885.55
468.76	9998.18
468.97	9893.74
469.17	10033.00
469.38	10141.54
469.59	10211.17
469.80	10262.37
470.01	10252.13
470.21	10202.98
470.42	10493.79
470.63	10655.58
470.84	10383.20
471.04	10581.85
471.25	10667.87
471.46	10680.16
471.67	10895.19
471.87	10708.83
472.08	10745.69
472.29	11175.77
472.50	10835.80
472.70	10968.92
472.91	11046.74
473.12	11204.44
473.33	11151.19
473.53	11509.58
473.74	11298.64
473.95	11642.70
474.16	11581.26
474.36	11581.26
474.57	11882.31
474.78	12068.68
474.99	11710.29
475.19	11814.73
475.40	12130.12
475.61	12400.45
475.81	12439.36
476.02	12486.47
476.23	12246.85
476.44	12285.76
476.64	12754.75
476.85	12971.83
477.06	12836.67
477.27	12959.55
477.47	13227.83
477.68	13004.60
477.89	13254.45
478.09	13285.17
478.30	13137.72
478.51	13492.02
478.71	13649.71
478.92	13750.06
479.13	13684.53
479.34	13938.48
479.54	14063.40
479.75	14065.45
479.96	14151.46
480.16	14223.14
480.37	14225.19
480.58	14425.89
480.78	14485.28
480.99	14335.78
481.20	14663.46
481.41	15079.19
481.61	14950.17
481.82	15007.52
482.03	14878.49
482.23	15228.70
482.44	15316.76
482.65	15415.06
482.85	15386.39
483.06	15568.66
483.27	15533.84
483.47	15638.29
483.68	15568.66
483.89	16070.41
484.09	15863.57
484.30	16047.88
484.51	16049.93
484.71	16201.48
484.92	16303.88
485.13	16432.90
485.33	16570.12
485.54	16545.54
485.75	16789.25
485.95	16824.06
486.16	17276.66
486.37	17325.82
486.57	17073.92
486.78	17149.69
486.98	17102.59
487.19	17381.11
487.40	17682.16
487.60	17569.52
487.81	17757.94
488.02	17764.08
488.22	17669.87
488.43	17817.33
488.64	17917.68
488.84	18024.17
489.05	18177.77
489.25	17954.54
489.46	18409.19
489.67	18417.38
489.87	18736.87
490.08	18585.32
490.29	18847.46
490.49	19060.45
490.70	19279.58
490.90	19304.15
491.11	18986.72
491.32	19224.28
491.52	19451.61
491.73	19357.40
491.94	19605.20
492.14	19365.59
492.35	20045.52
492.55	19820.24
492.76	19955.41
492.97	19832.53
493.17	20129.48
493.38	20102.86
493.58	20291.27
493.79	20410.06
494.00	20319.95
494.20	20524.74
494.41	20731.59
494.61	20629.19
494.82	20745.92
495.02	20563.65
495.23	21063.36
495.44	20960.96
495.64	21219.00
495.85	21186.24
496.05	21364.41
496.26	21208.76
496.47	21636.79
496.67	21272.25
496.88	21728.95
497.08	21515.96
497.29	21528.25
497.49	21405.37
497.70	21685.94
497.91	21735.09
498.11	22036.14
498.32	22253.23
498.52	22175.41
498.73	22247.08
498.93	22544.04
499.14	22552.23
499.34	22302.38
499.55	22695.59
499.76	22507.18
499.96	22462.12
500.17	22544.04
500.37	22675.11
500.58	22791.84
500.78	22976.16
500.99	22922.91
501.19	23080.61
501.40	22865.57
501.60	22978.21
501.81	22976.16
502.02	22873.76
502.22	23117.47
502.43	23434.91
502.63	23488.15
502.84	23512.73
503.04	23572.12
503.25	23600.79
503.45	23365.28
503.66	23776.92
503.86	23805.59
504.07	23850.64
504.27	23695.00
504.48	23848.60
504.68	23772.82
504.89	24123.02
505.09	23891.60
505.30	24028.82
505.50	23918.23
505.71	24250.00
505.91	24209.04
506.12	24272.53
506.32	24325.77
506.53	24385.16
506.73	24549.00
506.94	24428.17
507.14	24403.60
507.35	24686.22
507.55	24669.83
507.76	24403.60
507.96	24532.62
508.17	24755.85
508.37	24942.21
508.58	24753.80
508.78	24768.13
508.99	25124.48
509.19	24880.77
509.40	24878.72
509.60	25159.30
509.81	25073.28
510.01	24798.85
510.22	25020.03
510.42	25048.71
510.63	25192.06
510.83	25204.35
511.04	25224.83
511.24	25337.47
511.44	25433.72
511.65	25403.00
511.85	25190.02
512.06	25527.93
512.26	25814.65
512.47	25611.90
512.67	25601.66
512.88	25554.55
513.08	25187.97
513.29	25726.58
513.49	25650.81
513.69	25822.84
513.90	25722.49
514.10	25800.31
514.31	25855.61
514.51	25869.94
514.72	25894.52
514.92	26003.06
515.13	26070.64
515.33	26091.12
515.53	26078.83
515.74	26302.06
515.94	26351.21
516.15	26349.17
516.35	26211.95
516.56	26601.07
516.76	26197.62
516.96	26572.39
517.17	26578.54
517.37	26355.31
517.58	26639.98
517.78	26738.28
517.99	26572.39
518.19	26697.32
518.39	26764.90
518.60	26779.24
518.80	26926.69
519.01	26943.08
519.21	26955.36
519.41	27162.21
519.62	26723.94
519.82	27266.66
520.03	27049.57
520.23	27530.84
520.43	27125.35
520.64	27723.35
520.84	27780.70
521.05	27571.80
521.25	27534.94
521.45	27762.26
521.66	27956.82
521.86	27889.24
522.07	27811.42
522.27	28141.14
522.47	28132.95
522.68	28282.45
522.88	28208.72
523.08	28259.92
523.29	28233.30
523.49	28593.74
523.70	28214.87
523.90	28534.35
524.10	28614.22
524.31	28704.33
524.51	28569.16
524.71	28718.67
524.92	28980.81
525.12	28882.50
525.33	29335.10
525.53	29201.99
525.73	29402.69
525.94	29288.00
526.14	29226.56
526.34	29521.47
526.55	29716.03
526.75	29425.22
526.95	29709.88
527.16	29681.21
527.36	29759.03
527.56	30166.58
527.77	30332.47
527.97	30424.62
528.17	30039.61
528.38	30545.45
528.58	30357.04
528.78	30451.25
528.99	30508.59
529.19	30983.72
529.39	30637.61
529.60	31014.44
529.80	31002.15
530.00	30971.43
530.21	31424.03
530.41	31411.74
530.61	30993.96
530.82	31381.03
531.02	31569.44
531.22	31692.32
531.43	31723.04
531.63	31684.12
531.83	32019.99
532.04	32140.82
532.24	32171.54
532.44	32347.67
532.64	32560.66
532.85	33005.06
533.05	32495.12
533.25	32802.32
533.46	32605.71
533.66	33183.24
533.86	32917.00
534.07	33302.02
534.27	33013.26
534.47	33416.71
534.67	33349.12
534.88	33029.64
535.08	33635.84
535.28	33693.18
535.49	33629.69
535.69	33656.32
535.89	33842.68
536.09	34283.00
536.30	34395.64
536.50	34039.29
536.70	34731.50
536.91	34444.79
537.11	34770.41
537.31	34997.74
537.51	34565.62
537.72	34987.50
537.92	35093.99
538.12	35503.59
538.32	34928.11
538.53	35517.92
538.73	35196.39
538.93	35411.43
539.13	35706.34
539.34	35626.46
539.54	35747.29
539.74	35917.28
539.94	36036.06
540.15	35821.02
540.35	36191.70
540.55	36083.16
540.75	35941.85
540.96	36576.72
541.16	36392.40
541.36	36664.78
541.56	36466.13
541.77	36906.44
541.97	36849.10
542.17	36945.36
542.37	37101.00
542.58	36828.62
542.78	36806.09
542.98	37078.47
543.18	37246.41
543.38	37780.93
543.59	37533.12
543.79	37328.33
543.99	37469.64
544.19	37936.57
544.40	37529.03
544.60	38215.10
544.80	37883.33
545.00	37993.92
545.20	38284.73
545.41	37879.23
545.61	38211.00
545.81	38288.82
546.01	38673.84
546.21	38526.39
546.42	38487.48
546.62	38372.79
546.82	38616.50
547.02	38602.16
547.22	38942.13
547.43	38886.83
547.63	39327.14
547.83	39138.73
548.03	39124.40
548.23	39439.78
548.44	38985.13
548.64	39425.45
548.84	39337.38
549.04	39585.19
549.24	39564.71
549.45	39509.41
549.65	39292.33
549.85	39312.81
550.05	39978.40
550.25	39828.90
550.45	40236.44
550.66	40041.88
550.86	39962.01
551.06	40355.22
551.26	40093.08
551.46	40111.52
551.66	40478.10
551.87	40478.10
552.07	40459.67
552.27	40084.89
552.47	40205.72
552.67	40162.72
552.87	40621.46
553.07	40832.40
553.28	40662.42
553.48	40789.39
553.68	40363.42
553.88	40895.89
554.08	40785.30
554.28	40545.69
554.48	40730.00
554.69	41020.81
554.89	41362.82
555.09	40889.74
555.29	40897.94
555.49	41424.26
555.69	41438.60
555.89	41194.89
556.10	41649.54
556.30	41293.19
556.50	41411.98
556.70	40889.74
556.90	41530.76
557.10	41530.76
557.30	41467.27
557.50	41547.14
557.70	41399.69
557.91	41627.01
558.11	41358.73
558.31	42085.76
558.51	41426.31
558.71	41874.82
558.91	41829.76
559.11	41983.36
559.31	41987.46
559.51	41665.92
559.72	41647.49
559.92	42141.05
560.12	41731.46
560.32	42358.14
560.52	41756.03
560.72	41868.67
560.92	41596.29
561.12	42225.02
561.32	42319.23
561.52	42245.50
561.72	42321.27
561.93	42165.63
562.13	42227.07
562.33	42083.71
562.53	42972.53
562.73	41880.96
562.93	42472.82
563.13	42159.48
563.33	42425.72
563.53	42562.93
563.73	42159.48
563.93	42124.67
564.13	42538.36
564.33	42745.20
564.53	42636.66
564.74	42835.31
564.94	42628.47
565.14	42546.55
565.34	42333.56
565.54	42687.86
565.74	42915.19
565.94	42888.56
566.14	42954.10
566.34	42431.86
566.54	42976.62
566.74	42843.51
566.94	42888.56
567.14	43007.34
567.34	42790.26
567.54	42827.12
567.74	42917.23
567.94	42808.69
568.14	43085.17
568.34	43169.13
568.54	42732.92
568.74	42964.34
568.94	43130.22
569.14	42968.43
569.34	42714.48
569.54	43132.27
569.75	42773.88
569.95	43193.71
570.15	43234.67
570.35	43212.14
570.55	42861.94
570.75	42904.95
570.95	43539.82
571.15	43234.67
571.35	43570.54
571.55	43439.47
571.75	43222.38
571.95	43191.66
572.15	42784.12
572.35	43257.20
572.55	43371.88
572.75	43281.77
572.95	43091.31
573.15	43496.81
573.35	43418.99
573.55	43324.78
573.75	43578.73
573.95	43302.25
574.15	43468.14
574.35	43162.99
574.55	43124.08
574.75	43238.76
574.95	43969.89
575.15	43203.95
575.34	43842.92
575.54	43568.49
575.74	43965.79
575.94	43666.79
576.14	43277.68
576.34	44103.01
576.54	44336.48
576.74	44031.33
576.94	43476.33
577.14	44170.59
577.34	44072.29
577.54	43449.70
577.74	44107.10
577.94	43871.59
578.14	44387.67
578.34	44524.89
578.54	43550.06
578.74	44090.72
578.94	44371.29
579.14	43963.75
579.34	44100.96
579.54	44467.55
579.74	44264.80
579.94	44488.03
580.13	44557.66
580.33	44516.70
580.53	44821.84
580.73	44555.61
580.93	44647.77
581.13	44473.69
581.33	44670.29
581.53	44807.51
581.73	44866.90
581.93	44807.51
582.13	44602.71
582.33	45147.47
582.53	44973.39
582.73	44979.54
582.92	44754.26
583.12	45106.51
583.32	45026.64
583.52	45094.22
583.72	45385.04
583.92	45024.59
584.12	45106.51
584.32	45604.17
584.52	45675.85
584.72	45669.70
584.92	45434.19
585.11	45784.39
585.31	45569.35
585.51	45956.42
585.71	45493.58
585.91	45919.56
586.11	45626.70
586.31	45335.88
586.51	45503.82
586.71	46196.03
586.91	45989.19
587.10	45940.04
587.30	46208.32
587.50	45952.32
587.70	46306.62
587.90	46073.15
588.10	45948.23
588.30	46300.48
588.50	46454.08
588.69	46323.01
