SpectraSuite Data File
++++++++++++++++++++++++++++++++++++
Date: Fri Jun 02 14:51:09 CEST 2017
User: INFO_000
Dark Spectrum Present: No
Reference Spectrum Present: No
Number of Sampled Component Spectra: 1
Spectrometers: USB4H00879
Integration Time (usec): 80000 (USB4H00879)
Spectra Averaged: 1 (USB4H00879)
Boxcar Smoothing: 0 (USB4H00879)
Correct for Electrical Dark: No (USB4H00879)
Strobe/Lamp Enabled: No (USB4H00879)
Correct for Detector Non-linearity: No (USB4H00879)
Correct for Stray Light: No (USB4H00879)
Number of Pixels in Processed Spectrum: 3648
>>>>>Begin Processed Spectral Data<<<<<
345.13	1331.18
345.34	1331.18
345.56	1331.18
345.78	1347.56
345.99	1300.46
346.21	1722.34
346.42	1677.29
346.64	1640.42
346.86	1802.21
347.07	1585.13
347.29	1769.44
347.50	1611.75
347.72	1712.10
347.94	1732.58
348.15	1490.92
348.37	1658.85
348.59	1638.38
348.80	1685.48
349.02	1730.53
349.23	1920.99
349.45	1845.22
349.67	1918.95
349.88	1849.32
350.10	2004.96
350.31	1857.51
350.53	1789.92
350.75	1937.38
350.96	1783.78
351.18	1857.51
351.39	1896.42
351.61	1703.91
351.82	1884.13
352.04	1880.04
352.26	1828.84
352.47	1904.61
352.69	1914.85
352.90	1775.59
353.12	1865.70
353.34	1871.84
353.55	1892.32
353.77	1880.04
353.98	1828.84
354.20	1830.88
354.41	1947.62
354.63	1912.80
354.85	2070.50
355.06	1882.08
355.28	1824.74
355.49	1914.85
355.71	2015.20
355.92	1906.66
356.14	1968.10
356.35	1841.12
356.57	1834.98
356.79	1882.08
357.00	1896.42
357.22	1961.95
357.43	1828.84
357.65	1935.33
357.86	1769.44
358.08	1925.09
358.29	1916.90
358.51	1931.23
358.72	1992.67
358.94	1912.80
359.16	1914.85
359.37	1925.09
359.59	1953.76
359.80	1929.19
360.02	1949.67
360.23	2002.91
360.45	1982.43
360.66	1929.19
360.88	1871.84
361.09	1900.52
361.31	1964.00
361.52	1877.99
361.74	2052.06
361.95	2039.78
362.17	1888.23
362.38	2082.78
362.60	2002.91
362.81	1970.15
363.03	1978.34
363.24	2031.58
363.46	2082.78
363.67	2039.78
363.89	1994.72
364.10	1961.95
364.32	2011.11
364.53	1974.24
364.75	1847.27
364.96	2007.01
365.18	2007.01
365.39	1972.19
365.61	1998.82
365.82	2058.21
366.04	2090.98
366.25	1920.99
366.47	2047.97
366.68	2023.39
366.90	1877.99
367.11	1972.19
367.33	2033.63
367.54	2074.59
367.76	1953.76
367.97	2152.42
368.19	1961.95
368.40	2056.16
368.62	1951.71
368.83	1951.71
369.05	1957.86
369.26	1912.80
369.48	1988.58
369.69	1968.10
369.91	2064.35
370.12	2019.30
370.33	2181.09
370.55	1966.05
370.76	2070.50
370.98	2111.46
371.19	2019.30
371.41	1988.58
371.62	2080.74
371.84	2017.25
372.05	2185.18
372.27	2097.12
372.48	2088.93
372.69	2076.64
372.91	2133.98
373.12	2244.57
373.34	2082.78
373.55	2115.55
373.77	2105.31
373.98	2066.40
374.20	2107.36
374.41	2203.61
374.62	2088.93
374.84	2123.74
375.05	2220.00
375.27	2103.26
375.48	2193.37
375.70	2148.32
375.91	2234.33
376.12	2162.66
376.34	2072.54
376.55	2127.84
376.77	2183.13
376.98	2105.31
377.19	2174.94
377.41	2133.98
377.62	2185.18
377.84	2191.33
378.05	2338.78
378.27	2222.05
378.48	2314.20
378.69	2332.64
378.91	2295.77
379.12	2172.89
379.34	2303.96
379.55	2265.05
379.76	2263.01
379.98	2207.71
380.19	2131.94
380.41	2275.29
380.62	2303.96
380.83	2191.33
381.05	2095.07
381.26	2357.21
381.47	2195.42
381.69	2244.57
381.90	2371.55
382.12	2215.90
382.33	2318.30
382.54	2232.29
382.76	2349.02
382.97	2324.44
383.19	2242.53
383.40	2414.56
383.61	2318.30
383.83	2248.67
384.04	2324.44
384.25	2303.96
384.47	2342.88
384.68	2222.05
384.89	2297.82
385.11	2312.16
385.32	2174.94
385.54	2263.01
385.75	2332.64
385.96	2383.84
386.18	2410.46
386.39	2392.03
386.60	2344.92
386.82	2387.93
387.03	2439.13
387.24	2459.61
387.46	2330.59
387.67	2420.70
387.88	2498.52
388.10	2439.13
388.31	2416.60
388.52	2539.48
388.74	2445.27
388.95	2408.41
389.16	2447.32
389.38	2412.51
389.59	2570.20
389.80	2484.19
390.02	2574.30
390.23	2588.63
390.44	2568.15
390.66	2521.05
390.87	2471.90
391.08	2537.43
391.30	2617.30
391.51	2625.50
391.72	2592.73
391.94	2584.54
392.15	2625.50
392.36	2555.86
392.58	2494.43
392.79	2584.54
393.00	2607.06
393.22	2680.79
393.43	2699.22
393.64	2783.19
393.85	2711.51
394.07	2617.30
394.28	2660.31
394.49	2695.13
394.71	2799.57
394.92	2803.67
395.13	2664.41
395.35	2668.50
395.56	2625.50
395.77	2781.14
395.98	2727.89
396.20	2760.66
396.41	2748.37
396.62	2883.54
396.84	2844.63
397.05	2758.61
397.26	2791.38
397.47	2875.35
397.69	2779.09
397.90	2955.22
398.11	2801.62
398.32	2805.72
398.54	2746.33
398.75	2795.48
398.96	2793.43
399.18	2987.99
399.39	2750.42
399.60	3028.95
399.81	2861.01
400.03	2787.29
400.24	3074.00
400.45	2924.50
400.66	3010.51
400.88	2914.26
401.09	2981.84
401.30	2949.08
401.51	3047.38
401.73	3069.91
401.94	3043.28
402.15	2994.13
402.36	3016.66
402.58	3112.91
402.79	3078.10
403.00	3100.62
403.21	3139.54
403.43	3125.20
403.64	3221.45
403.85	3166.16
404.06	3045.33
404.27	3033.04
404.49	3139.54
404.70	2975.70
404.91	3147.73
405.12	3100.62
405.34	3149.78
405.55	3252.17
405.76	3112.91
405.97	3188.69
406.19	3368.91
406.40	3092.43
406.61	3262.41
406.82	3237.84
407.03	3295.18
407.25	3233.74
407.46	3352.52
407.67	3301.33
407.88	3442.64
408.09	3311.57
408.31	3231.69
408.52	3471.31
408.73	3350.48
408.94	3192.78
409.15	3420.11
409.37	3444.68
409.58	3401.68
409.79	3407.82
410.00	3456.97
410.21	3301.33
410.43	3301.33
410.64	3303.37
410.85	3477.45
411.06	3504.07
411.27	3401.68
411.48	3502.03
411.70	3559.37
411.91	3393.48
412.12	3473.36
412.33	3438.54
412.54	3518.41
412.76	3495.88
412.97	3563.47
413.18	3545.03
413.39	3557.32
413.60	3637.19
413.81	3575.75
414.03	3502.03
414.24	3471.31
414.45	3665.86
414.66	3536.84
414.87	3663.82
415.08	3661.77
415.30	3657.67
415.51	3614.66
415.72	3704.78
415.93	3663.82
416.14	3643.34
416.35	3786.69
416.56	3717.06
416.78	3665.86
416.99	3817.41
417.20	3878.85
417.41	3796.93
417.62	3729.35
417.83	3790.79
418.04	3848.13
418.26	3950.53
418.47	3885.00
418.68	3901.38
418.89	3942.34
419.10	3960.77
419.31	3901.38
419.52	3960.77
419.73	4007.87
419.95	4057.03
420.16	3788.74
420.37	4001.73
420.58	3971.01
420.79	3889.09
421.00	3977.16
421.21	4028.35
421.42	3907.52
421.63	4065.22
421.85	3960.77
422.06	4028.35
422.27	4052.93
422.48	3997.64
422.69	4073.41
422.90	3968.96
423.11	4214.72
423.32	4194.24
423.53	4372.41
423.75	4200.38
423.96	4417.47
424.17	4278.21
424.38	4427.71
424.59	4251.58
424.80	4394.94
425.01	4304.83
425.22	4233.15
425.43	4313.02
425.64	4421.56
425.85	4507.58
426.06	4292.54
426.28	4325.31
426.49	4251.58
426.70	4310.97
426.91	4476.86
427.12	4489.15
427.33	4583.35
427.54	4392.89
427.75	4620.22
427.96	4730.81
428.17	4542.39
428.38	4638.65
428.59	4640.70
428.80	4618.17
429.01	4501.44
429.23	4816.82
429.44	4812.73
429.65	4771.77
429.86	4702.14
430.07	4741.05
430.28	4730.81
430.49	4865.97
430.70	5033.91
430.91	4825.01
431.12	4677.56
431.33	4890.55
431.54	4855.73
431.75	4898.74
431.96	4820.92
432.17	4995.00
432.38	4911.03
432.59	5158.83
432.80	5015.48
433.01	5038.00
433.22	4978.61
433.43	5015.48
433.64	5042.10
433.85	5025.72
434.06	5207.98
434.27	5078.96
434.49	5234.61
434.70	5195.70
434.91	5236.66
435.12	5191.60
435.33	5056.43
435.54	5195.70
435.75	5240.75
435.96	5185.46
436.17	5203.89
436.38	5412.78
436.59	5253.04
436.80	5261.23
437.01	5310.38
437.22	5482.41
437.43	5296.05
437.64	5234.61
437.85	5562.28
438.06	5420.97
438.27	5410.73
438.48	5474.22
438.69	5631.91
438.90	5484.46
439.11	5285.81
439.32	5820.33
439.53	5795.75
439.74	5562.28
439.95	5539.76
440.16	5617.58
440.37	5525.42
440.57	5474.22
440.78	5689.26
440.99	5703.59
441.20	5746.60
441.41	5676.97
441.62	5760.94
441.83	5605.29
442.04	5851.05
442.25	5740.46
442.46	5687.21
442.67	5945.25
442.88	6186.91
443.09	5685.16
443.30	5851.05
443.51	6012.84
443.72	6188.96
443.93	6016.93
444.14	6191.01
444.35	5816.23
444.56	6008.74
444.77	6184.87
444.98	6170.53
445.19	6170.53
445.40	6082.47
445.61	5971.88
445.81	6246.30
446.02	6188.96
446.23	6205.35
446.44	6066.08
446.65	6166.43
446.86	6225.82
447.07	6250.40
447.28	6571.93
447.49	6455.20
447.70	6436.77
447.91	6414.24
448.12	6283.17
448.33	6371.23
448.54	6504.35
448.74	6473.63
448.95	6657.95
449.16	6600.60
449.37	6795.16
449.58	6498.20
449.79	6782.87
450.00	6510.49
450.21	6729.63
450.42	6881.18
450.63	6711.19
450.84	6719.39
451.05	6829.98
451.25	6909.85
451.46	6668.19
451.67	6961.05
451.88	6975.38
452.09	6903.70
452.30	6739.87
452.51	7071.64
452.72	7094.16
452.93	7372.69
453.13	6950.81
453.34	7167.89
453.55	7135.12
453.76	7153.55
453.97	7356.30
454.18	7249.81
454.39	7258.00
454.60	7231.38
454.81	7403.41
455.01	7423.89
455.22	7200.66
455.43	7366.54
455.64	7690.12
455.85	7769.99
456.06	7780.23
456.27	7610.25
456.48	7520.14
456.68	7743.37
456.89	7759.75
457.10	7888.78
457.31	7862.15
457.52	7569.29
457.73	7741.32
457.94	8036.23
458.14	7679.88
458.35	8394.62
458.56	8146.82
458.77	8062.85
458.98	8318.85
459.19	8173.44
459.39	8255.36
459.60	8374.14
459.81	8208.26
460.02	8333.18
460.23	8214.40
460.44	8482.69
460.65	8507.26
460.85	8529.79
461.06	8449.92
461.27	8376.19
461.48	8646.52
461.69	8814.46
461.89	8359.81
462.10	8873.85
462.31	8417.15
462.52	8669.05
462.73	8552.32
462.94	9111.41
463.14	8771.45
463.35	8677.24
463.56	9295.73
463.77	9211.76
463.98	8953.72
464.18	9045.88
464.39	9404.27
464.60	9344.88
464.81	9201.52
465.02	9213.81
465.23	9402.22
465.43	9289.59
465.64	9586.54
465.85	9572.21
466.06	9443.18
466.27	9777.00
466.47	9729.90
466.68	9822.06
466.89	9729.90
467.10	9770.86
467.30	9338.74
467.51	9928.55
467.72	9992.04
467.93	9803.63
468.14	9944.94
468.34	10192.74
468.55	10172.26
468.76	10209.12
468.97	9987.94
469.17	10444.64
469.38	10424.16
469.59	10405.73
469.80	10209.12
470.01	10385.25
470.21	10504.03
470.42	10698.59
470.63	10495.84
470.84	10645.34
471.04	10729.31
471.25	10784.60
471.46	10649.44
471.67	11087.70
471.87	11063.13
472.08	11126.61
472.29	11255.64
472.50	11087.70
472.70	11226.96
472.91	11362.13
473.12	11396.95
473.33	11398.99
473.53	11568.98
473.74	11368.27
473.95	11652.94
474.16	11566.93
474.36	11863.88
474.57	11941.71
474.78	12027.72
474.99	11902.79
475.19	11632.46
475.40	12117.83
475.61	12230.47
475.81	12451.65
476.02	12611.39
476.23	12326.72
476.44	12519.23
476.64	12668.73
476.85	12730.17
477.06	12724.03
477.27	13041.46
477.47	13043.51
477.68	12887.87
477.89	13272.89
478.09	13145.91
478.30	13307.70
478.51	13311.80
478.71	13455.15
478.92	13461.30
479.13	13725.49
479.34	13700.91
479.54	13698.86
479.75	13645.62
479.96	13940.52
480.16	14016.30
480.37	13983.53
480.58	14120.74
480.78	14315.30
480.99	14229.29
481.20	14364.45
481.41	14559.01
481.61	14475.04
481.82	14810.91
482.03	14628.64
482.23	14532.39
482.44	14829.34
482.65	15118.11
482.85	15134.49
483.06	15144.73
483.27	15193.88
483.47	15324.95
483.68	15206.17
483.89	15245.08
484.09	15349.53
484.30	15750.93
484.51	15505.17
484.71	15759.12
484.92	15910.67
485.13	15879.95
485.33	15869.71
485.54	16232.20
485.75	16326.41
485.95	16350.98
486.16	16387.85
486.37	16467.72
486.57	16652.03
486.78	16217.86
486.98	16670.47
487.19	16758.53
487.40	16979.71
487.60	16871.17
487.81	17196.79
488.02	17250.04
488.22	17043.20
488.43	17323.77
488.64	17393.40
488.84	17483.51
489.05	17673.97
489.25	17483.51
489.46	17858.29
489.67	17794.80
489.87	17723.12
490.08	18112.24
490.29	18171.63
490.49	18521.83
490.70	18431.72
490.90	18446.05
491.11	18513.64
491.32	18638.56
491.52	18413.29
491.73	18601.70
491.94	18654.95
492.14	18837.22
492.35	18763.49
492.55	19257.05
492.76	19246.81
492.97	19359.45
493.17	19283.67
493.38	19424.98
493.58	19599.06
493.79	19748.56
494.00	19515.09
494.20	19998.41
494.41	19998.41
494.61	19982.03
494.82	20346.57
495.02	19992.27
495.23	20369.10
495.44	20768.45
495.64	20514.50
495.85	20274.89
496.05	20510.41
496.26	20563.65
496.47	20696.77
496.67	20707.01
496.88	21022.40
497.08	20825.79
497.29	21333.69
497.49	21300.92
497.70	21556.92
497.91	21227.20
498.11	21651.13
498.32	21610.17
498.52	21765.81
498.73	21812.92
498.93	21876.40
499.14	21915.31
499.34	21823.16
499.55	22435.50
499.76	22171.31
499.96	22030.00
500.17	22474.41
500.37	22255.28
500.58	22464.17
500.78	22505.13
500.99	22615.72
501.19	23019.17
501.40	22771.36
501.60	22531.75
501.81	22804.13
502.02	22693.54
502.22	23142.05
502.43	23193.25
502.63	23332.51
502.84	23568.02
503.04	23203.49
503.25	23277.21
503.45	23217.82
503.66	23645.85
503.86	23615.13
504.07	23817.88
504.27	23537.30
504.48	24209.04
504.68	24016.53
504.89	24123.02
505.09	24114.83
505.30	24004.24
505.50	24258.19
505.71	24577.67
505.91	24352.40
506.12	24360.59
506.32	24376.97
506.53	24647.30
506.73	24622.73
506.94	24813.19
507.14	24585.86
507.35	24708.74
507.55	24893.06
507.76	25097.86
507.96	24761.99
508.17	25353.85
508.37	25040.51
508.58	25212.54
508.78	25265.79
508.99	25640.57
509.19	25075.33
509.40	25738.87
509.60	25200.26
509.81	25753.21
510.01	25566.84
510.22	25667.19
510.42	25740.92
510.63	25773.69
510.83	26084.98
511.04	25808.50
511.24	26093.17
511.44	25951.86
511.65	26203.76
511.85	26001.01
512.06	26148.46
512.26	26431.08
512.47	26308.21
512.67	26601.07
512.88	26578.54
513.08	26001.01
513.29	26457.71
513.49	26674.79
513.69	26582.63
513.90	26877.54
514.10	26814.05
514.31	27051.62
514.51	26898.02
514.72	26781.29
514.92	26732.14
515.13	26936.93
515.33	26916.45
515.53	26998.37
515.74	27143.78
515.94	27377.25
516.15	27246.18
516.35	26881.64
516.56	27471.45
516.76	27074.15
516.96	27516.51
517.17	27856.47
517.37	27819.61
517.58	27395.68
517.78	27461.21
517.99	27389.53
518.19	27655.77
518.39	27971.16
518.60	28253.78
518.80	27831.90
519.01	27932.25
519.21	28059.22
519.41	28112.47
519.62	28409.42
519.82	28360.27
520.03	28038.74
520.23	28409.42
520.43	28251.73
520.64	28646.99
520.84	28522.06
521.05	28603.98
521.25	29003.33
521.45	28628.56
521.66	28780.10
521.86	28827.21
522.07	28728.91
522.27	29171.27
522.47	28939.85
522.68	29285.95
522.88	29146.69
523.08	28941.89
523.29	29158.98
523.49	29363.78
523.70	29451.84
523.90	29740.60
524.10	29283.91
524.31	29597.24
524.51	29378.11
524.71	29863.48
524.92	29337.15
525.12	30060.09
525.33	29898.30
525.53	30002.74
525.73	30516.78
525.94	30115.38
526.14	30199.35
526.34	30082.61
526.55	30475.82
526.75	30207.54
526.95	30504.49
527.16	30549.55
527.36	30281.27
527.56	30479.92
527.77	30842.41
527.97	30735.92
528.17	30631.47
528.38	31077.93
528.58	31079.97
528.78	31006.25
528.99	30985.77
529.19	31188.52
529.39	31178.28
529.60	31325.73
529.80	31252.00
530.00	30832.17
530.21	31489.57
530.41	31766.04
530.61	31491.62
530.82	31655.45
531.02	31458.85
531.22	32116.25
531.43	31774.24
531.63	31911.45
531.83	32325.14
532.04	32284.18
532.24	31931.93
532.44	32273.94
532.64	32349.71
532.85	32466.45
533.05	32462.35
533.25	32734.73
533.46	32587.28
533.66	33101.32
533.86	32556.56
534.07	32947.72
534.27	32822.80
534.47	33287.68
534.67	32939.53
534.88	33381.89
535.08	33068.55
535.28	33465.86
535.49	33488.38
535.69	33676.80
535.89	33703.42
536.09	33691.13
536.30	33908.22
536.50	33791.48
536.70	34131.45
536.91	33807.87
537.11	34053.62
537.31	34055.67
537.51	34117.11
537.72	34723.31
537.92	34319.86
538.12	34842.09
538.32	34661.87
538.53	34655.73
538.73	34416.11
538.93	34571.76
539.13	34672.11
539.34	34590.19
539.54	34538.99
539.74	35374.56
539.94	35100.14
540.15	34940.39
540.35	34819.56
540.55	35139.05
540.75	35206.63
540.96	34989.55
541.16	35167.72
541.36	35653.09
541.56	35554.79
541.77	35661.28
541.97	35034.60
542.17	35485.15
542.37	35659.23
542.58	35491.30
542.78	35958.24
542.98	36025.82
543.18	35907.04
543.38	35937.76
543.59	36308.44
543.79	36320.73
543.99	35726.81
544.19	36435.41
544.40	36468.18
544.60	36550.10
544.80	36724.18
545.00	36505.04
545.20	36705.74
545.41	36505.04
545.61	36369.88
545.81	36816.33
546.01	37178.82
546.21	36808.14
546.42	37090.76
546.62	37246.41
546.82	36732.37
547.02	37055.95
547.22	37123.53
547.43	37287.37
547.63	37438.92
547.83	37590.47
548.03	37193.16
548.23	37395.91
548.44	37680.58
548.64	37598.66
548.84	37707.20
549.04	37623.23
549.24	38069.69
549.45	38213.05
549.65	37805.50
549.85	37842.37
550.05	38325.69
550.25	37828.03
550.45	38505.91
550.66	38520.24
550.86	37893.57
551.06	38206.90
551.26	38555.06
551.46	38462.90
551.66	38153.66
551.87	38446.52
552.07	38499.76
552.27	38634.93
552.47	38868.40
552.67	38868.40
552.87	38755.76
553.07	38776.24
553.28	39181.74
553.48	39075.24
553.68	39232.94
553.88	39249.32
554.08	38864.30
554.28	39138.73
554.48	39255.46
554.69	39402.92
554.89	39460.26
555.09	39501.22
555.29	39650.72
555.49	39683.49
555.69	39480.74
555.89	39986.59
556.10	39654.82
556.30	39970.21
556.50	39726.50
556.70	39734.69
556.90	40035.74
557.10	40134.04
557.30	39525.80
557.50	40199.58
557.70	40408.47
557.91	40074.65
558.11	40222.11
558.31	40394.14
558.51	40293.79
558.71	40291.74
558.91	40369.56
559.11	40246.68
559.31	40332.70
559.51	40095.13
559.72	40775.06
559.92	40570.26
560.12	40519.06
560.32	40879.50
560.52	40617.36
560.72	40988.05
560.92	40764.82
561.12	40973.71
561.32	41227.66
561.52	40836.50
561.72	41280.91
561.93	41256.33
562.13	40725.91
562.33	41174.41
562.53	41612.68
562.73	41366.92
562.93	41639.30
563.13	41450.89
563.33	41317.77
563.53	41743.75
563.73	41491.85
563.93	41901.44
564.13	42198.40
564.33	42216.83
564.53	41885.06
564.74	42458.49
564.94	42036.61
565.14	41940.35
565.34	41809.28
565.54	42200.44
565.74	42503.54
565.94	42491.26
566.14	42030.46
566.34	42360.19
566.54	42794.36
566.74	42411.38
566.94	42841.46
567.14	42968.43
567.34	42483.06
567.54	43074.93
567.74	42743.16
567.94	42399.10
568.14	42878.32
568.34	43128.17
568.54	42909.04
568.74	43251.05
568.94	43134.32
569.14	43040.11
569.34	43267.44
569.54	43021.68
569.75	42988.91
569.95	43312.49
570.15	43693.41
570.35	43287.92
570.55	43517.29
570.75	43271.53
570.95	43873.63
571.15	43771.24
571.35	43695.46
571.55	43799.91
571.75	43822.44
571.95	43906.40
572.15	43687.27
572.35	43791.72
572.55	43963.75
572.75	44039.52
572.95	44092.77
573.15	44455.26
573.35	44232.03
573.55	44229.98
573.75	44258.65
573.95	44629.34
574.15	44100.96
574.35	44479.83
574.55	44498.26
574.75	44553.56
574.95	44303.71
575.15	44741.97
575.34	44889.43
575.54	44942.67
575.74	45069.65
575.94	45245.77
576.14	44750.17
576.34	45186.38
576.54	45612.36
576.74	45270.35
576.94	45231.44
577.14	45499.72
577.34	45794.63
577.54	45321.55
577.74	45950.27
577.94	45423.95
578.14	45610.31
578.34	45581.64
578.54	45172.05
578.74	45618.50
578.94	46110.02
579.14	45782.34
579.34	45757.77
579.54	45831.49
579.74	46568.76
579.94	46128.45
580.13	46517.56
580.33	46523.71
580.53	46535.99
580.73	46200.13
580.93	46284.09
581.13	46288.19
581.33	46685.50
581.53	46685.50
581.73	46556.47
581.93	46751.03
582.13	46753.08
582.33	46869.81
582.53	46734.65
582.73	47303.98
582.92	46812.47
583.12	47580.46
583.32	46869.81
583.52	46726.46
583.72	47230.26
583.92	46990.64
584.12	47451.44
584.32	47906.08
584.52	47404.33
584.72	47240.50
584.92	47365.42
585.11	47850.79
585.31	47287.60
585.51	47469.87
585.71	47945.00
585.91	48051.49
586.11	47641.90
586.31	47953.19
586.51	47748.39
586.71	48053.54
586.91	48297.25
587.10	47717.67
587.30	48037.16
587.50	48272.67
587.70	48395.55
587.90	48184.61
588.10	48241.95
588.30	48323.87
588.50	48178.46
588.69	48510.24
