SpectraSuite Data File
++++++++++++++++++++++++++++++++++++
Date: Fri Jun 02 14:51:07 CEST 2017
User: INFO_000
Dark Spectrum Present: No
Reference Spectrum Present: No
Number of Sampled Component Spectra: 1
Spectrometers: USB4H00879
Integration Time (usec): 80000 (USB4H00879)
Spectra Averaged: 1 (USB4H00879)
Boxcar Smoothing: 0 (USB4H00879)
Correct for Electrical Dark: No (USB4H00879)
Strobe/Lamp Enabled: No (USB4H00879)
Correct for Detector Non-linearity: No (USB4H00879)
Correct for Stray Light: No (USB4H00879)
Number of Pixels in Processed Spectrum: 3648
>>>>>Begin Processed Spectral Data<<<<<
345.13	1284.08
345.34	1284.08
345.56	1284.08
345.78	1279.98
345.99	1296.36
346.21	1658.85
346.42	1681.38
346.64	1630.18
346.86	1767.40
347.07	1632.23
347.29	1732.58
347.50	1593.32
347.72	1683.43
347.94	1712.10
348.15	1626.09
348.37	1624.04
348.59	1726.44
348.80	1658.85
349.02	1744.87
349.23	1837.03
349.45	1728.49
349.67	1796.07
349.88	1734.63
350.10	1923.04
350.31	1794.02
350.53	1771.49
350.75	1923.04
350.96	1734.63
351.18	1871.84
351.39	1740.77
351.61	1884.13
351.82	1957.86
352.04	1853.41
352.26	1808.36
352.47	1849.32
352.69	1902.56
352.90	1771.49
353.12	1773.54
353.34	1865.70
353.55	1880.04
353.77	1865.70
353.98	1773.54
354.20	1830.88
354.41	1925.09
354.63	1839.08
354.85	2070.50
355.06	1884.13
355.28	1765.35
355.49	1861.60
355.71	1867.75
355.92	1908.71
356.14	1929.19
356.35	1847.27
356.57	1804.26
356.79	1947.62
357.00	1746.92
357.22	1939.43
357.43	1880.04
357.65	1959.91
357.86	1802.21
358.08	1916.90
358.29	1945.57
358.51	1992.67
358.72	1906.66
358.94	1898.47
359.16	1830.88
359.37	1908.71
359.59	1949.67
359.80	1937.38
360.02	1892.32
360.23	2009.06
360.45	1951.71
360.66	1945.57
360.88	1826.79
361.09	1867.75
361.31	1920.99
361.52	1961.95
361.74	1953.76
361.95	2068.45
362.17	1943.52
362.38	2050.02
362.60	2002.91
362.81	1900.52
363.03	1927.14
363.24	1892.32
363.46	2076.64
363.67	1974.24
363.89	1986.53
364.10	1939.43
364.32	2039.78
364.53	2015.20
364.75	1902.56
364.96	1961.95
365.18	1988.58
365.39	2019.30
365.61	1966.05
365.82	2045.92
366.04	2058.21
366.25	1935.33
366.47	1994.72
366.68	2027.49
366.90	2004.96
367.11	1992.67
367.33	2152.42
367.54	2078.69
367.76	1982.43
367.97	2095.07
368.19	2054.11
368.40	2050.02
368.62	1941.47
368.83	1937.38
369.05	1972.19
369.26	1955.81
369.48	1931.23
369.69	1961.95
369.91	2084.83
370.12	1978.34
370.33	2060.26
370.55	2035.68
370.76	2037.73
370.98	2162.66
371.19	2015.20
371.41	1947.62
371.62	2060.26
371.84	2015.20
372.05	2056.16
372.27	2066.40
372.48	2039.78
372.69	2093.02
372.91	2138.08
373.12	2095.07
373.34	2187.23
373.55	2129.89
373.77	2140.13
373.98	2144.22
374.20	2121.70
374.41	2260.96
374.62	2097.12
374.84	2109.41
375.05	2211.81
375.27	2230.24
375.48	2213.85
375.70	2156.51
375.91	2220.00
376.12	2269.15
376.34	2052.06
376.55	2197.47
376.77	2148.32
376.98	2070.50
377.19	2004.96
377.41	2074.59
377.62	2086.88
377.84	2203.61
378.05	2277.34
378.27	2197.47
378.48	2332.64
378.69	2367.45
378.91	2297.82
379.12	2232.29
379.34	2140.13
379.55	2332.64
379.76	2279.39
379.98	2133.98
380.19	2144.22
380.41	2234.33
380.62	2240.48
380.83	2244.57
381.05	2154.46
381.26	2377.69
381.47	2248.67
381.69	2209.76
381.90	2420.70
382.12	2301.92
382.33	2183.13
382.54	2228.19
382.76	2228.19
382.97	2263.01
383.19	2166.75
383.40	2412.51
383.61	2301.92
383.83	2281.44
384.04	2281.44
384.25	2342.88
384.47	2420.70
384.68	2312.16
384.89	2326.49
385.11	2312.16
385.32	2289.63
385.54	2377.69
385.75	2402.27
385.96	2349.02
386.18	2334.68
386.39	2428.89
386.60	2252.77
386.82	2400.22
387.03	2365.40
387.24	2400.22
387.46	2418.65
387.67	2523.10
387.88	2482.14
388.10	2367.45
388.31	2473.95
388.52	2488.28
388.74	2400.22
388.95	2463.71
389.16	2480.09
389.38	2428.89
389.59	2519.00
389.80	2541.53
390.02	2404.32
390.23	2613.21
390.44	2500.57
390.66	2514.91
390.87	2490.33
391.08	2541.53
391.30	2598.87
391.51	2631.64
391.72	2637.78
391.94	2564.06
392.15	2631.64
392.36	2592.73
392.58	2621.40
392.79	2590.68
393.00	2711.51
393.22	2654.17
393.43	2674.65
393.64	2754.52
393.85	2764.76
394.07	2627.54
394.28	2713.56
394.49	2721.75
394.71	2652.12
394.92	2736.09
395.13	2611.16
395.35	2576.34
395.56	2731.99
395.77	2830.29
395.98	2772.95
396.20	2723.80
396.41	2717.65
396.62	2762.71
396.84	2805.72
397.05	2793.43
397.26	2813.91
397.47	2953.17
397.69	2795.48
397.90	2955.22
398.11	2854.87
398.32	2801.62
398.54	2795.48
398.75	2949.08
398.96	2920.40
399.18	3033.04
399.39	2951.12
399.60	2977.75
399.81	2928.60
400.03	2883.54
400.24	3170.26
400.45	2922.45
400.66	2979.79
400.88	2953.17
401.09	3219.41
401.30	3076.05
401.51	3129.30
401.73	3100.62
401.94	3209.17
402.15	3076.05
402.36	3133.39
402.58	3164.11
402.79	3147.73
403.00	3164.11
403.21	3221.45
403.43	3250.13
403.64	3176.40
403.85	2998.23
404.06	3090.38
404.27	2938.84
404.49	3139.54
404.70	3059.67
404.91	3270.61
405.12	3172.30
405.34	3198.93
405.55	3383.24
405.76	3018.71
405.97	3256.27
406.19	3141.58
406.40	3268.56
406.61	3248.08
406.82	3289.04
407.03	3280.85
407.25	3264.46
407.46	3403.72
407.67	3438.54
407.88	3403.72
408.09	3284.94
408.31	3307.47
408.52	3416.01
408.73	3299.28
408.94	3174.35
409.15	3444.68
409.37	3313.61
409.58	3469.26
409.79	3373.00
410.00	3495.88
410.21	3413.96
410.43	3332.05
410.64	3342.28
410.85	3461.07
411.06	3518.41
411.27	3452.88
411.48	3540.94
411.70	3616.71
411.91	3485.64
412.12	3518.41
412.33	3497.93
412.54	3481.55
412.76	3682.25
412.97	3606.47
413.18	3485.64
413.39	3444.68
413.60	3631.05
413.81	3620.81
414.03	3479.50
414.24	3547.08
414.45	3581.90
414.66	3489.74
414.87	3659.72
415.08	3585.99
415.30	3663.82
415.51	3712.97
415.72	3653.58
415.93	3760.07
416.14	3598.28
416.35	3573.71
416.56	3700.68
416.78	3631.05
416.99	3704.78
417.20	3700.68
417.41	3854.28
417.62	3655.62
417.83	3809.22
418.04	3778.50
418.26	3862.47
418.47	3823.56
418.68	3837.89
418.89	3809.22
419.10	3991.49
419.31	3850.18
419.52	3852.23
419.73	3885.00
419.95	3954.63
420.16	3885.00
420.37	3907.52
420.58	3852.23
420.79	3641.29
421.00	3893.19
421.21	3942.34
421.42	3805.13
421.63	3928.00
421.85	4042.69
422.06	4151.23
422.27	4089.79
422.48	4163.52
422.69	4069.31
422.90	4081.60
423.11	4130.75
423.32	4040.64
423.53	4247.49
423.75	4245.44
423.96	4388.80
424.17	4231.10
424.38	4321.21
424.59	4255.68
424.80	4325.31
425.01	4208.58
425.22	4181.95
425.43	4284.35
425.64	4376.51
425.85	4378.56
426.06	4433.85
426.28	4310.97
426.49	4265.92
426.70	4239.30
426.91	4405.18
427.12	4396.99
427.33	4472.76
427.54	4440.00
427.75	4673.46
427.96	4575.16
428.17	4470.72
428.38	4618.17
428.59	4681.66
428.80	4542.39
429.01	4599.74
429.23	4657.08
429.44	4736.95
429.65	4874.17
429.86	4650.94
430.07	4698.04
430.28	4786.10
430.49	4804.53
430.70	4970.42
430.91	4902.84
431.12	4804.53
431.33	5009.33
431.54	4949.94
431.75	4968.37
431.96	4861.88
432.17	4751.29
432.38	4933.56
432.59	5167.03
432.80	5171.12
433.01	5197.74
433.22	5181.36
433.43	4974.52
433.64	5058.48
433.85	5285.81
434.06	5287.86
434.27	5015.48
434.49	5312.43
434.70	5244.85
434.91	5191.60
435.12	5359.53
435.33	5328.81
435.54	5255.09
435.75	5103.54
435.96	5345.20
436.17	5302.19
436.38	5498.80
436.59	5361.58
436.80	5345.20
437.01	5636.01
437.22	5754.79
437.43	5564.33
437.64	5269.42
437.85	5588.91
438.06	5609.39
438.27	5599.15
438.48	5494.70
438.69	5656.49
438.90	5648.30
439.11	5658.54
439.32	5846.95
439.53	5644.20
439.74	5787.56
439.95	5836.71
440.16	5679.02
440.37	5898.15
440.57	5636.01
440.78	5832.62
440.99	5820.33
441.20	5955.49
441.41	5793.70
441.62	5920.68
441.83	5711.78
442.04	5994.40
442.25	5916.58
442.46	5978.02
442.67	5949.35
442.88	6369.18
443.09	6016.93
443.30	6004.64
443.51	6100.90
443.72	6277.02
443.93	6061.99
444.14	6346.66
444.35	6111.14
444.56	6242.21
444.77	6178.72
444.98	6287.26
445.19	6365.09
445.40	6205.35
445.61	6205.35
445.81	6385.57
446.02	6461.34
446.23	6350.75
446.44	6246.30
446.65	6360.99
446.86	6369.18
447.07	6535.07
447.28	6508.44
447.49	6430.62
447.70	6526.88
447.91	6606.75
448.12	6430.62
448.33	6545.31
448.54	6485.92
448.74	6557.60
448.95	6580.12
449.16	6598.56
449.37	6866.84
449.58	6514.59
449.79	6786.97
450.00	6553.50
450.21	6946.71
450.42	6815.64
450.63	6766.49
450.84	6854.55
451.05	6881.18
451.25	6795.16
451.46	6889.37
451.67	6821.78
451.88	7176.08
452.09	7006.10
452.30	6905.75
452.51	6973.33
452.72	7104.40
452.93	7464.85
453.13	7006.10
453.34	7088.02
453.55	7141.27
453.76	7229.33
453.97	7677.83
454.18	7182.23
454.39	7522.19
454.60	7237.52
454.81	7167.89
455.01	7505.81
455.22	7159.70
455.43	7380.88
455.64	7655.31
455.85	7616.40
456.06	7552.91
456.27	7597.96
456.48	7460.75
456.68	7581.58
456.89	7446.41
457.10	7849.86
457.31	7583.63
457.52	7634.83
457.73	7638.92
457.94	7884.68
458.14	7686.03
458.35	8030.09
458.56	7933.83
458.77	7790.47
458.98	7870.34
459.19	8116.10
459.39	8044.42
459.60	8155.01
459.81	8073.09
460.02	8204.16
460.23	8169.35
460.44	8306.56
460.65	8226.69
460.85	8294.27
461.06	8425.34
461.27	8062.85
461.48	8654.72
461.69	8529.79
461.89	8183.68
462.10	8486.78
462.31	8224.64
462.52	8370.05
462.73	8540.03
462.94	8576.89
463.14	8748.92
463.35	8603.52
463.56	8980.34
463.77	9009.01
463.98	8703.87
464.18	8742.78
464.39	8990.58
464.60	9129.84
464.81	8961.91
465.02	8982.39
465.23	9283.44
465.43	9045.88
465.64	9348.98
465.85	9322.35
466.06	9160.56
466.27	9508.72
466.47	9398.13
466.68	9449.33
466.89	9418.61
467.10	9498.48
467.30	9408.37
467.51	9662.32
467.72	9690.99
467.93	9609.07
468.14	9688.94
468.34	9854.83
468.55	10037.09
468.76	10182.50
468.97	9953.13
469.17	10274.66
469.38	10229.60
469.59	10172.26
469.80	10047.33
470.01	10121.06
470.21	10317.67
470.42	10635.10
470.63	10473.31
470.84	10432.35
471.04	10544.99
471.25	10676.06
471.46	10700.64
471.67	10927.96
471.87	10811.23
472.08	10977.11
472.29	11149.14
472.50	10905.43
472.70	11175.77
472.91	11132.76
473.12	11261.78
473.33	11468.62
473.53	11523.92
473.74	11525.97
473.95	11802.44
474.16	11927.37
474.36	11804.49
474.57	12072.78
474.78	11956.04
474.99	11880.27
475.19	11931.47
475.40	12173.13
475.61	12255.04
475.81	12529.47
476.02	12562.24
476.23	12361.54
476.44	12535.62
476.64	12973.88
476.85	12791.61
477.06	12930.87
477.27	13199.16
477.47	13193.01
477.68	13131.58
477.89	13401.91
478.09	13295.41
478.30	13600.56
478.51	13666.10
478.71	13668.14
478.92	13750.06
479.13	14008.11
479.34	14040.87
479.54	13926.19
479.75	14077.74
479.96	14307.11
480.16	14292.77
480.37	14497.57
480.58	14571.30
480.78	14735.14
480.99	14567.20
481.20	15083.29
481.41	14837.53
481.61	15126.30
481.82	15324.95
482.03	15128.35
482.23	15036.19
482.44	15396.63
482.65	15707.92
482.85	15656.72
483.06	15662.86
483.27	15669.01
483.47	15660.82
483.68	15851.28
483.89	16234.25
484.09	16277.26
484.30	16156.43
484.51	16248.58
484.71	16373.51
484.92	16488.20
485.13	16844.54
485.33	16799.49
485.54	16602.88
485.75	17053.44
485.95	17276.66
486.16	17252.09
486.37	17159.93
486.57	17288.95
486.78	17381.11
486.98	17403.64
487.19	17741.55
487.40	17684.21
487.60	17747.70
487.81	18245.35
488.02	17772.27
488.22	17852.14
488.43	18145.00
488.64	18192.11
488.84	18145.00
489.05	18237.16
489.25	18401.00
489.46	18710.24
489.67	18618.08
489.87	18968.29
490.08	18921.18
490.29	18953.95
490.49	18949.85
490.70	18982.62
490.90	19211.99
491.11	19240.67
491.32	19390.17
491.52	19390.17
491.73	19506.90
491.94	19697.36
492.14	19629.78
492.35	20041.42
492.55	20037.33
492.76	20051.66
492.97	19971.79
493.17	20055.76
493.38	19924.69
493.58	20242.12
493.79	20475.59
494.00	20379.34
494.20	20541.13
494.41	20614.85
494.61	20999.87
494.82	20795.07
495.02	20659.91
495.23	20983.49
495.44	21051.07
495.64	21110.46
495.85	20942.53
496.05	21448.38
496.26	21180.09
496.47	21450.42
496.67	21307.07
496.88	21790.39
497.08	21436.09
497.29	21843.63
497.49	21814.96
497.70	21784.24
497.91	21644.98
498.11	21933.75
498.32	22085.30
498.52	22118.06
498.73	22386.35
498.93	22341.29
499.14	22054.58
499.34	22408.87
499.55	22271.66
499.76	22412.97
499.96	22607.53
500.17	22331.05
500.37	22437.55
500.58	22507.18
500.78	22722.21
500.99	22695.59
501.19	22963.87
501.40	22865.57
501.60	22836.90
501.81	23006.88
502.02	22984.35
502.22	23010.98
502.43	23084.70
502.63	23348.89
502.84	23445.15
503.04	23502.49
503.25	23439.00
503.45	23248.54
503.66	23625.37
503.86	23373.47
504.07	23881.36
504.27	23461.53
504.48	23877.27
504.68	23963.28
504.89	24131.22
505.09	23914.13
505.30	23961.23
505.50	23967.38
505.71	24006.29
505.91	24284.81
506.12	24329.87
506.32	24340.11
506.53	24413.84
506.73	24290.96
506.94	24491.66
507.14	24417.93
507.35	24741.51
507.55	24628.87
507.76	24643.21
507.96	24579.72
508.17	24788.61
508.37	24741.51
508.58	24639.11
508.78	24776.33
508.99	24909.44
509.19	24905.35
509.40	24884.87
509.60	24587.91
509.81	24974.98
510.01	25007.75
510.22	25163.39
510.42	25007.75
510.63	25370.24
510.83	25194.11
511.04	25144.96
511.24	25433.72
511.44	25368.19
511.65	25093.76
511.85	25282.17
512.06	25325.18
512.26	25601.66
512.47	25394.81
512.67	25777.78
512.88	25693.82
513.08	25237.12
513.29	25683.58
513.49	25529.98
513.69	25757.30
513.90	25765.49
514.10	25921.14
514.31	26027.63
514.51	26091.12
514.72	25833.08
514.92	25976.44
515.13	25851.51
515.33	26031.73
515.53	26252.91
515.74	26113.65
515.94	26336.88
516.15	26312.30
516.35	26513.00
516.56	26562.15
516.76	26244.72
516.96	26484.33
517.17	26396.27
517.37	26558.06
517.58	26504.81
517.78	26666.60
517.99	26687.08
518.19	27008.61
518.39	27041.38
518.60	26871.40
518.80	27022.95
519.01	27002.47
519.21	27117.15
519.41	26943.08
519.62	27156.07
519.82	27342.43
520.03	27612.76
520.23	27498.08
520.43	27311.71
520.64	27520.60
520.84	27889.24
521.05	27596.38
521.25	27829.85
521.45	28192.34
521.66	27782.74
521.86	28065.36
522.07	28063.32
522.27	27999.83
522.47	28335.70
522.68	28329.55
522.88	28071.51
523.08	28661.32
523.29	28104.28
523.49	28636.75
523.70	28716.62
523.90	28653.13
524.10	28788.30
524.31	29025.86
524.51	28528.20
524.71	29265.47
524.92	29085.25
525.12	29169.22
525.33	29175.36
525.53	29290.05
525.73	29601.34
525.94	29437.50
526.14	29226.56
526.34	29451.84
526.55	29658.68
526.75	30012.98
526.95	29775.42
527.16	29804.09
527.36	30199.35
527.56	30475.82
527.77	30307.89
527.97	30191.16
528.17	30498.35
528.38	30567.98
528.58	31233.57
528.78	30537.26
528.99	30846.51
529.19	31118.89
529.39	30807.59
529.60	31120.93
529.80	31125.03
530.00	31219.24
530.21	31512.10
530.41	31471.14
530.61	31237.67
530.82	31499.81
531.02	31421.98
531.22	31827.48
531.43	31667.74
531.63	32011.80
531.83	32400.91
532.04	32519.70
532.24	32351.76
532.44	32704.01
532.64	32871.95
532.85	33109.51
533.05	32595.47
533.25	33107.46
533.46	33021.45
533.66	33224.20
533.86	33355.27
534.07	33744.38
534.27	33494.53
534.47	33740.29
534.67	33580.54
534.88	33777.15
535.08	33973.75
535.28	34309.62
535.49	34332.15
535.69	34225.65
535.89	34319.86
536.09	34846.19
536.30	34557.42
536.50	34926.06
536.70	34835.95
536.91	34829.80
537.11	35075.56
537.31	35296.74
537.51	35091.94
537.72	35345.89
537.92	35335.65
538.12	36064.73
538.32	35380.71
538.53	35575.27
538.73	35552.74
538.93	35667.42
539.13	35798.49
539.34	36060.63
539.54	35911.13
539.74	35997.15
539.94	36371.92
540.15	36392.40
540.35	36480.47
540.55	36679.12
540.75	36888.01
540.96	36607.44
541.16	36847.05
541.36	36697.55
541.56	37057.99
541.77	37449.16
541.97	37004.75
542.17	37293.51
542.37	36982.22
542.58	37623.23
542.78	37318.09
542.98	37701.06
543.18	37608.90
543.38	38151.61
543.59	37735.87
543.79	38067.64
543.99	37795.26
544.19	38172.09
544.40	37973.44
544.60	37955.00
544.80	38577.59
545.00	38362.55
545.20	38774.19
545.41	38297.02
545.61	38956.46
545.81	38938.03
546.01	38612.40
546.21	39083.44
546.42	38993.32
546.62	38731.18
546.82	39022.00
547.02	38997.42
547.22	39384.49
547.43	38610.35
547.63	38952.37
547.83	39361.96
548.03	38882.73
548.23	39736.74
548.44	39321.00
548.64	39398.82
548.84	39839.14
549.04	39636.39
549.24	40093.08
549.45	39984.54
549.65	39837.09
549.85	39982.49
550.05	40015.26
550.25	39984.54
550.45	40459.67
550.66	39884.19
550.86	40150.43
551.06	40162.72
551.26	40514.97
551.46	40752.53
551.66	40603.03
551.87	40461.72
552.07	40676.76
552.27	40457.62
552.47	40455.57
552.67	40736.15
552.87	40545.69
553.07	40924.56
553.28	41235.85
553.48	40854.93
553.68	40981.90
553.88	41325.96
554.08	40983.95
554.28	40893.84
554.48	40705.43
554.69	41457.03
554.89	41106.83
555.09	41573.77
555.29	41067.92
555.49	41192.84
555.69	41651.59
555.89	40965.52
556.10	41446.79
556.30	41293.19
556.50	41354.63
556.70	41317.77
556.90	41444.74
557.10	41563.53
557.30	41338.25
557.50	41641.35
557.70	41598.34
557.91	41567.62
558.11	41811.33
558.31	41778.56
558.51	41354.63
558.71	41551.24
558.91	41674.12
559.11	41846.15
559.31	41643.40
559.51	41698.69
559.72	41731.46
559.92	42046.85
560.12	42026.37
560.32	42005.89
560.52	42096.00
560.72	42018.17
560.92	42200.44
561.12	41725.32
561.32	42392.95
561.52	41637.25
561.72	42601.85
561.93	42057.09
562.13	41872.77
562.33	41559.43
562.53	42448.25
562.73	42327.42
562.93	42046.85
563.13	42128.77
563.33	42288.51
563.53	42499.45
563.73	41835.91
563.93	42321.27
564.13	42593.65
564.33	42472.82
564.53	42110.33
564.74	42577.27
564.94	41870.72
565.14	42380.67
565.34	42364.28
565.54	42153.34
565.74	42562.93
565.94	42767.73
566.14	42585.46
566.34	42300.79
566.54	42917.23
566.74	42347.90
566.94	42950.00
567.14	42558.84
567.34	42386.81
567.54	42706.29
567.74	42780.02
567.94	42694.00
568.14	42704.24
568.34	42714.48
568.54	42603.89
568.74	43036.02
568.94	43013.49
569.14	42792.31
569.34	42499.45
569.54	42896.75
569.75	42784.12
569.95	42577.27
570.15	43324.78
570.35	43240.81
570.55	42597.75
570.75	43046.26
570.95	43029.87
571.15	43234.67
571.35	42620.28
571.55	43167.09
571.75	43033.97
571.95	43122.03
572.15	43132.27
572.35	43347.31
572.55	43060.59
572.75	43677.03
572.95	43310.44
573.15	43257.20
573.35	43310.44
573.55	42882.42
573.75	43136.37
573.95	43496.81
574.15	43173.23
574.35	43162.99
574.55	43482.47
574.75	43201.90
574.95	43588.97
575.15	43431.27
575.34	43554.15
575.54	43738.47
575.74	43726.18
575.94	43896.16
576.14	43556.20
576.34	43920.74
576.54	43914.59
576.74	43793.76
576.94	43992.42
577.14	43984.22
577.34	44180.83
577.54	43332.97
577.74	43863.39
577.94	43775.33
578.14	44365.15
578.34	44281.18
578.54	43844.96
578.74	43959.65
578.94	44369.24
579.14	44356.96
579.34	44186.97
579.54	44582.23
579.74	44678.49
579.94	44541.27
580.13	44324.19
580.33	44336.48
580.53	44455.26
580.73	44434.78
580.93	44121.44
581.13	44752.21
581.33	44852.56
581.53	44848.47
581.73	44805.46
581.93	44868.95
582.13	44586.33
582.33	44631.38
582.53	44545.37
582.73	45374.80
582.92	45174.09
583.12	45770.05
583.32	44963.15
583.52	44813.65
583.72	45581.64
583.92	45143.38
584.12	45407.56
584.32	45659.46
584.52	45421.90
584.72	45358.41
584.92	45565.26
585.11	45749.57
585.31	45725.00
585.51	45378.89
585.71	45350.22
585.91	45976.90
586.11	46007.62
586.31	45790.53
586.51	45727.05
586.71	45925.70
586.91	45872.45
587.10	46204.22
587.30	46105.92
587.50	46335.29
587.70	46040.39
587.90	46341.44
588.10	46198.08
588.30	46216.51
588.50	46265.66
588.69	45985.09
