SpectraSuite Data File
++++++++++++++++++++++++++++++++++++
Date: Fri Jun 02 14:51:08 CEST 2017
User: INFO_000
Dark Spectrum Present: No
Reference Spectrum Present: No
Number of Sampled Component Spectra: 1
Spectrometers: USB4H00879
Integration Time (usec): 80000 (USB4H00879)
Spectra Averaged: 1 (USB4H00879)
Boxcar Smoothing: 0 (USB4H00879)
Correct for Electrical Dark: No (USB4H00879)
Strobe/Lamp Enabled: No (USB4H00879)
Correct for Detector Non-linearity: No (USB4H00879)
Correct for Stray Light: No (USB4H00879)
Number of Pixels in Processed Spectrum: 3648
>>>>>Begin Processed Spectral Data<<<<<
345.13	1273.84
345.34	1273.84
345.56	1273.84
345.78	1288.17
345.99	1298.41
346.21	1734.63
346.42	1695.72
346.64	1660.90
346.86	1810.40
347.07	1720.29
347.29	1705.96
347.50	1632.23
347.72	1638.38
347.94	1812.45
348.15	1554.41
348.37	1652.71
348.59	1697.77
348.80	1650.66
349.02	1759.21
349.23	1828.84
349.45	1777.64
349.67	1861.60
349.88	1857.51
350.10	1923.04
350.31	1761.25
350.53	1908.71
350.75	1974.24
350.96	1818.60
351.18	1843.17
351.39	1875.94
351.61	1771.49
351.82	1951.71
352.04	1929.19
352.26	1832.93
352.47	1951.71
352.69	1914.85
352.90	1767.40
353.12	1834.98
353.34	1843.17
353.55	1955.81
353.77	1912.80
353.98	1877.99
354.20	1808.36
354.41	1941.47
354.63	1925.09
354.85	2054.11
355.06	1945.57
355.28	1843.17
355.49	1931.23
355.71	1904.61
355.92	1910.75
356.14	1935.33
356.35	1888.23
356.57	1853.41
356.79	1886.18
357.00	1837.03
357.22	1925.09
357.43	1880.04
357.65	1982.43
357.86	1884.13
358.08	1925.09
358.29	1927.14
358.51	1951.71
358.72	1910.75
358.94	1912.80
359.16	1896.42
359.37	1912.80
359.59	2015.20
359.80	1974.24
360.02	1988.58
360.23	1947.62
360.45	1982.43
360.66	1888.23
360.88	1877.99
361.09	1935.33
361.31	2025.44
361.52	2002.91
361.74	1998.82
361.95	2060.26
362.17	1945.57
362.38	2037.73
362.60	2021.35
362.81	2000.87
363.03	1867.75
363.24	1904.61
363.46	1953.76
363.67	1992.67
363.89	1896.42
364.10	2000.87
364.32	1955.81
364.53	1986.53
364.75	1916.90
364.96	2007.01
365.18	1908.71
365.39	2000.87
365.61	1939.43
365.82	2121.70
366.04	1992.67
366.25	1943.52
366.47	2004.96
366.68	2000.87
366.90	1945.57
367.11	1970.15
367.33	2076.64
367.54	2007.01
367.76	1953.76
367.97	2082.78
368.19	1978.34
368.40	2017.25
368.62	1992.67
368.83	1894.37
369.05	2043.87
369.26	1945.57
369.48	1916.90
369.69	1951.71
369.91	2033.63
370.12	2011.11
370.33	2082.78
370.55	2007.01
370.76	2019.30
370.98	2111.46
371.19	2025.44
371.41	1980.39
371.62	2066.40
371.84	1984.48
372.05	2113.50
372.27	2105.31
372.48	2050.02
372.69	2095.07
372.91	2009.06
373.12	2131.94
373.34	2056.16
373.55	2162.66
373.77	2140.13
373.98	1994.72
374.20	2228.19
374.41	2285.53
374.62	2123.74
374.84	2226.14
375.05	2183.13
375.27	2115.55
375.48	2176.99
375.70	2133.98
375.91	2244.57
376.12	2285.53
376.34	2193.37
376.55	2226.14
376.77	2152.42
376.98	2133.98
377.19	2095.07
377.41	2060.26
377.62	2131.94
377.84	2232.29
378.05	2301.92
378.27	2131.94
378.48	2164.70
378.69	2346.97
378.91	2197.47
379.12	2209.76
379.34	2232.29
379.55	2320.35
379.76	2207.71
379.98	2217.95
380.19	2293.72
380.41	2215.90
380.62	2205.66
380.83	2252.77
381.05	2197.47
381.26	2353.12
381.47	2236.38
381.69	2213.85
381.90	2473.95
382.12	2295.77
382.33	2269.15
382.54	2303.96
382.76	2234.33
382.97	2299.87
383.19	2183.13
383.40	2297.82
383.61	2281.44
383.83	2170.85
384.04	2181.09
384.25	2289.63
384.47	2373.60
384.68	2371.55
384.89	2312.16
385.11	2277.34
385.32	2328.54
385.54	2285.53
385.75	2346.97
385.96	2379.74
386.18	2303.96
386.39	2400.22
386.60	2410.46
386.82	2306.01
387.03	2353.12
387.24	2441.18
387.46	2394.08
387.67	2502.62
387.88	2459.61
388.10	2437.08
388.31	2496.47
388.52	2430.94
388.74	2521.05
388.95	2400.22
389.16	2412.51
389.38	2488.28
389.59	2557.91
389.80	2412.51
390.02	2447.32
390.23	2533.34
390.44	2504.67
390.66	2490.33
390.87	2449.37
391.08	2523.10
391.30	2697.17
391.51	2598.87
391.72	2590.68
391.94	2592.73
392.15	2602.97
392.36	2570.20
392.58	2492.38
392.79	2619.35
393.00	2592.73
393.22	2619.35
393.43	2715.61
393.64	2674.65
393.85	2668.50
394.07	2588.63
394.28	2650.07
394.49	2703.32
394.71	2592.73
394.92	2738.13
395.13	2758.61
395.35	2719.70
395.56	2744.28
395.77	2715.61
395.98	2713.56
396.20	2727.89
396.41	2795.48
396.62	2840.53
396.84	2840.53
397.05	2740.18
397.26	2742.23
397.47	2897.88
397.69	2705.37
397.90	3084.24
398.11	2869.20
398.32	2734.04
398.54	2809.81
398.75	2852.82
398.96	2897.88
399.18	3002.32
399.39	2869.20
399.60	2957.27
399.81	2877.40
400.03	2867.16
400.24	3248.08
400.45	2889.68
400.66	2981.84
400.88	2893.78
401.09	3100.62
401.30	3055.57
401.51	3043.28
401.73	3020.75
401.94	3147.73
402.15	3024.85
402.36	3098.58
402.58	3055.57
402.79	3102.67
403.00	3149.78
403.21	3160.02
403.43	3170.26
403.64	3237.84
403.85	3092.43
404.06	3082.19
404.27	2990.03
404.49	3186.64
404.70	3139.54
404.91	3229.65
405.12	3266.51
405.34	3219.41
405.55	3286.99
405.76	3096.53
405.97	3076.05
406.19	3307.47
406.40	3227.60
406.61	3264.46
406.82	3299.28
407.03	3221.45
407.25	3235.79
407.46	3397.58
407.67	3393.48
407.88	3385.29
408.09	3321.81
408.31	3192.78
408.52	3338.19
408.73	3401.68
408.94	3282.89
409.15	3409.87
409.37	3428.30
409.58	3403.72
409.79	3391.44
410.00	3561.42
410.21	3327.95
410.43	3325.90
410.64	3401.68
410.85	3514.31
411.06	3481.55
411.27	3420.11
411.48	3536.84
411.70	3401.68
411.91	3442.64
412.12	3452.88
412.33	3581.90
412.54	3491.79
412.76	3624.90
412.97	3571.66
413.18	3516.36
413.39	3579.85
413.60	3608.52
413.81	3528.65
414.03	3481.55
414.24	3563.47
414.45	3782.60
414.66	3467.21
414.87	3620.81
415.08	3641.29
415.30	3563.47
415.51	3637.19
415.72	3667.91
415.93	3618.76
416.14	3622.86
416.35	3721.16
416.56	3768.26
416.78	3751.88
416.99	3801.03
417.20	3674.06
417.41	3741.64
417.62	3813.32
417.83	3841.99
418.04	3735.50
418.26	3772.36
418.47	3868.61
418.68	3823.56
418.89	3852.23
419.10	3905.48
419.31	3829.70
419.52	3835.85
419.73	3807.17
419.95	4075.46
420.16	3829.70
420.37	3870.66
420.58	3954.63
420.79	3729.35
421.00	3901.38
421.21	3999.68
421.42	3870.66
421.63	4149.18
421.85	3981.25
422.06	4065.22
422.27	3977.16
422.48	4026.31
422.69	4003.78
422.90	3979.20
423.11	4130.75
423.32	4159.42
423.53	4190.14
423.75	4128.70
423.96	4286.40
424.17	4337.60
424.38	4247.49
424.59	4227.01
424.80	4310.97
425.01	4157.38
425.22	4204.48
425.43	4147.14
425.64	4425.66
425.85	4487.10
426.06	4442.04
426.28	4372.41
426.49	4190.14
426.70	4353.98
426.91	4444.09
427.12	4509.63
427.33	4417.47
427.54	4401.08
427.75	4540.35
427.96	4577.21
428.17	4583.35
428.38	4519.87
428.59	4612.03
428.80	4612.03
429.01	4552.63
429.23	4577.21
429.44	4708.28
429.65	4736.95
429.86	4773.82
430.07	4556.73
430.28	4714.42
430.49	4655.03
430.70	4949.94
430.91	4992.95
431.12	4857.78
431.33	4956.08
431.54	4911.03
431.75	4947.89
431.96	4954.04
432.17	4915.12
432.38	5009.33
432.59	5138.35
432.80	5015.48
433.01	5146.55
433.22	5199.79
433.43	5150.64
433.64	5083.06
433.85	5201.84
434.06	5236.66
434.27	5234.61
434.49	5259.18
434.70	5435.31
434.91	5410.73
435.12	5423.02
435.33	5255.09
435.54	5324.72
435.75	5210.03
435.96	5257.14
436.17	5246.90
436.38	5431.21
436.59	5547.95
436.80	5306.29
437.01	5560.24
437.22	5687.21
437.43	5357.49
437.64	5371.82
437.85	5603.24
438.06	5631.91
438.27	5443.50
438.48	5607.34
438.69	5697.45
438.90	5693.35
439.11	5500.84
439.32	5689.26
439.53	5711.78
439.74	5642.15
439.95	5693.35
440.16	5846.95
440.37	5728.17
440.57	5695.40
440.78	5758.89
440.99	5793.70
441.20	5787.56
441.41	5701.54
441.62	5820.33
441.83	5672.87
442.04	5894.05
442.25	5955.49
442.46	5906.34
442.67	5898.15
442.88	6170.53
443.09	6092.71
443.30	5861.29
443.51	6152.10
443.72	6223.78
443.93	5949.35
444.14	6307.74
444.35	6059.94
444.56	6225.82
444.77	6250.40
444.98	6076.32
445.19	6260.64
445.40	6293.41
445.61	6244.26
445.81	6293.41
446.02	6336.42
446.23	6295.46
446.44	6123.43
446.65	6420.38
446.86	6358.94
447.07	6547.36
447.28	6614.94
447.49	6651.80
447.70	6350.75
447.91	6627.23
448.12	6483.87
448.33	6559.64
448.54	6641.56
448.74	6498.20
448.95	6549.40
449.16	6737.82
449.37	6926.23
449.58	6672.28
449.79	6764.44
450.00	6549.40
450.21	6754.20
450.42	6782.87
450.63	6864.79
450.84	6885.27
451.05	6709.15
451.25	6907.80
451.46	6827.93
451.67	6879.13
451.88	7141.27
452.09	7077.78
452.30	6885.27
452.51	7012.24
452.72	7026.58
452.93	7088.02
453.13	6995.86
453.34	7188.37
453.55	7133.08
453.76	7147.41
453.97	7376.78
454.18	7081.88
454.39	7298.96
454.60	7126.93
454.81	7231.38
455.01	7440.27
455.22	7247.76
455.43	7466.89
455.64	7618.44
455.85	7477.13
456.06	7704.46
456.27	7518.09
456.48	7417.74
456.68	7577.48
456.89	7643.02
457.10	7456.65
457.31	7645.07
457.52	7528.33
457.73	7716.75
457.94	7870.34
458.14	7647.12
458.35	8042.37
458.56	7942.02
458.77	7790.47
458.98	8054.66
459.19	8060.80
459.39	8069.00
459.60	8275.84
459.81	7968.65
460.02	8238.98
460.23	8089.48
460.44	8314.75
460.65	8236.93
460.85	8429.44
461.06	8294.27
461.27	8118.15
461.48	8429.44
461.69	8525.69
461.89	8243.07
462.10	8630.14
462.31	8251.27
462.52	8392.58
462.73	8486.78
462.94	8667.00
463.14	8789.88
463.35	8607.61
463.56	8984.44
463.77	8804.22
463.98	8718.20
464.18	8632.19
464.39	9179.00
464.60	9095.03
464.81	8953.72
465.02	9084.79
465.23	9457.52
465.43	8974.20
465.64	9353.07
465.85	9191.28
466.06	9179.00
466.27	9445.23
466.47	9564.01
466.68	9451.38
466.89	9441.14
467.10	9736.04
467.30	9486.19
467.51	9588.59
467.72	9838.44
467.93	9695.08
468.14	9734.00
468.34	10067.81
468.55	10014.57
468.76	9965.42
468.97	9908.07
469.17	10266.47
469.38	10119.01
469.59	10256.23
469.80	10041.19
470.01	10262.37
470.21	10366.82
470.42	10370.91
470.63	10559.33
470.84	10403.68
471.04	10764.12
471.25	10653.53
471.46	10692.44
471.67	10905.43
471.87	10798.94
472.08	11124.57
472.29	10833.75
472.50	10633.05
472.70	11022.17
472.91	11024.22
473.12	11413.33
473.33	11409.23
473.53	11558.74
473.74	11140.95
473.95	11548.50
474.16	11779.92
474.36	11837.26
474.57	11827.02
474.78	12113.74
474.99	12097.35
475.19	11992.90
475.40	12144.45
475.61	12312.39
475.81	12535.62
476.02	12713.79
476.23	12431.17
476.44	12695.36
476.64	12740.41
476.85	12941.11
477.06	12916.54
477.27	13129.53
477.47	12992.31
477.68	13094.71
477.89	13467.44
478.09	13426.48
478.30	13567.79
478.51	13496.11
478.71	13705.01
478.92	13668.14
479.13	13711.15
479.34	13907.76
479.54	13901.61
479.75	14008.11
479.96	14413.60
480.16	14159.66
480.37	14280.49
480.58	14432.04
480.78	14671.65
480.99	14462.76
481.20	14784.29
481.41	14802.72
481.61	14849.82
481.82	15128.35
482.03	15128.35
482.23	14952.22
482.44	15245.08
482.65	15478.55
482.85	15490.84
483.06	15576.85
483.27	15544.08
483.47	15716.11
483.68	15793.94
483.89	15722.26
484.09	15968.01
484.30	16097.03
484.51	16221.96
484.71	16318.22
484.92	16379.65
485.13	16576.26
485.33	16506.63
485.54	16617.22
485.75	16744.19
485.95	16533.25
486.16	17127.16
486.37	16994.04
486.57	16969.47
486.78	17090.30
486.98	17299.19
487.19	17334.01
487.40	17641.20
487.60	17524.47
487.81	17778.42
488.02	17817.33
488.22	17676.02
488.43	18233.07
488.64	18058.99
488.84	18259.69
489.05	18374.38
489.25	18091.76
489.46	18495.21
489.67	18347.75
489.87	18620.13
490.08	18714.34
490.29	19029.73
490.49	19105.50
490.70	18642.66
490.90	19220.19
491.11	19099.36
491.32	19187.42
491.52	19369.69
491.73	19449.56
491.94	19455.70
492.14	19451.61
492.35	19588.82
492.55	19580.63
492.76	19844.82
492.97	20174.54
493.17	20195.02
493.38	20231.88
493.58	20203.21
493.79	20260.55
494.00	20217.55
494.20	20324.04
494.41	20373.19
494.61	20664.00
494.82	20651.72
495.02	20801.22
495.23	20627.14
495.44	20932.29
495.64	20971.20
495.85	21077.69
496.05	21472.95
496.26	21233.34
496.47	21329.59
496.67	21434.04
496.88	21489.34
497.08	21081.79
497.29	21395.13
497.49	21411.51
497.70	21778.10
497.91	21522.10
498.11	21989.04
498.32	21837.49
498.52	22064.82
498.73	21915.31
498.93	22048.43
499.14	22179.50
499.34	22255.28
499.55	22404.78
499.76	22331.05
499.96	22566.57
500.17	22535.85
500.37	22771.36
500.58	22689.45
500.78	22738.60
500.99	22648.49
501.19	22802.08
501.40	22595.24
501.60	22857.38
501.81	22922.91
502.02	22908.58
502.22	22947.49
502.43	23105.18
502.63	23201.44
502.84	23215.77
503.04	23076.51
503.25	23391.90
503.45	23365.28
503.66	23578.26
503.86	23332.51
504.07	23875.22
504.27	23414.43
504.48	24014.48
504.68	23682.71
504.89	24254.09
505.09	23848.60
505.30	23582.36
505.50	23920.28
505.71	24239.76
505.91	23889.56
506.12	24030.87
506.32	24104.59
506.53	24008.34
506.73	24424.08
506.94	24419.98
507.14	24301.20
507.35	24344.20
507.55	24225.42
507.76	24319.63
507.96	24450.70
508.17	24534.67
508.37	24460.94
508.58	24696.46
508.78	25038.47
508.99	24737.41
509.19	24882.82
509.40	24911.49
509.60	24942.21
509.81	24862.34
510.01	25052.80
510.22	24880.77
510.42	25032.32
510.63	25132.67
510.83	25089.67
511.04	25220.74
511.24	25106.05
511.44	25073.28
511.65	25106.05
511.85	25220.74
512.06	25489.02
512.26	25345.66
512.47	25558.65
512.67	25405.05
512.88	25515.64
513.08	25046.66
513.29	25734.78
513.49	25517.69
513.69	25595.51
513.90	25519.74
514.10	25720.44
514.31	25681.53
514.51	26009.20
514.72	25710.20
514.92	26046.07
515.13	25958.00
515.33	26101.36
515.53	26148.46
515.74	26082.93
515.94	26220.14
516.15	26007.16
516.35	26162.80
516.56	26316.40
516.76	26416.75
516.96	26449.52
517.17	26529.39
517.37	26476.14
517.58	26801.77
517.78	26357.36
517.99	26662.51
518.19	27102.82
518.39	27018.85
518.60	26838.63
518.80	26865.25
519.01	26855.01
519.21	27031.14
519.41	26984.04
519.62	27006.56
519.82	26990.18
520.03	27254.37
520.23	27154.02
520.43	27010.66
520.64	27582.04
520.84	27608.67
521.05	27477.60
521.25	27950.68
521.45	27549.28
521.66	27715.16
521.86	27825.75
522.07	27835.99
522.27	27713.11
522.47	28016.21
522.68	28255.82
522.88	28145.23
523.08	28618.32
523.29	28282.45
523.49	28393.04
523.70	28509.77
523.90	28706.38
524.10	28948.04
524.31	28706.38
524.51	28601.93
524.71	29380.16
524.92	28966.47
525.12	29005.38
525.33	29230.66
525.53	29232.71
525.73	29449.79
525.94	29603.39
526.14	29394.50
526.34	29793.85
526.55	29595.20
526.75	29513.28
526.95	30099.00
527.16	29709.88
527.36	30254.64
527.56	30344.75
527.77	30735.92
527.97	30430.77
528.17	30408.24
528.38	30524.97
528.58	30457.39
528.78	30588.46
528.99	30731.82
529.19	31088.17
529.39	30641.71
529.60	31258.15
529.80	30897.70
530.00	31133.22
530.21	31335.97
530.41	31454.75
530.61	31628.83
530.82	31432.22
531.02	31723.04
531.22	31917.59
531.43	31923.74
531.63	32054.81
531.83	32415.25
532.04	32314.90
532.24	31981.08
532.44	32595.47
532.64	32437.78
532.85	32626.19
533.05	32792.08
533.25	32810.51
533.46	32634.38
533.66	33146.37
533.86	33299.97
534.07	33320.45
534.27	33109.51
534.47	33615.36
534.67	33410.56
534.88	33631.74
535.08	33691.13
535.28	33871.36
535.49	34149.88
535.69	34455.03
535.89	34307.57
536.09	34278.90
536.30	34342.39
536.50	34477.55
536.70	34713.07
536.91	34448.88
537.11	34639.34
537.31	34934.25
537.51	34840.04
537.72	35319.27
537.92	35522.02
538.12	35272.17
538.32	35253.73
538.53	35706.34
538.73	35395.04
538.93	35393.00
539.13	35683.81
539.34	36111.83
539.54	35485.15
539.74	36206.04
539.94	35614.18
540.15	35814.88
540.35	36392.40
540.55	36337.11
540.75	36271.57
540.96	36156.89
541.16	36627.92
541.36	36560.34
541.56	36797.90
541.77	37094.86
541.97	36443.60
542.17	37111.24
542.37	37107.15
542.58	37428.68
542.78	37141.96
542.98	37320.13
543.18	37357.00
543.38	37502.40
543.59	37729.73
543.79	37969.34
543.99	37434.82
544.19	37295.56
544.40	37637.57
544.60	38059.45
544.80	37756.35
545.00	38092.22
545.20	38213.05
545.41	38127.03
545.61	38380.98
545.81	38254.01
546.01	38608.31
546.21	38692.27
546.42	38360.50
546.62	39015.85
546.82	38854.06
547.02	38550.96
547.22	38751.66
547.43	38858.16
547.63	38806.96
547.83	39114.16
548.03	38868.40
548.23	39333.29
548.44	39288.23
548.64	39329.19
548.84	39452.07
549.04	39495.08
549.24	39632.29
549.45	39894.43
549.65	39435.69
549.85	39583.14
550.05	40056.22
550.25	39654.82
550.45	40238.49
550.66	40101.28
550.86	39605.67
551.06	39951.77
551.26	40299.93
551.46	39826.85
551.66	40175.00
551.87	40211.87
552.07	39978.40
552.27	39943.58
552.47	40402.33
552.67	40422.81
552.87	40543.64
553.07	40445.33
553.28	40408.47
553.48	40525.21
553.68	40576.40
553.88	40842.64
554.08	41033.10
554.28	40789.39
554.48	41065.87
554.69	40795.54
554.89	40701.33
555.09	41104.78
555.29	40906.13
555.49	41004.43
555.69	40856.98
555.89	40953.23
556.10	41080.21
556.30	41237.90
556.50	41497.99
556.70	41002.38
556.90	41514.37
557.10	41676.16
557.30	41258.38
557.50	41553.29
557.70	41346.44
557.91	41866.63
558.11	41602.44
558.31	41778.56
558.51	41645.44
558.71	41811.33
558.91	41969.02
559.11	41375.11
559.31	41778.56
559.51	41190.80
559.72	41760.13
559.92	41956.74
560.12	41538.95
560.32	41999.74
560.52	41368.97
560.72	41815.43
560.92	41950.59
561.12	41858.43
561.32	42200.44
561.52	41837.95
561.72	42044.80
561.93	41766.27
562.13	41618.82
562.33	41706.88
562.53	42227.07
562.73	42210.68
562.93	41930.11
563.13	42339.71
563.33	41776.51
563.53	42505.59
563.73	41944.45
563.93	41878.91
564.13	42683.76
564.33	42333.56
564.53	42354.04
564.74	42524.02
564.94	42274.17
565.14	42087.81
565.34	42048.89
565.54	42143.10
565.74	42454.39
565.94	42489.21
566.14	42747.25
566.34	41880.96
566.54	42427.77
566.74	42028.41
566.94	42329.47
567.14	42567.03
567.34	42562.93
567.54	42628.47
567.74	42458.49
567.94	42628.47
568.14	43171.18
568.34	42605.94
568.54	42538.36
568.74	42837.36
568.94	42722.68
569.14	43158.89
569.34	42562.93
569.54	43091.31
569.75	42554.74
569.95	42886.51
570.15	43124.08
570.35	42636.66
570.55	42438.01
570.75	43013.49
570.95	43113.84
571.15	42845.55
571.35	43017.58
571.55	43142.51
571.75	43054.45
571.95	43412.84
572.15	42988.91
572.35	43259.24
572.55	42616.18
572.75	43451.75
572.95	43197.80
573.15	43173.23
573.35	43189.61
573.55	43052.40
573.75	43064.69
573.95	43173.23
574.15	43042.16
574.35	42923.38
574.55	43437.42
574.75	42950.00
574.95	43658.60
575.15	43179.37
575.34	43390.31
575.54	43586.92
575.74	43541.86
575.94	43668.84
576.14	43359.59
576.34	43945.31
576.54	44062.05
576.74	44062.05
576.94	44002.66
577.14	43621.73
577.34	43887.97
577.54	43625.83
577.74	43941.22
577.94	43982.18
578.14	44023.14
578.34	44182.88
578.54	43457.90
578.74	44010.85
578.94	43947.36
579.14	43752.80
579.34	43902.31
579.54	43672.93
579.74	44571.99
579.94	44068.19
580.13	44293.47
580.33	44223.84
580.53	44320.09
580.73	44827.99
580.93	44445.02
581.13	44438.87
581.33	44754.26
581.53	44658.01
581.73	44352.86
581.93	44483.93
582.13	44905.81
582.33	44848.47
582.53	44836.18
582.73	44879.19
582.92	44737.88
583.12	45233.49
583.32	45190.48
583.52	44746.07
583.72	45258.06
583.92	44866.90
584.12	45014.35
584.32	45219.15
584.52	45356.36
584.72	45260.11
584.92	44963.15
585.11	45460.81
585.31	45542.73
585.51	45415.76
585.71	45342.03
585.91	45837.64
586.11	45329.74
586.31	45741.38
586.51	45622.60
586.71	45663.56
586.91	46013.76
587.10	45684.04
587.30	45765.96
587.50	45962.56
587.70	45825.35
587.90	46013.76
588.10	46048.58
588.30	46132.54
588.50	46320.96
588.69	46253.37
