SpectraSuite Data File
++++++++++++++++++++++++++++++++++++
Date: Fri Jun 02 14:51:13 CEST 2017
User: INFO_000
Dark Spectrum Present: No
Reference Spectrum Present: No
Number of Sampled Component Spectra: 1
Spectrometers: USB4H00879
Integration Time (usec): 80000 (USB4H00879)
Spectra Averaged: 1 (USB4H00879)
Boxcar Smoothing: 0 (USB4H00879)
Correct for Electrical Dark: No (USB4H00879)
Strobe/Lamp Enabled: No (USB4H00879)
Correct for Detector Non-linearity: No (USB4H00879)
Correct for Stray Light: No (USB4H00879)
Number of Pixels in Processed Spectrum: 3648
>>>>>Begin Processed Spectral Data<<<<<
345.13	1343.47
345.34	1343.47
345.56	1343.47
345.78	1300.46
345.99	1259.50
346.21	1722.34
346.42	1722.34
346.64	1638.38
346.86	1759.21
347.07	1660.90
347.29	1744.87
347.50	1665.00
347.72	1650.66
347.94	1781.73
348.15	1626.09
348.37	1601.51
348.59	1708.01
348.80	1703.91
349.02	1730.53
349.23	1789.92
349.45	1767.40
349.67	1855.46
349.88	1804.26
350.10	1957.86
350.31	1853.41
350.53	1814.50
350.75	1912.80
350.96	1818.60
351.18	1884.13
351.39	1861.60
351.61	1800.16
351.82	1869.80
352.04	1949.67
352.26	1820.64
352.47	1955.81
352.69	1923.04
352.90	1798.12
353.12	1900.52
353.34	1890.28
353.55	1966.05
353.77	1894.37
353.98	1834.98
354.20	1904.61
354.41	1935.33
354.63	1972.19
354.85	2027.49
355.06	1890.28
355.28	1753.06
355.49	1886.18
355.71	1873.89
355.92	1851.36
356.14	1859.56
356.35	1966.05
356.57	1810.40
356.79	1955.81
357.00	1834.98
357.22	2074.59
357.43	1851.36
357.65	1994.72
357.86	1853.41
358.08	1910.75
358.29	1923.04
358.51	1925.09
358.72	1918.95
358.94	1918.95
359.16	1847.27
359.37	1884.13
359.59	1959.91
359.80	2050.02
360.02	1972.19
360.23	1880.04
360.45	2009.06
360.66	1953.76
360.88	1843.17
361.09	2031.58
361.31	1945.57
361.52	1982.43
361.74	2017.25
361.95	2002.91
362.17	1904.61
362.38	1955.81
362.60	2035.68
362.81	1945.57
363.03	2007.01
363.24	2002.91
363.46	2068.45
363.67	2072.54
363.89	2027.49
364.10	2060.26
364.32	2068.45
364.53	2052.06
364.75	1912.80
364.96	2050.02
365.18	1972.19
365.39	2037.73
365.61	1916.90
365.82	2074.59
366.04	2021.35
366.25	1935.33
366.47	1949.67
366.68	2007.01
366.90	1968.10
367.11	2080.74
367.33	2052.06
367.54	2019.30
367.76	2007.01
367.97	2039.78
368.19	2017.25
368.40	2015.20
368.62	1988.58
368.83	1968.10
369.05	2009.06
369.26	2045.92
369.48	2019.30
369.69	1910.75
369.91	2058.21
370.12	2093.02
370.33	2115.55
370.55	2101.22
370.76	2060.26
370.98	2131.94
371.19	2019.30
371.41	2037.73
371.62	2025.44
371.84	2041.82
372.05	2144.22
372.27	2021.35
372.48	2023.39
372.69	2088.93
372.91	2111.46
373.12	2193.37
373.34	2076.64
373.55	2129.89
373.77	2142.18
373.98	2082.78
374.20	2142.18
374.41	2226.14
374.62	2101.22
374.84	2133.98
375.05	2250.72
375.27	2195.42
375.48	2093.02
375.70	2164.70
375.91	2220.00
376.12	2275.29
376.34	2056.16
376.55	2213.85
376.77	2142.18
376.98	2160.61
377.19	2125.79
377.41	2224.09
377.62	2240.48
377.84	2281.44
378.05	2312.16
378.27	2158.56
378.48	2338.78
378.69	2293.72
378.91	2281.44
379.12	2201.57
379.34	2222.05
379.55	2353.12
379.76	2263.01
379.98	2152.42
380.19	2220.00
380.41	2287.58
380.62	2250.72
380.83	2176.99
381.05	2215.90
381.26	2330.59
381.47	2226.14
381.69	2164.70
381.90	2402.27
382.12	2275.29
382.33	2174.94
382.54	2383.84
382.76	2263.01
382.97	2222.05
383.19	2250.72
383.40	2394.08
383.61	2295.77
383.83	2211.81
384.04	2295.77
384.25	2396.12
384.47	2379.74
384.68	2303.96
384.89	2293.72
385.11	2293.72
385.32	2314.20
385.54	2359.26
385.75	2267.10
385.96	2379.74
386.18	2389.98
386.39	2428.89
386.60	2371.55
386.82	2363.36
387.03	2392.03
387.24	2435.03
387.46	2355.16
387.67	2396.12
387.88	2508.76
388.10	2473.95
388.31	2451.42
388.52	2541.53
388.74	2545.63
388.95	2490.33
389.16	2453.47
389.38	2453.47
389.59	2598.87
389.80	2514.91
390.02	2592.73
390.23	2564.06
390.44	2523.10
390.66	2486.23
390.87	2527.19
391.08	2619.35
391.30	2664.41
391.51	2617.30
391.72	2691.03
391.94	2666.46
392.15	2535.39
392.36	2543.58
392.58	2529.24
392.79	2662.36
393.00	2654.17
393.22	2744.28
393.43	2707.41
393.64	2707.41
393.85	2754.52
394.07	2658.26
394.28	2809.81
394.49	2701.27
394.71	2787.29
394.92	2783.19
395.13	2729.94
395.35	2637.78
395.56	2744.28
395.77	2805.72
395.98	2709.46
396.20	2787.29
396.41	2934.74
396.62	2865.11
396.84	2824.15
397.05	2822.10
397.26	2775.00
397.47	2912.21
397.69	2828.24
397.90	2863.06
398.11	3008.47
398.32	2840.53
398.54	2924.50
398.75	2883.54
398.96	2908.12
399.18	3006.42
399.39	2904.02
399.60	2912.21
399.81	2887.64
400.03	2936.79
400.24	3162.06
400.45	2826.20
400.66	3041.23
400.88	2914.26
401.09	3135.44
401.30	3028.95
401.51	3145.68
401.73	3108.82
401.94	3045.33
402.15	3071.95
402.36	3135.44
402.58	3100.62
402.79	3133.39
403.00	3082.19
403.21	3106.77
403.43	3178.45
403.64	3401.68
403.85	3184.59
404.06	3274.70
404.27	3194.83
404.49	3215.31
404.70	3084.24
404.91	3272.65
405.12	3278.80
405.34	3297.23
405.55	3362.76
405.76	3071.95
405.97	3145.68
406.19	3393.48
406.40	3176.40
406.61	3338.19
406.82	3254.22
407.03	3248.08
407.25	3266.51
407.46	3284.94
407.67	3387.34
407.88	3530.70
408.09	3405.77
408.31	3401.68
408.52	3389.39
408.73	3381.20
408.94	3366.86
409.15	3469.26
409.37	3538.89
409.58	3463.12
409.79	3373.00
410.00	3465.16
410.21	3379.15
410.43	3542.99
410.64	3391.44
410.85	3403.72
411.06	3608.52
411.27	3508.17
411.48	3545.03
411.70	3571.66
411.91	3594.19
412.12	3631.05
412.33	3510.22
412.54	3588.04
412.76	3682.25
412.97	3608.52
413.18	3518.41
413.39	3635.14
413.60	3755.97
413.81	3585.99
414.03	3493.83
414.24	3575.75
414.45	3807.17
414.66	3551.18
414.87	3622.86
415.08	3688.39
415.30	3651.53
415.51	3645.38
415.72	3665.86
415.93	3715.02
416.14	3858.37
416.35	3772.36
416.56	3739.59
416.78	3852.23
416.99	3858.37
417.20	3882.95
417.41	3870.66
417.62	3794.89
417.83	3907.52
418.04	3893.19
418.26	3973.06
418.47	3909.57
418.68	3864.52
418.89	3942.34
419.10	4171.71
419.31	3975.11
419.52	4054.98
419.73	3977.16
419.95	4065.22
420.16	3923.91
420.37	3981.25
420.58	4126.66
420.79	3846.09
421.00	4042.69
421.21	4046.79
421.42	4083.65
421.63	4065.22
421.85	4018.11
422.06	4116.42
422.27	4173.76
422.48	4204.48
422.69	4140.99
422.90	4190.14
423.11	4196.29
423.32	4126.66
423.53	4280.25
423.75	4253.63
423.96	4401.08
424.17	4327.36
424.38	4472.76
424.59	4423.61
424.80	4505.53
425.01	4368.32
425.22	4388.80
425.43	4323.26
425.64	4589.50
425.85	4591.55
426.06	4573.11
426.28	4595.64
426.49	4394.94
426.70	4550.59
426.91	4507.58
427.12	4536.25
427.33	4628.41
427.54	4493.24
427.75	4579.26
427.96	4695.99
428.17	4739.00
428.38	4833.21
428.59	4843.45
428.80	4790.20
429.01	4685.75
429.23	4851.64
429.44	4913.08
429.65	4876.21
429.86	4888.50
430.07	4976.56
430.28	4861.88
430.49	4849.59
430.70	5035.96
430.91	5015.48
431.12	5040.05
431.33	5238.70
431.54	4999.09
431.75	5255.09
431.96	4876.21
432.17	5138.35
432.38	5191.60
432.59	5425.07
432.80	5171.12
433.01	5162.93
433.22	5285.81
433.43	5275.57
433.64	5238.70
433.85	5105.59
434.06	5285.81
434.27	5171.12
434.49	5343.15
434.70	5509.04
434.91	5463.98
435.12	5312.43
435.33	5353.39
435.54	5410.73
435.75	5207.98
435.96	5459.88
436.17	5371.82
436.38	5629.87
436.59	5486.51
436.80	5425.07
437.01	5689.26
437.22	5590.95
437.43	5556.14
437.64	5420.97
437.85	5664.68
438.06	5742.50
438.27	5599.15
438.48	5676.97
438.69	5840.81
438.90	5705.64
439.11	5523.37
439.32	5799.85
439.53	5709.74
439.74	5873.57
439.95	5810.09
440.16	5795.75
440.37	5928.87
440.57	5697.45
440.78	5824.42
440.99	5746.60
441.20	5844.90
441.41	5779.37
441.62	5937.06
441.83	5814.18
442.04	5969.83
442.25	6049.70
442.46	5928.87
442.67	6133.67
442.88	6483.87
443.09	6125.47
443.30	6127.52
443.51	6076.32
443.72	6344.61
443.93	6197.15
444.14	6420.38
444.35	6131.62
444.56	6430.62
444.77	6086.56
444.98	6287.26
445.19	6367.13
445.40	6172.58
445.61	6240.16
445.81	6379.42
446.02	6451.10
446.23	6387.61
446.44	6174.63
446.65	6573.98
446.86	6459.29
447.07	6614.94
447.28	6670.23
447.49	6522.78
447.70	6541.21
447.91	6485.92
448.12	6571.93
448.33	6856.60
448.54	6789.02
448.74	6573.98
448.95	6698.91
449.16	6545.31
449.37	6827.93
449.58	6625.18
449.79	6999.96
450.00	6891.41
450.21	6987.67
450.42	6881.18
450.63	6926.23
450.84	6989.72
451.05	7139.22
451.25	6940.57
451.46	6944.66
451.67	7155.60
451.88	7174.03
452.09	6903.70
452.30	7102.36
452.51	7112.60
452.72	7360.40
452.93	7450.51
453.13	6963.09
453.34	7229.33
453.55	7077.78
453.76	7192.47
453.97	7692.17
454.18	7391.12
454.39	7499.66
454.60	7337.87
454.81	7444.37
455.01	7700.36
455.22	7325.58
455.43	7505.81
455.64	7878.54
455.85	7798.66
456.06	7919.50
456.27	7557.00
456.48	7585.68
456.68	7802.76
456.89	7841.67
457.10	7954.31
457.31	7901.06
457.52	7888.78
457.73	7974.79
457.94	8114.05
458.14	7966.60
458.35	8247.17
458.56	8093.57
458.77	8046.47
458.98	8288.13
459.19	8236.93
459.39	8341.38
459.60	8427.39
459.81	8357.76
460.02	8527.74
460.23	8560.51
460.44	8705.92
460.65	8564.61
460.85	8480.64
461.06	8632.19
461.27	8292.23
461.48	8718.20
461.69	8933.24
461.89	8568.70
462.10	8857.46
462.31	8699.77
462.52	8859.51
462.73	8929.14
462.94	9166.71
463.14	8939.38
463.35	8957.82
463.56	9303.92
463.77	9217.91
463.98	9105.27
464.18	9084.79
464.39	9396.08
464.60	9678.70
464.81	9365.36
465.02	9484.14
465.23	9674.60
465.43	9389.94
465.64	9717.61
465.85	9551.73
466.06	9672.56
466.27	9863.02
466.47	10004.33
466.68	9924.46
466.89	9877.35
467.10	10125.16
467.30	10071.91
467.51	10055.53
467.72	10370.91
467.93	9893.74
468.14	10270.56
468.34	10585.95
468.55	10501.98
468.76	10456.93
468.97	10325.86
469.17	10706.78
469.38	10624.86
469.59	10880.86
469.80	10614.62
470.01	10645.34
470.21	10733.40
470.42	11050.84
470.63	11038.55
470.84	11030.36
471.04	11075.42
471.25	11087.70
471.46	11204.44
471.67	11644.75
471.87	11380.56
472.08	11536.21
472.29	11712.33
472.50	11415.38
472.70	11599.70
472.91	11421.52
473.12	11654.99
473.33	11997.00
473.53	12130.12
473.74	11997.00
473.95	11970.38
474.16	12187.46
474.36	12056.39
474.57	12328.77
474.78	12437.31
474.99	12582.72
475.19	12525.38
475.40	12678.97
475.61	12631.87
475.81	12816.19
476.02	12955.45
476.23	12922.68
476.44	13010.75
476.64	13289.27
476.85	13528.88
477.06	13551.41
477.27	13731.63
477.47	13375.28
477.68	13602.61
477.89	13899.56
478.09	13868.84
478.30	13891.37
478.51	14036.78
478.71	13981.48
478.92	14026.54
479.13	14393.12
479.34	14382.88
479.54	14427.94
479.75	14362.40
479.96	14569.25
480.16	14604.07
480.37	14698.27
480.58	14675.74
480.78	15200.02
480.99	15001.37
481.20	15060.76
481.41	15318.81
481.61	15277.85
481.82	15294.23
482.03	15439.64
482.23	15513.36
482.44	15845.13
482.65	15957.77
482.85	15933.20
483.06	16172.81
483.27	15992.59
483.47	16295.69
483.68	15894.29
483.89	16166.67
484.09	16133.90
484.30	16484.10
484.51	16758.53
484.71	16736.00
484.92	16697.09
485.13	16750.34
485.33	16832.26
485.54	16826.11
485.75	17272.57
485.95	17385.21
486.16	17270.52
486.37	17565.43
486.57	17407.73
486.78	17542.90
486.98	17481.46
487.19	17551.09
487.40	17798.90
487.60	17618.68
487.81	18280.17
488.02	17997.55
488.22	18122.48
488.43	18317.03
488.64	18114.28
488.84	18487.01
489.05	18437.86
489.25	18478.82
489.46	18781.92
489.67	18650.85
489.87	18921.18
490.08	18872.03
490.29	19015.39
490.49	19347.16
490.70	19429.08
490.90	19246.81
491.11	19453.66
491.32	19576.53
491.52	19543.77
491.73	19660.50
491.94	19723.99
492.14	19822.29
492.35	20225.74
492.55	19889.87
492.76	20119.24
492.97	20240.08
493.17	20326.09
493.38	20424.39
493.58	20532.93
493.79	20874.95
494.00	20283.08
494.20	20610.76
494.41	20784.83
494.61	20737.73
494.82	21159.61
495.02	21208.76
495.23	20856.51
495.44	21188.28
495.64	21649.08
495.85	21268.16
496.05	21466.81
496.26	21675.70
496.47	21585.59
496.67	21671.61
496.88	21948.08
497.08	21511.86
497.29	21864.11
497.49	21819.06
497.70	22142.64
497.91	22320.81
498.11	22230.70
498.32	22271.66
498.52	22433.45
498.73	22646.44
498.93	22990.50
499.14	22648.49
499.34	22757.03
499.55	22912.67
499.76	22920.87
499.96	22900.39
500.17	22984.35
500.37	23154.33
500.58	23058.08
500.78	23309.98
500.99	23264.92
501.19	23514.78
501.40	23240.35
501.60	23234.21
501.81	23490.20
502.02	23373.47
502.22	23379.61
502.43	23750.29
502.63	23998.10
502.84	23858.84
503.04	24063.63
503.25	24252.05
503.45	24114.83
503.66	24360.59
503.86	24145.55
504.07	24235.66
504.27	24336.01
504.48	24675.98
504.68	24217.23
504.89	24815.24
505.09	24725.13
505.30	24733.32
505.50	24747.65
505.71	25183.87
505.91	25013.89
506.12	25024.13
506.32	25009.79
506.53	25101.95
506.73	25224.83
506.94	25216.64
507.14	25368.19
507.35	25462.40
507.55	25437.82
507.76	25556.60
507.96	25407.10
508.17	25431.68
508.37	25529.98
508.58	25720.44
508.78	25734.78
508.99	25925.24
509.19	25929.33
509.40	25878.13
509.60	25775.73
509.81	25972.34
510.01	25704.06
510.22	26179.18
510.42	26130.03
510.63	26203.76
510.83	26254.96
511.04	26678.89
511.24	26295.92
511.44	26404.46
511.65	26781.29
511.85	26455.66
512.06	26474.09
512.26	26920.55
512.47	26934.88
512.67	26760.81
512.88	26908.26
513.08	26795.62
513.29	26586.73
513.49	27035.24
513.69	26611.31
513.90	27250.27
514.10	27592.28
514.31	27219.55
514.51	27194.98
514.72	27268.70
514.92	27350.62
515.13	27326.05
515.33	27313.76
515.53	27530.84
515.74	27645.53
515.94	27670.11
516.15	27582.04
516.35	27399.77
516.56	27823.70
516.76	27852.38
516.96	28067.41
517.17	27993.68
517.37	27950.68
517.58	27926.10
517.78	27946.58
517.99	28018.26
518.19	28266.06
518.39	28235.35
518.60	28470.86
518.80	28409.42
519.01	28673.61
519.21	28448.33
519.41	28993.09
519.62	28694.09
519.82	29015.62
520.03	28995.14
520.23	28950.09
520.43	28892.74
520.64	29341.25
520.84	28989.00
521.05	29335.10
521.25	29177.41
521.45	29120.07
521.66	29285.95
521.86	29503.04
522.07	29204.03
522.27	29761.08
522.47	29701.69
522.68	29732.41
522.88	29765.18
523.08	30463.54
523.29	29871.67
523.49	30094.90
523.70	29898.30
523.90	30295.60
524.10	30434.86
524.31	30539.31
524.51	30115.38
524.71	30778.92
524.92	30504.49
525.12	31204.90
525.33	31270.43
525.53	30912.04
525.73	31290.91
525.94	31077.93
526.14	31018.53
526.34	31385.12
526.55	31088.17
526.75	31542.81
526.95	31395.36
527.16	31567.39
527.36	31516.19
527.56	31837.72
527.77	31923.74
527.97	31725.08
528.17	31933.98
528.38	32163.35
528.58	32183.83
528.78	32118.29
528.99	32022.04
529.19	32083.48
529.39	32108.05
529.60	32687.63
529.80	32443.92
530.00	32628.24
530.21	32706.06
530.41	32620.05
530.61	32642.57
530.82	32642.57
531.02	33156.61
531.22	33052.17
531.43	32865.80
531.63	33199.62
531.83	33484.29
532.04	33641.98
532.24	33500.67
532.44	33986.04
532.64	33992.19
532.85	33981.95
533.05	33943.03
533.25	34113.02
533.46	34231.80
533.66	34397.68
533.86	34219.51
534.07	34708.97
534.27	34526.71
534.47	34999.79
534.67	35118.57
534.88	34821.61
535.08	34926.06
535.28	34977.26
535.49	35114.47
535.69	35450.34
535.89	35050.99
536.09	35421.67
536.30	35632.61
536.50	35413.48
536.70	35505.63
536.91	35954.14
537.11	36238.81
537.31	36091.35
537.51	35833.31
537.72	36572.63
537.92	36203.99
538.12	36328.92
538.32	36341.21
538.53	36496.85
538.73	36380.12
538.93	36529.62
539.13	36666.83
539.34	36494.80
539.54	36503.00
539.74	36945.36
539.94	37055.95
540.15	36421.08
540.35	37107.15
540.55	37078.47
540.75	37291.46
540.96	37328.33
541.16	37066.19
541.36	37357.00
541.56	37178.82
541.77	38026.68
541.97	37586.37
542.17	37957.05
542.37	37975.48
542.58	38004.16
542.78	37858.75
542.98	38098.36
543.18	38372.79
543.38	38452.66
543.59	38413.75
543.79	37805.50
543.99	38167.99
544.19	38423.99
544.40	38219.19
544.60	38573.49
544.80	38622.64
545.00	38602.16
545.20	39269.80
545.41	38948.27
545.61	38510.00
545.81	39306.66
546.01	39032.24
546.21	39564.71
546.42	39134.63
546.62	39314.86
546.82	39407.01
547.02	39366.06
547.22	39443.88
547.43	39413.16
547.63	39632.29
547.83	39724.45
548.03	39374.25
548.23	40074.65
548.44	39525.80
548.64	39687.59
548.84	40015.26
549.04	40050.08
549.24	40203.67
549.45	40306.07
549.65	39761.31
549.85	40203.67
550.05	40263.07
550.25	40013.21
550.45	40351.13
550.66	40066.46
550.86	40369.56
551.06	40877.46
551.26	40369.56
551.46	40637.84
551.66	40611.22
551.87	40580.50
552.07	41090.44
552.27	40834.45
552.47	40957.33
552.67	40801.68
552.87	40998.29
553.07	40998.29
553.28	41131.40
553.48	41436.55
553.68	41006.48
553.88	41522.57
554.08	41280.91
554.28	41551.24
554.48	40945.04
554.69	41239.95
554.89	41487.75
555.09	41551.24
555.29	41405.83
555.49	41686.40
555.69	41430.41
555.89	41735.56
556.10	42032.51
556.30	41653.64
556.50	41964.93
556.70	41805.19
556.90	42192.25
557.10	42102.14
557.30	41717.12
557.50	41983.36
557.70	42208.64
557.91	41971.07
558.11	42114.43
558.31	42558.84
558.51	41772.42
558.71	42431.86
558.91	42491.26
559.11	42311.03
559.31	42337.66
559.51	42257.79
559.72	42554.74
559.92	42515.83
560.12	42698.10
560.32	42450.30
560.52	42524.02
560.72	42612.09
560.92	43222.38
561.12	42841.46
561.32	43083.12
561.52	42653.05
561.72	43093.36
561.93	42964.34
562.13	42853.75
562.33	42716.53
562.53	43480.42
562.73	43081.07
562.93	43122.03
563.13	43187.56
563.33	43199.85
563.53	43685.22
563.73	43148.65
563.93	43588.97
564.13	43615.59
564.33	43255.15
564.53	43398.51
564.74	43918.69
564.94	43173.23
565.14	43726.18
565.34	43253.10
565.54	43812.20
565.74	43695.46
565.94	43611.49
566.14	43476.33
566.34	43627.88
566.54	44049.76
566.74	43697.51
566.94	43943.27
567.14	44168.54
567.34	43904.35
567.54	44172.64
567.74	43875.68
567.94	43773.28
568.14	44440.92
568.34	44647.77
568.54	44553.56
568.74	44281.18
568.94	44565.85
569.14	44694.87
569.34	44651.86
569.54	44375.39
569.75	44094.82
569.95	44189.02
570.15	44940.63
570.35	44608.86
570.55	44201.31
570.75	44627.29
570.95	44893.52
571.15	45073.74
571.35	44629.34
571.55	45071.70
571.75	44877.14
571.95	45299.02
572.15	44881.24
572.35	45036.88
572.55	44981.59
572.75	44952.91
572.95	45299.02
573.15	45233.49
573.35	45272.40
573.55	45002.07
573.75	45086.03
573.95	45405.52
574.15	45206.86
574.35	45344.08
574.55	45512.01
574.75	45303.12
574.95	45876.55
575.15	45456.71
575.34	45487.43
575.54	45659.46
575.74	45462.86
575.94	45522.25
576.14	45624.65
576.34	45817.16
576.54	45921.60
576.74	46220.61
576.94	46153.02
577.14	45884.74
577.34	46239.04
577.54	46333.24
577.74	46247.23
577.94	46118.21
578.14	46503.23
578.34	46327.10
578.54	46007.62
578.74	46425.40
578.94	46712.12
579.14	46622.01
579.34	46376.25
579.54	46503.23
579.74	47029.55
579.94	46597.43
580.13	46875.96
580.33	46812.47
580.53	46890.29
580.73	47111.47
580.93	46691.64
581.13	46892.34
581.33	47039.79
581.53	47134.00
581.73	47152.43
581.93	47734.06
582.13	47754.54
582.33	47742.25
582.53	47447.34
582.73	47723.82
582.92	47801.64
583.12	48119.07
583.32	47699.24
583.52	47670.57
583.72	48055.59
583.92	47885.61
584.12	48053.54
584.32	48553.24
584.52	47922.47
584.72	48090.40
584.92	48332.06
585.11	48698.65
585.31	47949.09
585.51	48397.60
585.71	48293.15
585.91	48665.88
586.11	48100.64
586.31	48354.59
586.51	48397.60
586.71	48645.40
586.91	48669.98
587.10	48801.05
587.30	48989.46
587.50	48921.88
587.70	48842.01
587.90	48799.00
588.10	49341.71
588.30	49247.50
588.50	49239.31
