SpectraSuite Data File
++++++++++++++++++++++++++++++++++++
Date: Fri Jun 02 14:51:08 CEST 2017
User: INFO_000
Dark Spectrum Present: No
Reference Spectrum Present: No
Number of Sampled Component Spectra: 1
Spectrometers: USB4H00879
Integration Time (usec): 80000 (USB4H00879)
Spectra Averaged: 1 (USB4H00879)
Boxcar Smoothing: 0 (USB4H00879)
Correct for Electrical Dark: No (USB4H00879)
Strobe/Lamp Enabled: No (USB4H00879)
Correct for Detector Non-linearity: No (USB4H00879)
Correct for Stray Light: No (USB4H00879)
Number of Pixels in Processed Spectrum: 3648
>>>>>Begin Processed Spectral Data<<<<<
345.13	1277.93
345.34	1277.93
345.56	1277.93
345.78	1241.07
345.99	1290.22
346.21	1712.10
346.42	1728.49
346.64	1675.24
346.86	1845.22
347.07	1732.58
347.29	1777.64
347.50	1591.27
347.72	1679.33
347.94	1755.11
348.15	1548.26
348.37	1650.66
348.59	1644.52
348.80	1648.61
349.02	1779.68
349.23	1916.90
349.45	1800.16
349.67	1853.41
349.88	1814.50
350.10	1959.91
350.31	1832.93
350.53	1800.16
350.75	1937.38
350.96	1804.26
351.18	1826.79
351.39	1816.55
351.61	1880.04
351.82	1896.42
352.04	1886.18
352.26	1857.51
352.47	1925.09
352.69	1929.19
352.90	1837.03
353.12	1830.88
353.34	1818.60
353.55	1908.71
353.77	1873.89
353.98	1808.36
354.20	1841.12
354.41	1937.38
354.63	1980.39
354.85	2064.35
355.06	1931.23
355.28	1814.50
355.49	1810.40
355.71	1855.46
355.92	1849.32
356.14	1980.39
356.35	1863.65
356.57	1830.88
356.79	1947.62
357.00	1896.42
357.22	1970.15
357.43	1822.69
357.65	2013.15
357.86	1757.16
358.08	1912.80
358.29	1877.99
358.51	1970.15
358.72	1937.38
358.94	1966.05
359.16	1863.65
359.37	1920.99
359.59	1925.09
359.80	2004.96
360.02	1923.04
360.23	1935.33
360.45	1949.67
360.66	1923.04
360.88	1857.51
361.09	1947.62
361.31	2027.49
361.52	1859.56
361.74	2084.83
361.95	2037.73
362.17	1918.95
362.38	1998.82
362.60	2019.30
362.81	1935.33
363.03	1875.94
363.24	1970.15
363.46	2148.32
363.67	2086.88
363.89	2023.39
364.10	2015.20
364.32	1931.23
364.53	2187.23
364.75	1937.38
364.96	1988.58
365.18	2017.25
365.39	1953.76
365.61	2009.06
365.82	2058.21
366.04	1953.76
366.25	1939.43
366.47	2113.50
366.68	2002.91
366.90	1959.91
367.11	2037.73
367.33	2033.63
367.54	2064.35
367.76	1957.86
367.97	2146.27
368.19	2007.01
368.40	1972.19
368.62	1929.19
368.83	1949.67
369.05	2002.91
369.26	2004.96
369.48	1955.81
369.69	1988.58
369.91	2090.98
370.12	1978.34
370.33	2064.35
370.55	2023.39
370.76	2131.94
370.98	2039.78
371.19	2062.30
371.41	1970.15
371.62	2074.59
371.84	2021.35
372.05	2146.27
372.27	2088.93
372.48	2027.49
372.69	2060.26
372.91	2117.60
373.12	2082.78
373.34	2117.60
373.55	2097.12
373.77	2199.52
373.98	2060.26
374.20	2150.37
374.41	2299.87
374.62	2066.40
374.84	2189.28
375.05	2232.29
375.27	2131.94
375.48	2156.51
375.70	2174.94
375.91	2174.94
376.12	2287.58
376.34	2119.65
376.55	2232.29
376.77	2174.94
376.98	2072.54
377.19	2154.46
377.41	2064.35
377.62	2115.55
377.84	2217.95
378.05	2209.76
378.27	2127.84
378.48	2285.53
378.69	2375.64
378.91	2222.05
379.12	2197.47
379.34	2244.57
379.55	2273.25
379.76	2328.54
379.98	2236.38
380.19	2263.01
380.41	2207.71
380.62	2244.57
380.83	2293.72
381.05	2164.70
381.26	2379.74
381.47	2197.47
381.69	2246.62
381.90	2365.40
382.12	2236.38
382.33	2254.81
382.54	2238.43
382.76	2256.86
382.97	2359.26
383.19	2189.28
383.40	2369.50
383.61	2277.34
383.83	2232.29
384.04	2275.29
384.25	2291.68
384.47	2322.40
384.68	2346.97
384.89	2318.30
385.11	2326.49
385.32	2248.67
385.54	2310.11
385.75	2375.64
385.96	2406.36
386.18	2349.02
386.39	2351.07
386.60	2263.01
386.82	2381.79
387.03	2353.12
387.24	2410.46
387.46	2400.22
387.67	2396.12
387.88	2467.80
388.10	2420.70
388.31	2402.27
388.52	2619.35
388.74	2533.34
388.95	2508.76
389.16	2463.71
389.38	2490.33
389.59	2455.51
389.80	2600.92
390.02	2531.29
390.23	2576.34
390.44	2445.27
390.66	2508.76
390.87	2418.65
391.08	2510.81
391.30	2588.63
391.51	2592.73
391.72	2641.88
391.94	2645.98
392.15	2572.25
392.36	2531.29
392.58	2496.47
392.79	2506.71
393.00	2605.02
393.22	2756.57
393.43	2740.18
393.64	2758.61
393.85	2834.39
394.07	2658.26
394.28	2680.79
394.49	2707.41
394.71	2697.17
394.92	2871.25
395.13	2660.31
395.35	2609.11
395.56	2686.94
395.77	2762.71
395.98	2760.66
396.20	2688.98
396.41	2734.04
396.62	2852.82
396.84	2789.33
397.05	2748.37
397.26	2768.85
397.47	2942.93
397.69	2785.24
397.90	2957.27
398.11	2928.60
398.32	2803.67
398.54	2813.91
398.75	2871.25
398.96	2891.73
399.18	3028.95
399.39	2861.01
399.60	2875.35
399.81	2953.17
400.03	2934.74
400.24	3256.27
400.45	2924.50
400.66	3008.47
400.88	2942.93
401.09	3223.50
401.30	2967.51
401.51	3076.05
401.73	3127.25
401.94	3123.15
402.15	3200.98
402.36	3051.47
402.58	2992.08
402.79	3190.74
403.00	3166.16
403.21	3135.44
403.43	3153.87
403.64	3270.61
403.85	3039.19
404.06	3190.74
404.27	3112.91
404.49	3108.82
404.70	3067.86
404.91	3286.99
405.12	3143.63
405.34	3135.44
405.55	3303.37
405.76	3100.62
405.97	3198.93
406.19	3338.19
406.40	3106.77
406.61	3297.23
406.82	3286.99
407.03	3221.45
407.25	3256.27
407.46	3295.18
407.67	3348.43
407.88	3317.71
408.09	3334.09
408.31	3160.02
408.52	3315.66
408.73	3289.04
408.94	3305.42
409.15	3342.28
409.37	3401.68
409.58	3356.62
409.79	3342.28
410.00	3493.83
410.21	3303.37
410.43	3424.20
410.64	3330.00
410.85	3483.59
411.06	3452.88
411.27	3448.78
411.48	3581.90
411.70	3379.15
411.91	3497.93
412.12	3510.22
412.33	3422.16
412.54	3588.04
412.76	3565.51
412.97	3641.29
413.18	3536.84
413.39	3512.27
413.60	3575.75
413.81	3526.60
414.03	3393.48
414.24	3454.92
414.45	3676.10
414.66	3536.84
414.87	3682.25
415.08	3639.24
415.30	3512.27
415.51	3688.39
415.72	3633.10
415.93	3561.42
416.14	3651.53
416.35	3758.02
416.56	3557.32
416.78	3725.26
416.99	3645.38
417.20	3665.86
417.41	3762.12
417.62	3690.44
417.83	3694.54
418.04	3678.15
418.26	3766.21
418.47	3725.26
418.68	3805.13
418.89	3764.17
419.10	3944.39
419.31	3887.04
419.52	3909.57
419.73	3844.04
419.95	3852.23
420.16	3755.97
420.37	3833.80
420.58	3942.34
420.79	3778.50
421.00	4014.02
421.21	3923.91
421.42	3907.52
421.63	3905.48
421.85	3977.16
422.06	4128.70
422.27	3956.68
422.48	4038.59
422.69	4059.07
422.90	4102.08
423.11	3946.44
423.32	4196.29
423.53	4124.61
423.75	4102.08
423.96	4382.65
424.17	4255.68
424.38	4362.17
424.59	4171.71
424.80	4440.00
425.01	4216.77
425.22	4315.07
425.43	4257.73
425.64	4437.95
425.85	4530.11
426.06	4403.13
426.28	4440.00
426.49	4409.28
426.70	4257.73
426.91	4407.23
427.12	4528.06
427.33	4374.46
427.54	4433.85
427.75	4485.05
427.96	4587.45
428.17	4511.68
428.38	4607.93
428.59	4663.22
428.80	4650.94
429.01	4685.75
429.23	4681.66
429.44	4851.64
429.65	4661.18
429.86	4960.18
430.07	4632.51
430.28	4671.42
430.49	4769.72
430.70	5013.43
430.91	4857.78
431.12	4802.49
431.33	4986.80
431.54	4925.36
431.75	5085.11
431.96	4917.17
432.17	4999.09
432.38	4906.93
432.59	5115.83
432.80	5177.26
433.01	5070.77
433.22	5124.02
433.43	5144.50
433.64	5044.15
433.85	5085.11
434.06	5205.94
434.27	5183.41
434.49	5255.09
434.70	5361.58
434.91	5218.22
435.12	5312.43
435.33	5388.21
435.54	5402.54
435.75	5236.66
435.96	5298.10
436.17	5212.08
436.38	5437.36
436.59	5457.84
436.80	5449.64
437.01	5697.45
437.22	5771.18
437.43	5384.11
437.64	5279.66
437.85	5711.78
438.06	5676.97
438.27	5500.84
438.48	5564.33
438.69	5611.43
438.90	5797.80
439.11	5502.89
439.32	5773.22
439.53	5558.19
439.74	5652.39
439.95	5762.98
440.16	5713.83
440.37	5805.99
440.57	5674.92
440.78	5883.81
440.99	5816.23
441.20	5785.51
441.41	5820.33
441.62	5877.67
441.83	5740.46
442.04	5990.31
442.25	5908.39
442.46	5988.26
442.67	5998.50
442.88	6369.18
443.09	5924.77
443.30	5887.91
443.51	6045.60
443.72	6274.98
443.93	6098.85
444.14	6469.53
444.35	6156.19
444.56	6221.73
444.77	6221.73
444.98	6205.35
445.19	6340.51
445.40	6131.62
445.61	6244.26
445.81	6451.10
446.02	6440.86
446.23	6375.33
446.44	6201.25
446.65	6289.31
446.86	6346.66
447.07	6438.81
447.28	6506.40
447.49	6598.56
447.70	6254.50
447.91	6555.55
448.12	6520.73
448.33	6555.55
448.54	6555.55
448.74	6541.21
448.95	6483.87
449.16	6373.28
449.37	6729.63
449.58	6662.04
449.79	6832.02
450.00	6551.45
450.21	6684.57
450.42	6741.91
450.63	6756.25
450.84	6856.60
451.05	6774.68
451.25	6766.49
451.46	6643.61
451.67	6883.22
451.88	6946.71
452.09	6903.70
452.30	6854.55
452.51	6737.82
452.72	7038.87
452.93	7217.04
453.13	6956.95
453.34	6971.29
453.55	7030.68
453.76	6983.57
453.97	7307.15
454.18	7219.09
454.39	7413.65
454.60	7186.32
454.81	7212.95
455.01	7427.98
455.22	7088.02
455.43	7239.57
455.64	7546.76
455.85	7487.37
456.06	7800.71
456.27	7485.33
456.48	7163.79
456.68	7499.66
456.89	7450.51
457.10	7731.08
457.31	7595.92
457.52	7530.38
457.73	7604.11
457.94	7835.53
458.14	7602.06
458.35	7935.88
458.56	7806.86
458.77	7905.16
458.98	7956.36
459.19	7864.20
459.39	7929.74
459.60	8175.49
459.81	7927.69
460.02	8118.15
460.23	7888.78
460.44	8243.07
460.65	8228.74
460.85	8251.27
461.06	8368.00
461.27	8089.48
461.48	8413.06
461.69	8630.14
461.89	8157.06
462.10	8318.85
462.31	8159.11
462.52	8261.51
462.73	8574.85
462.94	8671.10
463.14	8585.08
463.35	8683.39
463.56	8920.95
463.77	8898.42
463.98	8734.59
464.18	8847.22
464.39	8947.58
464.60	9023.35
464.81	9035.64
465.02	9088.89
465.23	9056.12
465.43	8892.28
465.64	9299.83
465.85	9258.87
466.06	9006.97
466.27	9580.40
466.47	9506.67
466.68	9439.09
466.89	9447.28
467.10	9430.90
467.30	9492.34
467.51	9754.48
467.72	9750.38
467.93	9615.21
468.14	9871.21
468.34	9922.41
468.55	9930.60
468.76	9912.17
468.97	9707.37
469.17	10354.53
469.38	10215.27
469.59	10241.89
469.80	10141.54
470.01	10321.76
470.21	10348.39
470.42	10389.35
470.63	10483.55
470.84	10407.78
471.04	10485.60
471.25	10635.10
471.46	10706.78
471.67	10970.97
471.87	10776.41
472.08	10915.67
472.29	11132.76
472.50	10803.04
472.70	11093.85
472.91	11200.34
473.12	11427.67
473.33	11286.36
473.53	11661.13
473.74	11464.53
473.95	11665.23
474.16	11743.05
474.36	11992.90
474.57	12048.20
474.78	12144.45
474.99	12212.04
475.19	12115.78
475.40	12218.18
475.61	12269.38
475.81	12390.21
476.02	12664.64
476.23	12691.26
476.44	12717.89
476.64	12973.88
476.85	13111.10
477.06	12971.83
477.27	13186.87
477.47	13264.69
477.68	13379.38
477.89	13363.00
478.09	13440.82
478.30	13535.03
478.51	13633.33
478.71	13915.95
478.92	13750.06
479.13	14044.97
479.34	14077.74
479.54	14182.18
479.75	14126.89
479.96	14184.23
480.16	14004.01
480.37	14552.87
480.58	14575.39
480.78	14860.06
480.99	14847.77
481.20	14935.84
481.41	15165.21
481.61	15138.58
481.82	15163.16
482.03	14995.23
482.23	15111.96
482.44	15451.92
482.65	15564.56
482.85	15996.68
483.06	15679.25
483.27	15599.38
483.47	15703.82
483.68	15730.45
483.89	16049.93
484.09	15965.96
484.30	16215.82
484.51	16209.67
484.71	16727.81
484.92	16445.19
485.13	16625.41
485.33	16529.16
485.54	16772.86
485.75	17047.29
485.95	16959.23
486.16	17182.46
486.37	17204.99
486.57	17043.20
486.78	17321.72
486.98	17323.77
487.19	17450.74
487.40	17825.52
487.60	17616.63
487.81	17700.59
488.02	17731.31
488.22	17882.86
488.43	17891.06
488.64	18069.23
488.84	18159.34
489.05	18380.52
489.25	18075.37
489.46	18487.01
489.67	18247.40
489.87	18810.59
490.08	18796.26
490.29	18863.84
490.49	19078.88
490.70	19103.45
490.90	19097.31
491.11	19046.11
491.32	19134.17
491.52	19406.55
491.73	19484.37
491.94	19422.94
492.14	19488.47
492.35	19656.40
492.55	19705.56
492.76	19887.82
492.97	20152.01
493.17	20037.33
493.38	20156.11
493.58	20344.52
493.79	20397.77
494.00	20090.57
494.20	20252.36
494.41	20448.97
494.61	20582.09
494.82	20643.52
495.02	20514.50
495.23	21032.64
495.44	21229.24
495.64	20965.06
495.85	20561.61
496.05	21223.10
496.26	20889.28
496.47	21049.02
496.67	21235.39
496.88	21608.12
497.08	21178.04
497.29	21427.90
497.49	21382.84
497.70	21391.03
497.91	21683.89
498.11	21960.37
498.32	21792.44
498.52	21884.59
498.73	22136.49
498.93	22140.59
499.14	22306.48
499.34	21997.23
499.55	22406.83
499.76	21862.07
499.96	21982.90
500.17	22249.13
500.37	22255.28
500.58	22187.69
500.78	22507.18
500.99	22331.05
501.19	22650.53
501.40	22398.63
501.60	22783.65
501.81	23029.41
502.02	22890.15
502.22	22636.20
502.43	22806.18
502.63	22912.67
502.84	22922.91
503.04	23127.71
503.25	23203.49
503.45	23056.03
503.66	23246.49
503.86	23123.62
504.07	23670.42
504.27	23500.44
504.48	23699.09
504.68	23604.89
504.89	23578.26
505.09	23598.74
505.30	23649.94
505.50	23791.25
505.71	23555.74
505.91	23916.18
506.12	23975.57
506.32	23801.49
506.53	23961.23
506.73	23727.77
506.94	24118.93
507.14	23985.81
507.35	24397.45
507.55	24131.22
507.76	24469.13
507.96	24315.53
508.17	24141.46
508.37	24561.29
508.58	24381.07
508.78	24563.34
508.99	24833.67
509.19	24508.04
509.40	24694.41
509.60	24680.07
509.81	24753.80
510.01	24843.91
510.22	24622.73
510.42	24829.57
510.63	24788.61
510.83	24886.92
511.04	24919.68
511.24	25114.24
511.44	24909.44
511.65	25368.19
511.85	25083.52
512.06	25265.79
512.26	25253.50
512.47	25056.90
512.67	25278.08
512.88	25351.81
513.08	25314.94
513.29	25544.31
513.49	25349.76
513.69	25460.35
513.90	25722.49
514.10	25900.66
514.31	25671.29
514.51	25804.41
514.72	25878.13
514.92	25925.24
515.13	25654.90
515.33	25927.28
515.53	26064.50
515.74	26109.55
515.94	26205.81
516.15	25915.00
516.35	25925.24
516.56	26349.17
516.76	26160.75
516.96	26488.43
517.17	26500.72
517.37	26492.52
517.58	26857.06
517.78	26723.94
517.99	26496.62
518.19	26861.16
518.39	26848.87
518.60	27223.65
518.80	26938.98
519.01	26912.36
519.21	27049.57
519.41	27336.29
519.62	27207.26
519.82	27418.21
520.03	27262.56
520.23	27119.20
520.43	27131.49
520.64	27657.82
520.84	28057.17
521.05	27453.02
521.25	27801.18
521.45	27936.34
521.66	28118.61
521.86	27973.21
522.07	27862.61
522.27	28118.61
522.47	28147.28
522.68	28620.36
522.88	28558.92
523.08	28720.71
523.29	28642.89
523.49	28759.63
523.70	28530.25
523.90	29156.93
524.10	28702.28
524.31	28855.88
524.51	28890.70
524.71	29204.03
524.92	29021.77
525.12	29793.85
525.33	29388.35
525.53	29812.28
525.73	29496.89
525.94	29636.16
526.14	29826.62
526.34	29937.21
526.55	29955.64
526.75	29994.55
526.95	30309.94
527.16	30156.34
527.36	30103.09
527.56	30311.99
527.77	30533.17
527.97	30649.90
528.17	30664.24
528.38	30711.34
528.58	30916.14
528.78	30854.70
528.99	31053.35
529.19	31106.60
529.39	31008.29
529.60	31540.77
529.80	31411.74
530.00	31352.35
530.21	31677.98
530.41	31788.57
530.61	31657.50
530.82	31979.03
531.02	32165.40
531.22	32206.36
531.43	32077.33
531.63	32300.56
531.83	32394.77
532.04	32712.20
532.24	32310.80
532.44	32982.54
532.64	32941.58
532.85	32941.58
533.05	32808.46
533.25	33193.48
533.46	33080.84
533.66	33232.39
533.86	33580.54
534.07	33848.83
534.27	33510.91
534.47	34280.95
534.67	33820.16
534.88	33900.03
535.08	34033.14
535.28	34209.27
535.49	34127.35
535.69	34661.87
535.89	34522.61
536.09	34637.30
536.30	34919.92
536.50	34835.95
536.70	34995.69
536.91	34659.82
537.11	34737.65
537.31	35253.73
537.51	35380.71
537.72	35730.91
537.92	35595.74
538.12	35861.98
538.32	35376.61
538.53	35943.90
538.73	35630.56
538.93	36042.20
539.13	36136.41
539.34	35814.88
539.54	36144.60
539.74	36521.43
539.94	36347.35
540.15	36122.07
540.35	36406.74
540.55	36390.36
540.75	36474.32
540.96	36701.65
541.16	36957.64
541.36	37031.37
541.56	37035.47
541.77	37234.12
541.97	36689.36
542.17	37361.09
542.37	37115.34
542.58	37375.43
542.78	37496.26
542.98	37426.63
543.18	37492.16
543.38	37967.29
543.59	37959.10
543.79	37490.12
543.99	38032.83
544.19	37991.87
544.40	37776.83
544.60	38108.60
544.80	38352.31
545.00	38335.93
545.20	38778.29
545.41	37871.04
545.61	38333.88
545.81	38567.35
546.01	38845.87
546.21	38933.93
546.42	38757.81
546.62	39054.76
546.82	38704.56
547.02	38901.17
547.22	38733.23
547.43	38888.88
547.63	39095.72
547.83	39202.22
548.03	39046.57
548.23	39101.87
548.44	39175.59
548.64	39515.56
548.84	39787.94
549.04	39210.41
549.24	39583.14
549.45	39546.28
549.65	39863.71
549.85	39720.35
550.05	39765.41
550.25	39577.00
550.45	40134.04
550.66	40129.95
550.86	39888.29
551.06	40279.45
551.26	40107.42
551.46	40449.43
551.66	40289.69
551.87	40244.63
552.07	40166.81
552.27	39902.62
552.47	40531.35
552.67	40191.39
552.87	40209.82
553.07	40517.01
553.28	40424.86
553.48	40523.16
553.68	40506.77
553.88	40867.22
554.08	40402.33
554.28	40529.30
554.48	40314.26
554.69	40963.47
554.89	40627.60
555.09	40582.55
555.29	40600.98
555.49	40809.87
555.69	40746.39
555.89	40770.96
556.10	41053.58
556.30	40957.33
556.50	40740.24
556.70	41233.80
556.90	41338.25
557.10	41201.04
557.30	41174.41
557.50	41293.19
557.70	41112.97
557.91	41723.27
558.11	41289.10
558.31	41448.84
558.51	40998.29
558.71	41178.51
558.91	41788.80
559.11	41481.61
559.31	41117.07
559.51	41301.39
559.72	41194.89
559.92	41399.69
560.12	41350.54
560.32	41047.44
560.52	41104.78
560.72	41360.78
560.92	41792.90
561.12	41389.45
561.32	41653.64
561.52	41465.22
561.72	41643.40
561.93	41481.61
562.13	41543.05
562.33	41438.60
562.53	41733.51
562.73	41379.21
562.93	41835.91
563.13	41721.22
563.33	41973.12
563.53	42317.18
563.73	41680.26
563.93	41985.41
564.13	41883.01
564.33	41962.88
564.53	41588.10
564.74	41932.16
564.94	41844.10
565.14	41784.71
565.34	41715.08
565.54	41639.30
565.74	41799.04
565.94	42139.00
566.14	41895.30
566.34	41735.56
566.54	42372.47
566.74	42311.03
566.94	42024.32
567.14	42280.31
567.34	42032.51
567.54	42145.15
567.74	42069.37
567.94	42493.30
568.14	42218.88
568.34	42388.86
568.54	42417.53
568.74	42618.23
568.94	42134.91
569.14	42341.75
569.34	42368.38
569.54	42198.40
569.75	41854.34
569.95	42308.99
570.15	42607.99
570.35	42765.68
570.55	42550.65
570.75	42618.23
570.95	42274.17
571.15	42599.80
571.35	42804.59
571.55	42800.50
571.75	42747.25
571.95	42767.73
572.15	42210.68
572.35	42726.77
572.55	42567.03
572.75	42753.40
572.95	42894.71
573.15	43167.09
573.35	42876.27
573.55	42640.76
573.75	42722.68
573.95	43062.64
574.15	43046.26
574.35	43203.95
574.55	42782.07
574.75	43029.87
574.95	43081.07
575.15	42679.67
575.34	42904.95
575.54	43289.96
575.74	43361.64
575.94	43332.97
576.14	43476.33
576.34	43623.78
576.54	43705.70
576.74	43593.06
576.94	43566.44
577.14	43578.73
577.34	44029.28
577.54	43406.70
577.74	43996.51
577.94	43779.43
578.14	43513.19
578.34	43933.03
578.54	43679.08
578.74	43779.43
578.94	43976.03
579.14	43613.54
579.34	43957.60
579.54	43955.55
579.74	44103.01
579.94	43916.64
580.13	44299.61
580.33	44242.27
580.53	44467.55
580.73	44412.25
580.93	44533.08
581.13	44356.96
581.33	44711.25
581.53	44891.48
581.73	44680.53
581.93	44655.96
582.13	44909.91
582.33	45135.18
582.53	45016.40
582.73	44838.23
582.92	45061.46
583.12	45202.77
583.32	45069.65
583.52	44914.00
583.72	45403.47
583.92	45110.61
584.12	45137.23
584.32	45716.81
584.52	45016.40
584.72	45266.25
584.92	45503.82
585.11	45733.19
585.31	45288.78
585.51	45432.14
585.71	45661.51
585.91	45854.02
586.11	45370.70
586.31	45600.07
586.51	45942.08
586.71	45925.70
586.91	46120.26
587.10	46372.16
587.30	46341.44
587.50	46380.35
587.70	46019.91
587.90	46259.52
588.10	46286.14
588.30	46224.70
588.50	46730.55
588.69	46556.47
