SpectraSuite Data File
++++++++++++++++++++++++++++++++++++
Date: Fri Jun 02 14:51:10 CEST 2017
User: INFO_000
Dark Spectrum Present: No
Reference Spectrum Present: No
Number of Sampled Component Spectra: 1
Spectrometers: USB4H00879
Integration Time (usec): 80000 (USB4H00879)
Spectra Averaged: 1 (USB4H00879)
Boxcar Smoothing: 0 (USB4H00879)
Correct for Electrical Dark: No (USB4H00879)
Strobe/Lamp Enabled: No (USB4H00879)
Correct for Detector Non-linearity: No (USB4H00879)
Correct for Stray Light: No (USB4H00879)
Number of Pixels in Processed Spectrum: 3648
>>>>>Begin Processed Spectral Data<<<<<
345.13	1286.12
345.34	1286.12
345.56	1286.12
345.78	1331.18
345.99	1314.80
346.21	1701.86
346.42	1658.85
346.64	1658.85
346.86	1738.73
347.07	1753.06
347.29	1746.92
347.50	1640.42
347.72	1703.91
347.94	1705.96
348.15	1552.36
348.37	1673.19
348.59	1691.62
348.80	1632.23
349.02	1755.11
349.23	1855.46
349.45	1851.36
349.67	1837.03
349.88	1880.04
350.10	1970.15
350.31	1867.75
350.53	1787.88
350.75	1929.19
350.96	1724.39
351.18	1884.13
351.39	1861.60
351.61	1753.06
351.82	1904.61
352.04	1927.14
352.26	1820.64
352.47	1875.94
352.69	1925.09
352.90	1753.06
353.12	1839.08
353.34	1906.66
353.55	1884.13
353.77	1830.88
353.98	1740.77
354.20	1884.13
354.41	1880.04
354.63	1939.43
354.85	2035.68
355.06	1896.42
355.28	1779.68
355.49	1804.26
355.71	1931.23
355.92	1871.84
356.14	1947.62
356.35	1855.46
356.57	1912.80
356.79	1937.38
357.00	1857.51
357.22	1980.39
357.43	1818.60
357.65	1877.99
357.86	1863.65
358.08	1914.85
358.29	2002.91
358.51	1976.29
358.72	1994.72
358.94	1972.19
359.16	1959.91
359.37	1925.09
359.59	1959.91
359.80	1943.52
360.02	1945.57
360.23	1945.57
360.45	2025.44
360.66	1861.60
360.88	1851.36
361.09	1865.70
361.31	1957.86
361.52	1937.38
361.74	2025.44
361.95	2041.82
362.17	1877.99
362.38	2070.50
362.60	2105.31
362.81	1931.23
363.03	1968.10
363.24	1984.48
363.46	2017.25
363.67	1978.34
363.89	1988.58
364.10	2015.20
364.32	1920.99
364.53	2037.73
364.75	1941.47
364.96	2002.91
365.18	2039.78
365.39	1986.53
365.61	2033.63
365.82	2105.31
366.04	2011.11
366.25	1964.00
366.47	2007.01
366.68	1986.53
366.90	1927.14
367.11	2047.97
367.33	2052.06
367.54	2146.27
367.76	1923.04
367.97	2066.40
368.19	1996.77
368.40	2101.22
368.62	1959.91
368.83	2007.01
369.05	1972.19
369.26	1994.72
369.48	1892.32
369.69	2033.63
369.91	2093.02
370.12	2033.63
370.33	2125.79
370.55	1978.34
370.76	1970.15
370.98	2105.31
371.19	1986.53
371.41	2033.63
371.62	2002.91
371.84	2062.30
372.05	2172.89
372.27	2080.74
372.48	2109.41
372.69	2123.74
372.91	2103.26
373.12	2099.17
373.34	2078.69
373.55	2121.70
373.77	2133.98
373.98	2052.06
374.20	2129.89
374.41	2109.41
374.62	2121.70
374.84	2144.22
375.05	2131.94
375.27	2152.42
375.48	2140.13
375.70	2086.88
375.91	2228.19
376.12	2285.53
376.34	2174.94
376.55	2174.94
376.77	2181.09
376.98	2133.98
377.19	2148.32
377.41	2119.65
377.62	2158.56
377.84	2129.89
378.05	2349.02
378.27	2146.27
378.48	2342.88
378.69	2334.68
378.91	2328.54
379.12	2211.81
379.34	2256.86
379.55	2275.29
379.76	2230.24
379.98	2166.75
380.19	2238.43
380.41	2244.57
380.62	2265.05
380.83	2291.68
381.05	2273.25
381.26	2377.69
381.47	2244.57
381.69	2246.62
381.90	2396.12
382.12	2258.91
382.33	2166.75
382.54	2322.40
382.76	2355.16
382.97	2310.11
383.19	2232.29
383.40	2416.60
383.61	2314.20
383.83	2379.74
384.04	2363.36
384.25	2349.02
384.47	2287.58
384.68	2310.11
384.89	2291.68
385.11	2344.92
385.32	2314.20
385.54	2279.39
385.75	2279.39
385.96	2355.16
386.18	2355.16
386.39	2432.99
386.60	2396.12
386.82	2385.88
387.03	2389.98
387.24	2590.68
387.46	2465.75
387.67	2428.89
387.88	2516.95
388.10	2453.47
388.31	2353.12
388.52	2592.73
388.74	2508.76
388.95	2484.19
389.16	2551.77
389.38	2482.14
389.59	2426.84
389.80	2633.69
390.02	2473.95
390.23	2574.30
390.44	2559.96
390.66	2523.10
390.87	2566.10
391.08	2574.30
391.30	2658.26
391.51	2621.40
391.72	2625.50
391.94	2621.40
392.15	2611.16
392.36	2617.30
392.58	2537.43
392.79	2711.51
393.00	2676.70
393.22	2758.61
393.43	2678.74
393.64	2727.89
393.85	2734.04
394.07	2633.69
394.28	2740.18
394.49	2680.79
394.71	2852.82
394.92	2850.77
395.13	2625.50
395.35	2742.23
395.56	2736.09
395.77	2625.50
395.98	2826.20
396.20	2838.48
396.41	2809.81
396.62	2889.68
396.84	2760.66
397.05	2863.06
397.26	2942.93
397.47	2959.31
397.69	2801.62
397.90	2990.03
398.11	2883.54
398.32	2893.78
398.54	2826.20
398.75	2912.21
398.96	2865.11
399.18	2983.89
399.39	2891.73
399.60	2957.27
399.81	2838.48
400.03	2863.06
400.24	3207.12
400.45	2971.60
400.66	3041.23
400.88	2990.03
401.09	3174.35
401.30	2998.23
401.51	3149.78
401.73	3026.90
401.94	3153.87
402.15	3176.40
402.36	3139.54
402.58	3194.83
402.79	3114.96
403.00	3092.43
403.21	3182.54
403.43	3241.93
403.64	3278.80
403.85	3092.43
404.06	3211.22
404.27	3149.78
404.49	3368.91
404.70	3100.62
404.91	3239.89
405.12	3303.37
405.34	3170.26
405.55	3473.36
405.76	3063.76
405.97	3264.46
406.19	3377.10
406.40	3246.03
406.61	3266.51
406.82	3377.10
407.03	3307.47
407.25	3274.70
407.46	3465.16
407.67	3524.55
407.88	3424.20
408.09	3284.94
408.31	3418.06
408.52	3409.87
408.73	3403.72
408.94	3346.38
409.15	3436.49
409.37	3432.40
409.58	3405.77
409.79	3428.30
410.00	3467.21
410.21	3430.35
410.43	3524.55
410.64	3334.09
410.85	3551.18
411.06	3473.36
411.27	3542.99
411.48	3583.95
411.70	3508.17
411.91	3567.56
412.12	3647.43
412.33	3622.86
412.54	3520.46
412.76	3620.81
412.97	3690.44
413.18	3520.46
413.39	3545.03
413.60	3682.25
413.81	3594.19
414.03	3626.95
414.24	3526.60
414.45	3848.13
414.66	3649.48
414.87	3680.20
415.08	3729.35
415.30	3745.73
415.51	3719.11
415.72	3803.08
415.93	3755.97
416.14	3817.41
416.35	3776.45
416.56	3663.82
416.78	3729.35
416.99	3751.88
417.20	3852.23
417.41	3946.44
417.62	3950.53
417.83	3880.90
418.04	3751.88
418.26	3956.68
418.47	3794.89
418.68	3919.81
418.89	4104.13
419.10	4059.07
419.31	4036.55
419.52	4081.60
419.73	4016.07
419.95	4079.55
420.16	3887.04
420.37	4067.27
420.58	4122.56
420.79	4011.97
421.00	4071.36
421.21	4059.07
421.42	3973.06
421.63	4145.09
421.85	4067.27
422.06	4257.73
422.27	4229.06
422.48	4108.23
422.69	4206.53
422.90	4249.54
423.11	4257.73
423.32	4278.21
423.53	4386.75
423.75	4317.12
423.96	4472.76
424.17	4358.08
424.38	4542.39
424.59	4181.95
424.80	4450.24
425.01	4382.65
425.22	4419.52
425.43	4476.86
425.64	4646.84
425.85	4583.35
426.06	4542.39
426.28	4485.05
426.49	4388.80
426.70	4577.21
426.91	4509.63
427.12	4583.35
427.33	4632.51
427.54	4550.59
427.75	4605.88
427.96	4872.12
428.17	4724.66
428.38	4792.25
428.59	4792.25
428.80	4689.85
429.01	4859.83
429.23	4669.37
429.44	4927.41
429.65	4859.83
429.86	4974.52
430.07	4958.13
430.28	4951.99
430.49	5050.29
430.70	5150.64
430.91	5124.02
431.12	4978.61
431.33	5171.12
431.54	5238.70
431.75	5136.31
431.96	5115.83
432.17	5197.74
432.38	5115.83
432.59	5226.42
432.80	5210.03
433.01	5142.45
433.22	5261.23
433.43	5250.99
433.64	5300.14
433.85	5212.08
434.06	5392.30
434.27	5169.07
434.49	5308.34
434.70	5525.42
434.91	5386.16
435.12	5443.50
435.33	5435.31
435.54	5590.95
435.75	5250.99
435.96	5443.50
436.17	5402.54
436.38	5707.69
436.59	5515.18
436.80	5492.65
437.01	5777.32
437.22	5590.95
437.43	5752.74
437.64	5537.71
437.85	5713.83
438.06	5758.89
438.27	5615.53
438.48	5650.35
438.69	5869.48
438.90	5760.94
439.11	5599.15
439.32	5892.01
439.53	5683.11
439.74	5805.99
439.95	5785.51
440.16	5810.09
440.37	5805.99
440.57	5713.83
440.78	5924.77
440.99	5973.92
441.20	5963.68
441.41	5773.22
441.62	5904.29
441.83	5857.19
442.04	6092.71
442.25	6057.89
442.46	5871.53
442.67	6193.06
442.88	6535.07
443.09	6051.75
443.30	6158.24
443.51	6123.43
443.72	6338.46
443.93	6008.74
444.14	6348.70
444.35	6109.09
444.56	6342.56
444.77	6176.67
444.98	6320.03
445.19	6432.67
445.40	6277.02
445.61	6350.75
445.81	6410.14
446.02	6492.06
446.23	6299.55
446.44	6064.04
446.65	6508.44
446.86	6469.53
447.07	6561.69
447.28	6707.10
447.49	6670.23
447.70	6508.44
447.91	6713.24
448.12	6580.12
448.33	6772.63
448.54	6616.99
448.74	6688.67
448.95	6692.76
449.16	6602.65
449.37	7020.44
449.58	6786.97
449.79	7020.44
450.00	6670.23
450.21	6932.37
450.42	6965.14
450.63	7055.25
450.84	6940.57
451.05	6885.27
451.25	6991.77
451.46	6862.74
451.67	7163.79
451.88	7098.26
452.09	7108.50
452.30	7038.87
452.51	7169.94
452.72	7380.88
452.93	7419.79
453.13	7202.71
453.34	7077.78
453.55	7157.65
453.76	7288.72
453.97	7726.99
454.18	7425.93
454.39	7374.74
454.60	7456.65
454.81	7522.19
455.01	7645.07
455.22	7229.33
455.43	7495.57
455.64	7755.66
455.85	7849.86
456.06	7796.62
456.27	7743.37
456.48	7610.25
456.68	7806.86
456.89	7794.57
457.10	7880.58
457.31	7769.99
457.52	7958.41
457.73	7954.31
457.94	8163.20
458.14	7884.68
458.35	8421.25
458.56	8212.35
458.77	8040.33
458.98	8167.30
459.19	8249.22
459.39	8306.56
459.60	8515.45
459.81	8271.75
460.02	8613.76
460.23	8621.95
460.44	8658.81
460.65	8580.99
460.85	8785.79
461.06	8777.59
461.27	8511.36
461.48	8769.40
461.69	8834.94
461.89	8474.49
462.10	8906.62
462.31	8765.31
462.52	8884.09
462.73	8972.15
462.94	9160.56
463.14	9107.32
463.35	9047.93
463.56	9346.93
463.77	9336.69
463.98	9191.28
464.18	9277.30
464.39	9441.14
464.60	9629.55
464.81	9363.31
465.02	9523.05
465.23	9717.61
465.43	9555.82
465.64	9822.06
465.85	9572.21
466.06	9684.84
466.27	10039.14
466.47	9963.37
466.68	10018.66
466.89	9760.62
467.10	10057.57
467.30	9908.07
467.51	10260.32
467.72	10452.83
467.93	10022.76
468.14	10368.87
468.34	10323.81
468.55	10553.18
468.76	10598.24
468.97	10383.20
469.17	10866.52
469.38	10706.78
469.59	10940.25
469.80	10655.58
470.01	10721.12
470.21	10846.04
470.42	11059.03
470.63	11044.70
470.84	10991.45
471.04	11249.49
471.25	11263.83
471.46	11202.39
471.67	11663.18
471.87	11425.62
472.08	11450.19
472.29	11837.26
472.50	11374.42
472.70	11495.25
472.91	11609.93
473.12	11724.62
473.33	11689.81
473.53	12037.96
473.74	11863.88
473.95	12308.29
474.16	12242.76
474.36	12246.85
474.57	12635.97
474.78	12642.11
474.99	12416.83
475.19	12484.42
475.40	12617.54
475.61	12816.19
475.81	12889.92
476.02	12879.68
476.23	12883.77
476.44	13156.15
476.64	13295.41
476.85	13463.35
477.06	13266.74
477.27	13709.10
477.47	13647.66
477.68	13608.75
477.89	13932.33
478.09	13705.01
478.30	13807.41
478.51	14180.14
478.71	14141.22
478.92	14202.66
479.13	14233.38
479.34	14579.49
479.54	14518.05
479.75	14665.50
479.96	14728.99
480.16	14632.74
480.37	14728.99
480.58	15075.10
480.78	15208.22
480.99	15161.11
481.20	15370.01
481.41	15378.20
481.61	15378.20
481.82	15490.84
482.03	15388.44
482.23	15593.23
482.44	15990.54
482.65	16062.22
482.85	16152.33
483.06	15961.87
483.27	16092.94
483.47	16101.13
483.68	16232.20
483.89	16535.30
484.09	16297.74
484.30	16404.23
484.51	16606.98
484.71	16805.63
484.92	16572.16
485.13	16998.14
485.33	17202.94
485.54	16973.56
485.75	17350.39
485.95	17467.13
486.16	17192.70
486.37	17354.49
486.57	17540.85
486.78	17481.46
486.98	17737.46
487.19	17960.69
487.40	17919.73
487.60	17673.97
487.81	18083.56
488.02	17975.02
488.22	18155.24
488.43	18265.83
488.64	18521.83
488.84	18519.78
489.05	18548.45
489.25	18396.90
489.46	18853.60
489.67	18800.35
489.87	19183.32
490.08	19052.25
490.29	19146.46
490.49	19373.78
490.70	19470.04
490.90	19533.53
491.11	19379.93
491.32	19670.74
491.52	19945.17
491.73	19551.96
491.94	19820.24
492.14	19945.17
492.35	19889.87
492.55	20156.11
492.76	20303.56
492.97	20567.75
493.17	20432.58
493.38	20516.55
493.58	20772.55
493.79	20778.69
494.00	20657.86
494.20	20539.08
494.41	21040.83
494.61	20954.82
494.82	20715.20
495.02	20963.01
495.23	20985.54
495.44	21540.54
495.64	21581.49
495.85	21393.08
496.05	21509.82
496.26	21472.95
496.47	21823.16
496.67	21657.27
496.88	22277.80
497.08	21698.23
497.29	22234.80
497.49	21890.74
497.70	22005.42
497.91	22369.96
498.11	22412.97
498.32	22302.38
498.52	22343.34
498.73	22812.32
498.93	22820.52
499.14	22652.58
499.34	22867.62
499.55	23010.98
499.76	22845.09
499.96	22916.77
500.17	22998.69
500.37	23131.81
500.58	22904.48
500.78	23213.73
500.99	23019.17
501.19	23723.67
501.40	23533.21
501.60	23551.64
501.81	23305.88
502.02	23748.25
502.22	23527.06
502.43	23670.42
502.63	23969.43
502.84	24245.90
503.04	24084.11
503.25	24116.88
503.45	24413.84
503.66	24209.04
503.86	24151.70
504.07	24534.67
504.27	24235.66
504.48	24807.05
504.68	24364.68
504.89	24575.62
505.09	24921.73
505.30	24917.64
505.50	24819.33
505.71	24600.20
505.91	24878.72
506.12	24950.40
506.32	24956.55
506.53	25159.30
506.73	25194.11
506.94	25353.85
507.14	25228.93
507.35	25486.97
507.55	25460.35
507.76	25669.24
507.96	25335.42
508.17	25429.63
508.37	25781.88
508.58	25517.69
508.78	25935.48
508.99	25923.19
509.19	25933.43
509.40	26039.92
509.60	25976.44
509.81	26320.49
510.01	25792.12
510.22	26398.32
510.42	26365.55
510.63	26472.04
510.83	26513.00
511.04	26322.54
511.24	26703.46
511.44	26314.35
511.65	26570.35
511.85	26381.93
512.06	26826.34
512.26	26748.52
512.47	26781.29
512.67	26871.40
512.88	27018.85
513.08	26607.21
513.29	26863.21
513.49	27078.24
513.69	27192.93
513.90	27303.52
514.10	27219.55
514.31	27194.98
514.51	27262.56
514.72	27176.55
514.92	27313.76
515.13	27735.64
515.33	27405.92
515.53	27510.36
515.74	27514.46
515.94	27962.97
516.15	27825.75
516.35	27580.00
516.56	27983.44
516.76	27670.11
516.96	27723.35
517.17	28247.63
517.37	28022.36
517.58	28079.70
517.78	28313.17
517.99	28202.58
518.19	28886.60
518.39	28122.71
518.60	28591.69
518.80	28468.81
519.01	28587.60
519.21	28331.60
519.41	28749.39
519.62	28608.08
519.82	29009.48
520.03	29230.66
520.23	29257.28
520.43	28665.42
520.64	29345.34
520.84	29421.12
521.05	29320.77
521.25	29263.43
521.45	29290.05
521.66	29654.59
521.86	29544.00
522.07	29978.17
522.27	29701.69
522.47	29777.47
522.68	29984.31
522.88	29744.70
523.08	30281.27
523.29	30078.52
523.49	30418.48
523.70	30549.55
523.90	30230.07
524.10	30244.40
524.31	30275.12
524.51	30414.38
524.71	30897.70
524.92	30826.03
525.12	30864.94
525.33	31135.27
525.53	31057.45
525.73	31223.33
525.94	31077.93
526.14	31008.29
526.34	31358.50
526.55	31350.31
526.75	31385.12
526.95	31581.73
527.16	31372.83
527.36	31577.63
527.56	31972.89
527.77	32087.57
527.97	31987.22
528.17	31850.01
528.38	32257.56
528.58	31964.70
528.78	32536.08
528.99	32415.25
529.19	32562.70
529.39	32069.14
529.60	32730.64
529.80	32812.56
530.00	32568.85
530.21	32742.92
530.41	32900.62
530.61	32562.70
530.82	33048.07
531.02	32986.63
531.22	33230.34
531.43	33424.90
531.63	33506.82
531.83	33582.59
532.04	33814.01
532.24	33644.03
532.44	34418.16
532.64	34113.02
532.85	33889.79
533.05	34209.27
533.25	34270.71
533.46	34283.00
533.66	34616.82
533.86	34317.81
534.07	34768.37
534.27	34450.93
534.47	35188.20
534.67	35067.37
534.88	34729.45
535.08	34618.86
535.28	35436.00
535.49	35016.17
535.69	35493.35
535.89	35741.15
536.09	35538.40
536.30	36074.97
536.50	35878.36
536.70	35816.93
536.91	35720.67
537.11	35921.37
537.31	36144.60
537.51	36320.73
537.72	36472.28
537.92	36371.92
538.12	36517.33
538.32	36758.99
538.53	36537.81
538.73	36339.16
538.93	36234.71
539.13	36503.00
539.34	36650.45
539.54	36947.40
539.74	37174.73
539.94	37060.04
540.15	36814.29
540.35	37451.20
540.55	37266.89
540.75	37563.84
540.96	37461.44
541.16	37479.88
541.36	37727.68
541.56	37447.11
541.77	38092.22
541.97	37780.93
542.17	37805.50
542.37	37889.47
542.58	37977.53
542.78	38000.06
542.98	38071.74
543.18	38110.65
543.38	38690.23
543.59	38745.52
543.79	38364.60
543.99	38540.72
544.19	38589.88
544.40	38254.01
544.60	38813.10
544.80	38802.86
545.00	38815.15
545.20	38802.86
545.41	38657.46
545.61	39214.51
545.81	39671.20
546.01	39298.47
546.21	39232.94
546.42	38983.09
546.62	39351.72
546.82	39400.87
547.02	39347.62
547.22	39769.51
547.43	39658.91
547.63	39726.50
547.83	39886.24
548.03	39558.56
548.23	39957.92
548.44	39884.19
548.64	40240.54
548.84	40183.19
549.04	40336.79
549.24	40064.41
549.45	40132.00
549.65	40299.93
549.85	40691.09
550.05	40746.39
550.25	40172.96
550.45	41014.67
550.66	40506.77
550.86	40373.66
551.06	40789.39
551.26	40770.96
551.46	40981.90
551.66	40732.05
551.87	40906.13
552.07	41024.91
552.27	40832.40
552.47	41643.40
552.67	40871.31
552.87	41301.39
553.07	41166.22
553.28	41428.36
553.48	41399.69
553.68	41065.87
553.88	41833.86
554.08	41309.58
554.28	41295.24
554.48	40965.52
554.69	42030.46
554.89	41657.73
555.09	41909.63
555.29	41758.08
555.49	41657.73
555.69	41854.34
555.89	42212.73
556.10	42034.56
556.30	41887.10
556.50	41975.17
556.70	41686.40
556.90	42147.20
557.10	42331.51
557.30	42036.61
557.50	42380.67
557.70	42132.86
557.91	42247.55
558.11	42194.30
558.31	42788.21
558.51	41903.49
558.71	42259.84
558.91	42653.05
559.11	42661.24
559.31	42773.88
559.51	42411.38
559.72	42511.74
559.92	42982.77
560.12	42460.54
560.32	42689.91
560.52	42825.07
560.72	42710.39
560.92	43267.44
561.12	42982.77
561.32	42945.90
561.52	42712.44
561.72	43173.23
561.93	42958.19
562.13	43064.69
562.33	42775.92
562.53	43402.60
562.73	42939.76
562.93	43298.16
563.13	43416.94
563.33	43179.37
563.53	43509.10
563.73	43380.07
563.93	43335.02
564.13	43988.32
564.33	43498.86
564.53	43832.68
564.74	43973.98
564.94	43693.41
565.14	43685.22
565.34	43345.26
565.54	43851.11
565.74	43961.70
565.94	44375.39
566.14	43812.20
566.34	44070.24
566.54	44121.44
566.74	43693.41
566.94	44006.75
567.14	44391.77
567.34	44021.09
567.54	44451.16
567.74	44256.60
567.94	43957.60
568.14	44440.92
568.34	44311.90
568.54	44166.49
568.74	44696.92
568.94	44488.03
569.14	44977.49
569.34	44381.53
569.54	44305.76
569.75	44184.93
569.95	44735.83
570.15	45034.83
570.35	44864.85
570.55	44959.06
570.75	44873.04
570.95	44717.40
571.15	44991.83
571.35	44475.74
571.55	45264.21
571.75	45120.85
571.95	44758.36
572.15	45124.94
572.35	45075.79
572.55	45139.28
572.75	45081.94
572.95	44873.04
573.15	45544.78
573.35	45292.88
573.55	45110.61
573.75	45086.03
573.95	45702.47
574.15	45163.85
574.35	45546.82
574.55	45776.20
574.75	45114.70
574.95	45602.12
575.15	45794.63
575.34	45595.98
575.54	46241.09
575.74	45958.47
575.94	46077.25
576.14	46241.09
576.34	46339.39
576.54	46419.26
576.74	46357.82
576.94	46269.76
577.14	46396.73
577.34	46826.81
577.54	46196.03
577.74	46363.96
577.94	46167.36
578.14	46234.94
578.34	46871.86
578.54	45860.16
578.74	46617.91
578.94	46839.09
579.14	46232.89
579.34	46716.22
579.54	46523.71
579.74	47174.96
579.94	47138.10
580.13	47328.56
580.33	47162.67
580.53	46878.00
580.73	47281.45
580.93	47449.39
581.13	47007.03
581.33	47174.96
581.53	47441.20
581.73	47064.37
581.93	47484.20
582.13	47658.28
582.33	47711.53
582.53	47877.41
582.73	47988.00
582.92	47611.18
583.12	47930.66
583.32	48260.38
583.52	47815.97
583.72	47766.82
583.92	48129.31
584.12	47736.10
584.32	48764.18
584.52	48528.67
584.72	48282.91
584.92	48182.56
585.11	48895.25
585.31	48227.62
585.51	48403.74
585.71	48373.02
585.91	48731.42
586.11	48694.55
586.31	48446.75
586.51	48770.33
586.71	48495.90
586.91	49116.43
587.10	49059.09
587.30	48862.49
587.50	49337.62
587.70	49286.42
587.90	48618.78
588.10	48954.64
588.30	49315.09
588.50	49337.62
