SpectraSuite Data File
++++++++++++++++++++++++++++++++++++
Date: Fri Jun 02 14:51:09 CEST 2017
User: INFO_000
Dark Spectrum Present: No
Reference Spectrum Present: No
Number of Sampled Component Spectra: 1
Spectrometers: USB4H00879
Integration Time (usec): 80000 (USB4H00879)
Spectra Averaged: 1 (USB4H00879)
Boxcar Smoothing: 0 (USB4H00879)
Correct for Electrical Dark: No (USB4H00879)
Strobe/Lamp Enabled: No (USB4H00879)
Correct for Detector Non-linearity: No (USB4H00879)
Correct for Stray Light: No (USB4H00879)
Number of Pixels in Processed Spectrum: 3648
>>>>>Begin Processed Spectral Data<<<<<
345.13	1296.36
345.34	1296.36
345.56	1296.36
345.78	1279.98
345.99	1261.55
346.21	1699.81
346.42	1738.73
346.64	1634.28
346.86	1761.25
347.07	1742.82
347.29	1613.80
347.50	1648.61
347.72	1712.10
347.94	1751.01
348.15	1617.90
348.37	1644.52
348.59	1691.62
348.80	1634.28
349.02	1794.02
349.23	1841.12
349.45	1816.55
349.67	1914.85
349.88	1787.88
350.10	1920.99
350.31	1875.94
350.53	1912.80
350.75	2013.15
350.96	1785.83
351.18	1822.69
351.39	1896.42
351.61	1740.77
351.82	1822.69
352.04	1900.52
352.26	1884.13
352.47	1935.33
352.69	1935.33
352.90	1748.97
353.12	1841.12
353.34	1890.28
353.55	1920.99
353.77	1896.42
353.98	1781.73
354.20	1798.12
354.41	1904.61
354.63	1951.71
354.85	2019.30
355.06	1964.00
355.28	1730.53
355.49	1877.99
355.71	1802.21
355.92	1875.94
356.14	1959.91
356.35	1839.08
356.57	1888.23
356.79	1990.63
357.00	1880.04
357.22	1912.80
357.43	1853.41
357.65	1914.85
357.86	1816.55
358.08	1875.94
358.29	1959.91
358.51	2007.01
358.72	2002.91
358.94	1947.62
359.16	1953.76
359.37	1904.61
359.59	1931.23
359.80	1888.23
360.02	1890.28
360.23	1890.28
360.45	1957.86
360.66	1902.56
360.88	1900.52
361.09	1933.28
361.31	1998.82
361.52	1970.15
361.74	2060.26
361.95	2082.78
362.17	1990.63
362.38	2037.73
362.60	2019.30
362.81	1968.10
363.03	1906.66
363.24	1933.28
363.46	2039.78
363.67	2023.39
363.89	1912.80
364.10	1949.67
364.32	2015.20
364.53	1980.39
364.75	1822.69
364.96	2047.97
365.18	2011.11
365.39	1986.53
365.61	2033.63
365.82	2093.02
366.04	1980.39
366.25	1990.63
366.47	2090.98
366.68	2009.06
366.90	1988.58
367.11	2133.98
367.33	2076.64
367.54	2062.30
367.76	2050.02
367.97	2099.17
368.19	2023.39
368.40	2021.35
368.62	1994.72
368.83	1947.62
369.05	2060.26
369.26	1953.76
369.48	2017.25
369.69	1925.09
369.91	2052.06
370.12	1935.33
370.33	1992.67
370.55	1978.34
370.76	1992.67
370.98	2133.98
371.19	1984.48
371.41	1949.67
371.62	2041.82
371.84	2076.64
372.05	2156.51
372.27	2113.50
372.48	2043.87
372.69	2072.54
372.91	2058.21
373.12	2041.82
373.34	2058.21
373.55	2088.93
373.77	2174.94
373.98	2045.92
374.20	2197.47
374.41	2248.67
374.62	2105.31
374.84	2179.04
375.05	2197.47
375.27	2136.03
375.48	2156.51
375.70	2125.79
375.91	2193.37
376.12	2263.01
376.34	2144.22
376.55	2197.47
376.77	2254.81
376.98	2109.41
377.19	2197.47
377.41	2113.50
377.62	2189.28
377.84	2154.46
378.05	2281.44
378.27	2228.19
378.48	2318.30
378.69	2297.82
378.91	2240.48
379.12	2209.76
379.34	2258.91
379.55	2330.59
379.76	2265.05
379.98	2207.71
380.19	2183.13
380.41	2179.04
380.62	2297.82
380.83	2191.33
381.05	2140.13
381.26	2306.01
381.47	2256.86
381.69	2254.81
381.90	2416.60
382.12	2230.24
382.33	2273.25
382.54	2338.78
382.76	2310.11
382.97	2295.77
383.19	2205.66
383.40	2244.57
383.61	2269.15
383.83	2277.34
384.04	2338.78
384.25	2322.40
384.47	2400.22
384.68	2346.97
384.89	2205.66
385.11	2222.05
385.32	2242.53
385.54	2342.88
385.75	2289.63
385.96	2322.40
386.18	2342.88
386.39	2346.97
386.60	2338.78
386.82	2387.93
387.03	2420.70
387.24	2443.23
387.46	2387.93
387.67	2428.89
387.88	2514.91
388.10	2455.51
388.31	2461.66
388.52	2547.67
388.74	2445.27
388.95	2451.42
389.16	2402.27
389.38	2426.84
389.59	2459.61
389.80	2439.13
390.02	2492.38
390.23	2529.24
390.44	2510.81
390.66	2557.91
390.87	2408.41
391.08	2666.46
391.30	2654.17
391.51	2639.83
391.72	2598.87
391.94	2580.44
392.15	2688.98
392.36	2578.39
392.58	2496.47
392.79	2484.19
393.00	2600.92
393.22	2697.17
393.43	2709.46
393.64	2676.70
393.85	2736.09
394.07	2611.16
394.28	2594.78
394.49	2723.80
394.71	2662.36
394.92	2748.37
395.13	2600.92
395.35	2668.50
395.56	2731.99
395.77	2688.98
395.98	2707.41
396.20	2656.22
396.41	2811.86
396.62	2815.96
396.84	2799.57
397.05	2797.53
397.26	2897.88
397.47	2801.62
397.69	2801.62
397.90	2967.51
398.11	2924.50
398.32	2797.53
398.54	2777.05
398.75	2850.77
398.96	2920.40
399.18	3090.38
399.39	2854.87
399.60	3041.23
399.81	2869.20
400.03	2924.50
400.24	3246.03
400.45	2899.92
400.66	2899.92
400.88	2854.87
401.09	3248.08
401.30	2930.64
401.51	3141.58
401.73	3067.86
401.94	3045.33
402.15	3026.90
402.36	3141.58
402.58	3061.71
402.79	3041.23
403.00	3076.05
403.21	3194.83
403.43	3129.30
403.64	3178.45
403.85	3076.05
404.06	3207.12
404.27	3041.23
404.49	3067.86
404.70	3067.86
404.91	3235.79
405.12	3121.10
405.34	3258.32
405.55	3299.28
405.76	2992.08
405.97	3229.65
406.19	3260.37
406.40	3274.70
406.61	3231.69
406.82	3284.94
407.03	3192.78
407.25	3205.07
407.46	3252.17
407.67	3418.06
407.88	3315.66
408.09	3264.46
408.31	3323.85
408.52	3323.85
408.73	3178.45
408.94	3194.83
409.15	3344.33
409.37	3542.99
409.58	3467.21
409.79	3422.16
410.00	3434.44
410.21	3313.61
410.43	3403.72
410.64	3354.57
410.85	3354.57
411.06	3409.87
411.27	3499.98
411.48	3518.41
411.70	3475.40
411.91	3459.02
412.12	3620.81
412.33	3461.07
412.54	3520.46
412.76	3676.10
412.97	3518.41
413.18	3516.36
413.39	3477.45
413.60	3600.33
413.81	3590.09
414.03	3567.56
414.24	3499.98
414.45	3755.97
414.66	3561.42
414.87	3684.30
415.08	3608.52
415.30	3575.75
415.51	3645.38
415.72	3755.97
415.93	3639.24
416.14	3702.73
416.35	3831.75
416.56	3753.93
416.78	3678.15
416.99	3710.92
417.20	3874.76
417.41	3805.13
417.62	3780.55
417.83	3856.33
418.04	3803.08
418.26	3932.10
418.47	3841.99
418.68	3956.68
418.89	3897.28
419.10	4036.55
419.31	3987.40
419.52	3905.48
419.73	3907.52
419.95	4022.21
420.16	3841.99
420.37	3956.68
420.58	3923.91
420.79	3737.54
421.00	3917.76
421.21	4071.36
421.42	3846.09
421.63	3981.25
421.85	3960.77
422.06	3995.59
422.27	4059.07
422.48	3968.96
422.69	4083.65
422.90	4044.74
423.11	4020.16
423.32	4042.69
423.53	4241.34
423.75	4157.38
423.96	4241.34
424.17	4136.90
424.38	4272.06
424.59	4122.56
424.80	4341.69
425.01	4231.10
425.22	4124.61
425.43	4149.18
425.64	4501.44
425.85	4392.89
426.06	4401.08
426.28	4304.83
426.49	4296.64
426.70	4288.45
426.91	4417.47
427.12	4519.87
427.33	4450.24
427.54	4497.34
427.75	4530.11
427.96	4687.80
428.17	4597.69
428.38	4620.22
428.59	4581.31
428.80	4409.28
429.01	4679.61
429.23	4626.36
429.44	4810.68
429.65	4665.27
429.86	4878.26
430.07	4657.08
430.28	4614.07
430.49	4722.62
430.70	4728.76
430.91	4845.49
431.12	4718.52
431.33	4935.60
431.54	5003.19
431.75	4782.01
431.96	4923.32
432.17	4769.72
432.38	4890.55
432.59	5027.76
432.80	5093.30
433.01	5117.87
433.22	5091.25
433.43	5132.21
433.64	5031.86
433.85	5062.58
434.06	5230.51
434.27	5029.81
434.49	5072.82
434.70	5339.05
434.91	5117.87
435.12	5263.28
435.33	5109.68
435.54	5255.09
435.75	5281.71
435.96	5300.14
436.17	5144.50
436.38	5547.95
436.59	5466.03
436.80	5289.90
437.01	5509.04
437.22	5599.15
437.43	5420.97
437.64	5310.38
437.85	5582.76
438.06	5728.17
438.27	5457.84
438.48	5511.08
438.69	5664.68
438.90	5590.95
439.11	5457.84
439.32	5621.67
439.53	5652.39
439.74	5742.50
439.95	5627.82
440.16	5648.30
440.37	5609.39
440.57	5578.67
440.78	5726.12
440.99	5875.62
441.20	5715.88
441.41	5719.98
441.62	5672.87
441.83	5656.49
442.04	5855.14
442.25	5844.90
442.46	5840.81
442.67	5945.25
442.88	6258.59
443.09	5818.28
443.30	5801.90
443.51	6029.22
443.72	6219.68
443.93	5861.29
444.14	6231.97
444.35	5840.81
444.56	6070.18
444.77	6121.38
444.98	6178.72
445.19	6242.21
445.40	5988.26
445.61	6205.35
445.81	6309.79
446.02	6307.74
446.23	6234.02
446.44	6072.23
446.65	6354.85
446.86	6168.48
447.07	6483.87
447.28	6498.20
447.49	6539.16
447.70	6352.80
447.91	6504.35
448.12	6324.13
448.33	6621.08
448.54	6700.95
448.74	6508.44
448.95	6659.99
449.16	6471.58
449.37	6782.87
449.58	6565.79
449.79	6772.63
450.00	6768.54
450.21	6813.59
450.42	6864.79
450.63	6948.76
450.84	6631.32
451.05	6836.12
451.25	6864.79
451.46	6825.88
451.67	6903.70
451.88	6965.14
452.09	6973.33
452.30	6866.84
452.51	7071.64
452.72	7090.07
452.93	7161.75
453.13	7010.20
453.34	7057.30
453.55	7032.72
453.76	6991.77
453.97	7401.36
454.18	7157.65
454.39	7387.02
454.60	7137.17
454.81	7184.27
455.01	7454.61
455.22	7260.05
455.43	7307.15
455.64	7372.69
455.85	7673.74
456.06	7710.60
456.27	7456.65
456.48	7499.66
456.68	7593.87
456.89	7593.87
457.10	7692.17
457.31	7612.30
457.52	7577.48
457.73	7876.49
457.94	8025.99
458.14	7571.34
458.35	8195.97
458.56	7966.60
458.77	7878.54
458.98	7989.13
459.19	7995.27
459.39	7999.37
459.60	8109.96
459.81	7982.98
460.02	8382.34
460.23	8095.62
460.44	8226.69
460.65	8415.10
460.85	8470.40
461.06	8488.83
461.27	8318.85
461.48	8613.76
461.69	8660.86
461.89	8302.47
462.10	8550.27
462.31	8458.11
462.52	8546.17
462.73	8605.56
462.94	8732.54
463.14	8691.58
463.35	8791.93
463.56	9269.11
463.77	9152.37
463.98	8888.18
464.18	8892.28
464.39	9004.92
464.60	9303.92
464.81	8990.58
465.02	9146.23
465.23	9447.28
465.43	9138.04
465.64	9375.60
465.85	9133.94
466.06	9330.55
466.27	9586.54
466.47	9514.86
466.68	9604.97
466.89	9432.94
467.10	9682.80
467.30	9299.83
467.51	9764.72
467.72	9992.04
467.93	9527.15
468.14	9856.87
468.34	10037.09
468.55	10073.96
468.76	9924.46
468.97	9744.24
469.17	10155.88
469.38	10205.03
469.59	10274.66
469.80	10342.24
470.01	10377.06
470.21	10395.49
470.42	10635.10
470.63	10528.61
470.84	10415.97
471.04	10854.23
471.25	10745.69
471.46	10581.85
471.67	10864.47
471.87	10911.58
472.08	11036.50
472.29	11222.87
472.50	10526.56
472.70	11136.85
472.91	10913.63
473.12	11456.34
473.33	11175.77
473.53	11636.56
473.74	11323.22
473.95	11407.19
474.16	11683.66
474.36	11698.00
474.57	11974.47
474.78	12150.60
474.99	11872.07
475.19	11843.40
475.40	12115.78
475.61	12138.31
475.81	12308.29
476.02	12556.10
476.23	12261.19
476.44	12472.13
476.64	12595.01
476.85	12842.81
477.06	12693.31
477.27	13008.70
477.47	12963.64
477.68	12894.01
477.89	13203.25
478.09	13045.56
478.30	13266.74
478.51	13285.17
478.71	13506.35
478.92	13401.91
479.13	13506.35
479.34	13811.50
479.54	13666.10
479.75	13848.36
479.96	13815.60
480.16	13946.67
480.37	14073.64
480.58	14366.50
480.78	14298.92
480.99	14356.26
481.20	14452.52
481.41	14712.61
481.61	14751.52
481.82	14929.69
482.03	14501.67
482.23	14667.55
482.44	15240.98
482.65	15032.09
482.85	15044.38
483.06	14999.32
483.27	15003.42
483.47	15300.37
483.68	15394.58
483.89	15580.95
484.09	15572.75
484.30	15671.06
484.51	16056.08
484.71	15851.28
484.92	16033.55
485.13	16111.37
485.33	16201.48
485.54	15955.72
485.75	16359.17
485.95	16441.09
486.16	16688.90
486.37	16606.98
486.57	16817.92
486.78	16643.84
486.98	16535.30
487.19	16844.54
487.40	16994.04
487.60	17192.70
487.81	16985.85
488.02	17319.67
488.22	17385.21
488.43	17714.93
488.64	17374.97
488.84	17612.53
489.05	17647.35
489.25	17551.09
489.46	17889.01
489.67	18044.65
489.87	18226.92
490.08	18050.80
490.29	18286.31
490.49	18636.52
490.70	18521.83
490.90	18816.74
491.11	18773.73
491.32	18783.97
491.52	19023.58
491.73	19156.70
491.94	19080.92
492.14	19050.21
492.35	19302.11
492.55	19504.85
492.76	19478.23
492.97	19400.41
493.17	19621.59
493.38	19816.15
493.58	19967.70
493.79	20205.26
494.00	19869.39
494.20	20098.77
494.41	20225.74
494.61	20340.43
494.82	19873.49
495.02	20326.09
495.23	20770.50
495.44	20850.37
495.64	20774.60
495.85	20690.63
496.05	20999.87
496.26	20938.43
496.47	21358.27
496.67	21339.83
496.88	21288.64
497.08	20874.95
497.29	21317.31
497.49	21186.24
497.70	21550.78
497.91	21513.91
498.11	21968.56
498.32	21884.59
498.52	21946.03
498.73	22079.15
498.93	21989.04
499.14	22417.07
499.34	22159.02
499.55	22015.66
499.76	22187.69
499.96	22582.95
500.17	22361.77
500.37	22568.62
500.58	22650.53
500.78	22935.20
500.99	22718.12
501.19	23049.89
501.40	22730.41
501.60	22800.04
501.81	23164.57
502.02	23340.70
502.22	22980.26
502.43	23381.66
502.63	23449.24
502.84	23291.55
503.04	23330.46
503.25	23393.95
503.45	23426.71
503.66	23959.19
503.86	23760.53
504.07	24094.35
504.27	23484.06
504.48	23989.91
504.68	24213.13
504.89	24469.13
505.09	23971.47
505.30	24163.98
505.50	24258.19
505.71	24037.01
505.91	24471.18
506.12	24759.94
506.32	24635.02
506.53	24383.12
506.73	24829.57
506.94	24788.61
507.14	24620.68
507.35	25015.94
507.55	24946.31
507.76	25179.78
507.96	24766.09
508.17	24895.11
508.37	25065.09
508.58	25015.94
508.78	25149.06
508.99	25206.40
509.19	25368.19
509.40	25439.87
509.60	25058.95
509.81	25314.94
510.01	25218.69
510.22	25513.59
510.42	25482.88
510.63	25865.85
510.83	25740.92
511.04	25740.92
511.24	25728.63
511.44	25894.52
511.65	25841.27
511.85	25927.28
512.06	26023.54
512.26	25773.69
512.47	26084.98
512.67	26037.87
512.88	26426.99
513.08	26017.40
513.29	26230.38
513.49	26216.05
513.69	26373.74
513.90	26445.42
514.10	26347.12
514.31	26269.30
514.51	26654.31
514.72	26482.28
514.92	26369.65
515.13	26760.81
515.33	26560.11
515.53	26775.14
515.74	26912.36
515.94	26924.65
516.15	26902.12
516.35	26551.91
516.56	26877.54
516.76	26867.30
516.96	27186.79
517.17	27078.24
517.37	26756.71
517.58	27250.27
517.78	27231.84
517.99	27573.85
518.19	27139.68
518.39	27541.08
518.60	27735.64
518.80	27301.47
519.01	27473.50
519.21	27285.09
519.41	27809.37
519.62	27358.81
519.82	27610.71
520.03	28030.55
520.23	27883.09
520.43	27749.98
520.64	28010.07
520.84	28341.84
521.05	28157.52
521.25	28292.69
521.45	28411.47
521.66	28122.71
521.86	28137.04
522.07	28481.10
522.27	28446.29
522.47	28225.11
522.68	28835.40
522.88	28329.55
523.08	28739.15
523.29	28743.24
523.49	28702.28
523.70	28698.19
523.90	29236.80
524.10	29025.86
524.31	29222.47
524.51	28599.88
524.71	29740.60
524.92	29095.49
525.12	29447.74
525.33	29619.77
525.53	29195.84
525.73	29699.64
525.94	29834.81
526.14	29582.91
526.34	29607.48
526.55	29609.53
526.75	30000.69
526.95	29947.45
527.16	30285.36
527.36	30004.79
527.56	29914.68
527.77	30293.55
527.97	30404.14
528.17	30391.86
528.38	30600.75
528.58	30502.45
528.78	30778.92
528.99	30549.55
529.19	30877.22
529.39	30694.96
529.60	30912.04
529.80	30770.73
530.00	30654.00
530.21	31065.64
530.41	31096.36
530.61	30963.24
530.82	31299.11
531.02	31077.93
531.22	31530.53
531.43	31413.79
531.63	31430.18
531.83	31866.39
532.04	32149.01
532.24	31604.25
532.44	32251.41
532.64	31989.27
532.85	32192.02
533.05	32001.56
533.25	32450.06
533.46	32146.97
533.66	32609.81
533.86	32359.95
534.07	32699.92
534.27	32773.64
534.47	32876.04
534.67	33201.67
534.88	32620.05
535.08	33328.64
535.28	33166.85
535.49	33207.81
535.69	33601.02
535.89	33334.79
536.09	33463.81
536.30	33793.53
536.50	33631.74
536.70	33891.83
536.91	33756.67
537.11	33922.55
537.31	33666.56
537.51	34108.92
537.72	34223.61
537.92	34407.92
538.12	34518.51
538.32	34037.24
538.53	34403.83
538.73	34375.16
538.93	34166.26
539.13	34469.36
539.34	34651.63
539.54	34647.54
539.74	34936.30
539.94	34846.19
540.15	35003.88
540.35	35241.45
540.55	35167.72
540.75	35476.96
540.96	35155.43
541.16	35558.88
541.36	35427.81
541.56	35524.07
541.77	35868.12
541.97	35845.60
542.17	35884.51
542.37	35517.92
542.58	35986.91
542.78	35923.42
542.98	35927.52
543.18	36214.23
543.38	36584.91
543.59	36672.98
543.79	36228.57
543.99	36343.25
544.19	36316.63
544.40	36582.87
544.60	36672.98
544.80	37084.62
545.00	36664.78
545.20	37477.83
545.41	36724.18
545.61	36804.05
545.81	37113.29
546.01	37606.85
546.21	37060.04
546.42	37037.51
546.62	37445.06
546.82	37266.89
547.02	37844.41
547.22	37660.10
547.43	37541.32
547.63	37645.76
547.83	37905.85
548.03	37492.16
548.23	38258.10
548.44	37821.89
548.64	37713.34
548.84	38118.84
549.04	37680.58
549.24	38243.77
549.45	38823.34
549.65	38323.64
549.85	38292.92
550.05	38655.41
550.25	38493.62
550.45	38815.15
550.66	38878.64
550.86	38682.03
551.06	38821.30
551.26	39214.51
551.46	38929.84
551.66	39138.73
551.87	38995.37
552.07	39243.18
552.27	39159.21
552.47	38915.50
552.67	39325.10
552.87	39306.66
553.07	39560.61
553.28	39509.41
553.48	39558.56
553.68	39558.56
553.88	40039.84
554.08	39724.45
554.28	39671.20
554.48	39525.80
554.69	40134.04
554.89	40322.46
555.09	40261.02
555.29	40160.67
555.49	40344.98
555.69	40195.48
555.89	40080.80
556.10	40674.71
556.30	40031.65
556.50	40576.40
556.70	40168.86
556.90	40990.09
557.10	40592.79
557.30	40267.16
557.50	40832.40
557.70	40955.28
557.91	40721.81
558.11	40818.07
558.31	40986.00
558.51	40838.54
558.71	41067.92
558.91	41248.14
559.11	40877.46
559.31	41213.32
559.51	40908.18
559.72	41084.30
559.92	41584.01
560.12	40861.07
560.32	41485.70
560.52	41141.64
560.72	41178.51
560.92	41510.28
561.12	41547.14
561.32	41655.68
561.52	41260.43
561.72	41944.45
561.93	41600.39
562.13	42114.43
562.33	41954.69
562.53	42478.97
562.73	41614.72
562.93	42151.29
563.13	42294.65
563.33	41715.08
563.53	42356.09
563.73	41661.83
563.93	42345.85
564.13	42859.89
564.33	42589.56
564.53	42317.18
564.74	42675.57
564.94	42126.72
565.14	42685.81
565.34	42425.72
565.54	42462.58
565.74	42567.03
565.94	42974.58
566.14	42990.96
566.34	42395.00
566.54	43283.82
566.74	43052.40
566.94	42863.99
567.14	43287.92
567.34	42837.36
567.54	42900.85
567.74	43021.68
567.94	42702.20
568.14	43146.61
568.34	43216.24
568.54	43165.04
568.74	43668.84
568.94	43283.82
569.14	43752.80
569.34	43371.88
569.54	43728.23
569.75	43220.33
569.95	43494.76
570.15	44135.77
570.35	43562.34
570.55	43742.56
570.75	44066.14
570.95	43955.55
571.15	43771.24
571.35	43976.03
571.55	44107.10
571.75	43824.48
571.95	44377.43
572.15	44141.92
572.35	44105.06
572.55	44373.34
572.75	44191.07
572.95	44201.31
573.15	44229.98
573.35	44143.97
573.55	44283.23
573.75	44268.89
573.95	44928.34
574.15	44146.01
574.35	44275.04
574.55	44213.60
574.75	44332.38
574.95	44963.15
575.15	44660.05
575.34	44510.55
575.54	44989.78
575.74	45079.89
575.94	44868.95
576.14	44922.19
576.34	45194.57
576.54	45253.97
576.74	45313.36
576.94	45329.74
577.14	45184.33
577.34	45565.26
577.54	45305.16
577.74	45348.17
577.94	45362.51
578.14	45403.47
578.34	45577.54
578.54	45202.77
578.74	45581.64
578.94	45690.18
579.14	45757.77
579.34	45559.11
579.54	45405.52
579.74	46110.02
579.94	45716.81
580.13	46011.71
580.33	46388.54
580.53	45733.19
580.73	46046.53
580.93	46103.87
581.13	45956.42
581.33	46449.98
581.53	45833.54
581.73	46292.29
581.93	46138.69
582.13	46284.09
582.33	46355.77
582.53	46265.66
582.73	46400.83
582.92	46540.09
583.12	46753.08
583.32	47031.60
583.52	46241.09
583.72	46427.45
583.92	46878.00
584.12	46777.65
584.32	47248.69
584.52	46531.90
584.72	46724.41
584.92	47316.27
585.11	47611.18
585.31	47209.78
585.51	47408.43
585.71	46818.61
585.91	47471.92
586.11	47365.42
586.31	46837.05
586.51	46984.50
586.71	47357.23
586.91	47551.79
587.10	47283.50
587.30	47338.80
587.50	47686.95
587.70	47412.52
587.90	47691.05
588.10	47201.58
588.30	47627.56
588.50	47832.36
588.69	47228.21
