SpectraSuite Data File
++++++++++++++++++++++++++++++++++++
Date: Fri Jun 02 14:51:09 CEST 2017
User: INFO_000
Dark Spectrum Present: No
Reference Spectrum Present: No
Number of Sampled Component Spectra: 1
Spectrometers: USB4H00879
Integration Time (usec): 80000 (USB4H00879)
Spectra Averaged: 1 (USB4H00879)
Boxcar Smoothing: 0 (USB4H00879)
Correct for Electrical Dark: No (USB4H00879)
Strobe/Lamp Enabled: No (USB4H00879)
Correct for Detector Non-linearity: No (USB4H00879)
Correct for Stray Light: No (USB4H00879)
Number of Pixels in Processed Spectrum: 3648
>>>>>Begin Processed Spectral Data<<<<<
345.13	1265.64
345.34	1265.64
345.56	1265.64
345.78	1349.61
345.99	1294.32
346.21	1697.77
346.42	1714.15
346.64	1601.51
346.86	1742.82
347.07	1630.18
347.29	1708.01
347.50	1578.98
347.72	1640.42
347.94	1708.01
348.15	1558.50
348.37	1619.94
348.59	1691.62
348.80	1658.85
349.02	1757.16
349.23	1908.71
349.45	1847.27
349.67	1894.37
349.88	1863.65
350.10	1908.71
350.31	1849.32
350.53	1830.88
350.75	1918.95
350.96	1787.88
351.18	1847.27
351.39	1851.36
351.61	1873.89
351.82	1914.85
352.04	1931.23
352.26	1871.84
352.47	1904.61
352.69	1894.37
352.90	1732.58
353.12	1923.04
353.34	1843.17
353.55	1972.19
353.77	1875.94
353.98	1808.36
354.20	1816.55
354.41	1884.13
354.63	1886.18
354.85	2035.68
355.06	1794.02
355.28	1847.27
355.49	1783.78
355.71	1941.47
355.92	1904.61
356.14	1916.90
356.35	1910.75
356.57	1798.12
356.79	1861.60
357.00	1884.13
357.22	1953.76
357.43	1877.99
357.65	1984.48
357.86	1920.99
358.08	1920.99
358.29	1920.99
358.51	1984.48
358.72	2050.02
358.94	1923.04
359.16	1871.84
359.37	1929.19
359.59	2007.01
359.80	1966.05
360.02	1933.28
360.23	1920.99
360.45	2056.16
360.66	1810.40
360.88	1931.23
361.09	2004.96
361.31	1970.15
361.52	1888.23
361.74	1986.53
361.95	1980.39
362.17	1959.91
362.38	2007.01
362.60	1994.72
362.81	2007.01
363.03	1890.28
363.24	2029.54
363.46	2033.63
363.67	1998.82
363.89	1996.77
364.10	1957.86
364.32	1992.67
364.53	2033.63
364.75	1884.13
364.96	2093.02
365.18	1941.47
365.39	1966.05
365.61	1929.19
365.82	2140.13
366.04	2025.44
366.25	2002.91
366.47	1982.43
366.68	2000.87
366.90	1949.67
367.11	2064.35
367.33	2047.97
367.54	2025.44
367.76	1937.38
367.97	2133.98
368.19	2004.96
368.40	2050.02
368.62	1933.28
368.83	2015.20
369.05	2058.21
369.26	1959.91
369.48	2015.20
369.69	2002.91
369.91	2074.59
370.12	1998.82
370.33	2062.30
370.55	2023.39
370.76	2025.44
370.98	2113.50
371.19	2011.11
371.41	2019.30
371.62	2074.59
371.84	1961.95
372.05	2156.51
372.27	2099.17
372.48	2029.54
372.69	2050.02
372.91	2127.84
373.12	2148.32
373.34	2064.35
373.55	2035.68
373.77	2125.79
373.98	2064.35
374.20	2136.03
374.41	2234.33
374.62	2080.74
374.84	2148.32
375.05	2244.57
375.27	2170.85
375.48	2201.57
375.70	2217.95
375.91	2133.98
376.12	2271.20
376.34	2176.99
376.55	2181.09
376.77	2158.56
376.98	2140.13
377.19	2113.50
377.41	2088.93
377.62	2211.81
377.84	2195.42
378.05	2338.78
378.27	2193.37
378.48	2248.67
378.69	2363.36
378.91	2318.30
379.12	2199.52
379.34	2199.52
379.55	2293.72
379.76	2211.81
379.98	2174.94
380.19	2306.01
380.41	2238.43
380.62	2236.38
380.83	2230.24
381.05	2183.13
381.26	2355.16
381.47	2215.90
381.69	2168.80
381.90	2269.15
382.12	2275.29
382.33	2271.20
382.54	2267.10
382.76	2222.05
382.97	2291.68
383.19	2246.62
383.40	2320.35
383.61	2263.01
383.83	2217.95
384.04	2242.53
384.25	2402.27
384.47	2338.78
384.68	2334.68
384.89	2299.87
385.11	2269.15
385.32	2420.70
385.54	2322.40
385.75	2220.00
385.96	2404.32
386.18	2394.08
386.39	2361.31
386.60	2351.07
386.82	2318.30
387.03	2363.36
387.24	2420.70
387.46	2406.36
387.67	2426.84
387.88	2408.41
388.10	2447.32
388.31	2410.46
388.52	2463.71
388.74	2420.70
388.95	2467.80
389.16	2512.86
389.38	2478.04
389.59	2570.20
389.80	2508.76
390.02	2467.80
390.23	2516.95
390.44	2553.82
390.66	2547.67
390.87	2459.61
391.08	2516.95
391.30	2545.63
391.51	2519.00
391.72	2686.94
391.94	2549.72
392.15	2656.22
392.36	2570.20
392.58	2576.34
392.79	2547.67
393.00	2684.89
393.22	2617.30
393.43	2746.33
393.64	2707.41
393.85	2695.13
394.07	2629.59
394.28	2680.79
394.49	2738.13
394.71	2715.61
394.92	2652.12
395.13	2617.30
395.35	2586.58
395.56	2650.07
395.77	2684.89
395.98	2727.89
396.20	2815.96
396.41	2699.22
396.62	2904.02
396.84	2729.94
397.05	2711.51
397.26	2772.95
397.47	2863.06
397.69	2680.79
397.90	3026.90
398.11	2828.24
398.32	2801.62
398.54	2877.40
398.75	2815.96
398.96	2854.87
399.18	2990.03
399.39	2908.12
399.60	2885.59
399.81	2928.60
400.03	2916.31
400.24	3125.20
400.45	2924.50
400.66	3049.43
400.88	2996.18
401.09	3182.54
401.30	3033.04
401.51	3051.47
401.73	2983.89
401.94	3051.47
402.15	3016.66
402.36	3010.51
402.58	3049.43
402.79	3221.45
403.00	3155.92
403.21	3057.62
403.43	3123.15
403.64	3246.03
403.85	3112.91
404.06	3227.60
404.27	3047.38
404.49	3190.74
404.70	3133.39
404.91	3313.61
405.12	3117.01
405.34	3196.88
405.55	3360.72
405.76	3114.96
405.97	3139.54
406.19	3215.31
406.40	3180.50
406.61	3229.65
406.82	3246.03
407.03	3250.13
407.25	3166.16
407.46	3411.92
407.67	3299.28
407.88	3428.30
408.09	3274.70
408.31	3262.41
408.52	3311.57
408.73	3274.70
408.94	3250.13
409.15	3438.54
409.37	3418.06
409.58	3489.74
409.79	3362.76
410.00	3530.70
410.21	3336.14
410.43	3426.25
410.64	3342.28
410.85	3413.96
411.06	3491.79
411.27	3385.29
411.48	3456.97
411.70	3575.75
411.91	3522.51
412.12	3663.82
412.33	3514.31
412.54	3596.23
412.76	3516.36
412.97	3612.62
413.18	3456.97
413.39	3581.90
413.60	3626.95
413.81	3561.42
414.03	3540.94
414.24	3583.95
414.45	3745.73
414.66	3401.68
414.87	3715.02
415.08	3663.82
415.30	3583.95
415.51	3792.84
415.72	3575.75
415.93	3706.82
416.14	3682.25
416.35	3829.70
416.56	3616.71
416.78	3772.36
416.99	3657.67
417.20	3700.68
417.41	3813.32
417.62	3760.07
417.83	3819.46
418.04	3792.84
418.26	3809.22
418.47	3798.98
418.68	3803.08
418.89	3968.96
419.10	3891.14
419.31	3846.09
419.52	3942.34
419.73	3987.40
419.95	3839.94
420.16	3794.89
420.37	3811.27
420.58	4036.55
420.79	3772.36
421.00	3852.23
421.21	4050.88
421.42	3917.76
421.63	3936.20
421.85	3911.62
422.06	4169.66
422.27	4093.89
422.48	3989.44
422.69	4192.19
422.90	4007.87
423.11	4083.65
423.32	4054.98
423.53	4435.90
423.75	4186.05
423.96	4259.78
424.17	4104.13
424.38	4263.87
424.59	4259.78
424.80	4304.83
425.01	4247.49
425.22	4237.25
425.43	4366.27
425.64	4341.69
425.85	4429.76
426.06	4302.78
426.28	4325.31
426.49	4267.97
426.70	4288.45
426.91	4419.52
427.12	4532.15
427.33	4464.57
427.54	4415.42
427.75	4542.39
427.96	4571.07
428.17	4382.65
428.38	4564.92
428.59	4558.78
428.80	4485.05
429.01	4743.10
429.23	4630.46
429.44	4863.93
429.65	4722.62
429.86	4773.82
430.07	4622.27
430.28	4673.46
430.49	4704.18
430.70	4886.45
430.91	4802.49
431.12	4751.29
431.33	4837.30
431.54	4929.46
431.75	4935.60
431.96	4923.32
432.17	5007.28
432.38	4847.54
432.59	5062.58
432.80	5074.87
433.01	5074.87
433.22	5134.26
433.43	5169.07
433.64	4968.37
433.85	5062.58
434.06	5167.03
434.27	5062.58
434.49	5101.49
434.70	5306.29
434.91	5154.74
435.12	5218.22
435.33	5220.27
435.54	5179.31
435.75	5140.40
435.96	5195.70
436.17	5234.61
436.38	5195.70
436.59	5373.87
436.80	5240.75
437.01	5511.08
437.22	5560.24
437.43	5392.30
437.64	5224.37
437.85	5646.25
438.06	5603.24
438.27	5384.11
438.48	5476.27
438.69	5572.52
438.90	5590.95
439.11	5449.64
439.32	5724.07
439.53	5711.78
439.74	5580.71
439.95	5672.87
440.16	5775.27
440.37	5586.86
440.57	5607.34
440.78	5631.91
440.99	5785.51
441.20	5906.34
441.41	5629.87
441.62	5711.78
441.83	5875.62
442.04	5826.47
442.25	5873.57
442.46	5853.09
442.67	6066.08
442.88	6238.11
443.09	5928.87
443.30	5935.01
443.51	5949.35
443.72	6213.54
443.93	5994.40
444.14	6205.35
444.35	5916.58
444.56	6184.87
444.77	6078.37
444.98	6197.15
445.19	6215.59
445.40	6139.81
445.61	6078.37
445.81	6227.87
446.02	6385.57
446.23	6199.20
446.44	6180.77
446.65	6377.37
446.86	6289.31
447.07	6453.15
447.28	6621.08
447.49	6406.05
447.70	6410.14
447.91	6512.54
448.12	6348.70
448.33	6616.99
448.54	6805.40
448.74	6414.24
448.95	6696.86
449.16	6375.33
449.37	6924.18
449.58	6713.24
449.79	6932.37
450.00	6584.22
450.21	6721.43
450.42	6758.30
450.63	6959.00
450.84	6750.10
451.05	7008.15
451.25	6875.03
451.46	6795.16
451.67	7075.73
451.88	7057.30
452.09	6946.71
452.30	6868.89
452.51	7028.63
452.72	7212.95
452.93	7460.75
453.13	6877.08
453.34	7116.69
453.55	7153.55
453.76	7194.51
453.97	7548.81
454.18	7194.51
454.39	7442.32
454.60	7176.08
454.81	7184.27
455.01	7458.70
455.22	7190.42
455.43	7405.46
455.64	7421.84
455.85	7651.21
456.06	7817.10
456.27	7557.00
456.48	7595.92
456.68	7661.45
456.89	7669.64
457.10	7890.82
457.31	7628.68
457.52	7665.55
457.73	7853.96
457.94	7982.98
458.14	7864.20
458.35	8193.92
458.56	7825.29
458.77	7839.62
458.98	8060.80
459.19	8187.78
459.39	8142.72
459.60	8281.99
459.81	8198.02
460.02	8171.40
460.23	8150.92
460.44	8376.19
460.65	8433.54
460.85	8437.63
461.06	8341.38
461.27	8292.23
461.48	8740.73
461.69	8705.92
461.89	8198.02
462.10	8642.43
462.31	8341.38
462.52	8574.85
462.73	8724.35
462.94	8828.79
463.14	8599.42
463.35	8703.87
463.56	9197.43
463.77	9095.03
463.98	8933.24
464.18	8998.77
464.39	8896.38
464.60	9316.21
464.81	9246.58
465.02	9164.66
465.23	9482.10
465.43	9088.89
465.64	9369.46
465.85	9416.56
466.06	9279.35
466.27	9639.79
466.47	9447.28
466.68	9705.32
466.89	9680.75
467.10	9455.47
467.30	9559.92
467.51	9666.41
467.72	10035.05
467.93	9684.84
468.14	9865.07
468.34	9828.20
468.55	10045.29
468.76	10108.77
468.97	10053.48
469.17	10088.29
469.38	10110.82
469.59	10332.00
469.80	10192.74
470.01	10280.80
470.21	10313.57
470.42	10438.50
470.63	10610.53
470.84	10440.54
471.04	10641.25
471.25	10641.25
471.46	10827.61
471.67	10817.37
471.87	10764.12
472.08	10917.72
472.29	11237.20
472.50	10850.14
472.70	10915.67
472.91	11081.56
473.12	11022.17
473.33	11243.35
473.53	11511.63
473.74	11372.37
473.95	11728.72
474.16	11607.89
474.36	11718.48
474.57	11820.88
474.78	11831.12
474.99	11640.65
475.19	11757.39
475.40	12121.93
475.61	12316.48
475.81	12453.70
476.02	12455.75
476.23	12226.37
476.44	12373.83
476.64	12803.90
476.85	12711.74
477.06	12863.29
477.27	12937.02
477.47	12875.58
477.68	12889.92
477.89	13045.56
478.09	12908.35
478.30	13244.21
478.51	13377.33
478.71	13391.67
478.92	13375.28
479.13	13694.77
479.34	13494.07
479.54	13553.46
479.75	13694.77
479.96	13618.99
480.16	13721.39
480.37	14104.36
480.58	13971.24
480.78	14438.18
480.99	14165.80
481.20	14450.47
481.41	14208.81
481.61	14759.71
481.82	14702.37
482.03	14659.36
482.23	14634.78
482.44	15124.25
482.65	15050.52
482.85	15181.59
483.06	15150.87
483.27	15185.69
483.47	15265.56
483.68	15253.27
483.89	15666.96
484.09	15447.83
484.30	15599.38
484.51	15994.64
484.71	16172.81
484.92	16035.60
485.13	16121.61
485.33	16207.62
485.54	16357.13
485.75	16580.36
485.95	16635.65
486.16	16662.27
486.37	16805.63
486.57	16631.55
486.78	16733.95
486.98	16770.82
487.19	17121.02
487.40	16879.36
487.60	17069.82
487.81	17397.49
488.02	17313.53
488.22	17196.79
488.43	17530.61
488.64	17587.96
488.84	17874.67
489.05	17825.52
489.25	17850.10
489.46	18271.98
489.67	17987.31
489.87	18112.24
490.08	18046.70
490.29	18351.85
490.49	18642.66
490.70	18792.16
490.90	18644.71
491.11	18646.76
491.32	18882.27
491.52	18878.18
491.73	18878.18
491.94	19033.82
492.14	18982.62
492.35	19392.22
492.55	19619.54
492.76	19451.61
492.97	19746.51
493.17	19556.05
493.38	19760.85
493.58	19773.14
493.79	19998.41
494.00	19891.92
494.20	20063.95
494.41	20039.37
494.61	20446.92
494.82	20328.14
495.02	20555.46
495.23	20588.23
495.44	20850.37
495.64	21046.97
495.85	20831.94
496.05	21376.70
496.26	21061.31
496.47	21331.64
496.67	21044.93
496.88	21159.61
497.08	21018.30
497.29	21550.78
497.49	21257.92
497.70	21419.71
497.91	21794.48
498.11	21827.25
498.32	21882.55
498.52	21997.23
498.73	22187.69
498.93	22060.72
499.14	22206.13
499.34	22306.48
499.55	22279.85
499.76	22337.20
499.96	22490.79
500.17	22656.68
500.37	22650.53
500.58	22603.43
500.78	22826.66
500.99	23000.74
501.19	23199.39
501.40	22929.06
501.60	22896.29
501.81	23223.97
502.02	23232.16
502.22	23103.14
502.43	23525.02
502.63	23269.02
502.84	23723.67
503.04	23651.99
503.25	23828.12
503.45	23905.94
503.66	24127.12
503.86	23621.27
504.07	24233.61
504.27	23647.90
504.48	24532.62
504.68	24186.51
504.89	24317.58
505.09	24518.28
505.30	24399.50
505.50	24399.50
505.71	24903.30
505.91	24589.96
506.12	24362.64
506.32	24667.78
506.53	24639.11
506.73	24549.00
506.94	25190.02
507.14	25228.93
507.35	25089.67
507.55	24960.64
507.76	24966.79
507.96	25099.90
508.17	25360.00
508.37	25382.52
508.58	25253.50
508.78	25298.56
508.99	25417.34
509.19	25366.14
509.40	25478.78
509.60	25347.71
509.81	25644.66
510.01	25292.41
510.22	25599.61
510.42	25659.00
510.63	25581.18
510.83	25874.04
511.04	26125.94
511.24	25900.66
511.44	26080.88
511.65	26170.99
511.85	26168.94
512.06	26150.51
512.26	26375.79
512.47	26439.28
512.67	26277.49
512.88	26164.85
513.08	25980.53
513.29	26289.77
513.49	26379.89
513.69	26283.63
513.90	26531.44
514.10	26650.22
514.31	26537.58
514.51	26762.86
514.72	26459.76
514.92	26402.41
515.13	26748.52
515.33	26857.06
515.53	26549.87
515.74	26680.94
515.94	26793.58
516.15	26900.07
516.35	26779.24
516.56	27397.73
516.76	27022.95
516.96	27367.01
517.17	27436.64
517.37	27317.86
517.58	27354.72
517.78	27319.90
517.99	27424.35
518.19	27367.01
518.39	27651.67
518.60	27735.64
518.80	27547.23
519.01	27612.76
519.21	27686.49
519.41	27770.46
519.62	27981.40
519.82	27823.70
520.03	28034.64
520.23	28044.88
520.43	27647.58
520.64	28264.02
520.84	28319.31
521.05	28362.32
521.25	28358.22
521.45	28104.28
521.66	28538.44
521.86	28190.29
522.07	28343.89
522.27	28388.94
522.47	28380.75
522.68	28847.69
522.88	28350.03
523.08	28993.09
523.29	28642.89
523.49	28847.69
523.70	28628.56
523.90	29079.11
524.10	28757.58
524.31	29105.73
524.51	29046.34
524.71	29175.36
524.92	29023.81
525.12	29511.23
525.33	29210.18
525.53	29668.92
525.73	29976.12
525.94	29853.24
526.14	29599.29
526.34	29574.72
526.55	29965.88
526.75	29830.71
526.95	30047.80
527.16	29695.55
527.36	29941.30
527.56	30148.15
527.77	30207.54
527.97	30053.94
528.17	30508.59
528.38	30393.90
528.58	30664.24
528.78	30486.06
528.99	30502.45
529.19	30957.10
529.39	30395.95
529.60	31039.01
529.80	30744.11
530.00	30938.66
530.21	31245.86
530.41	31421.98
530.61	30901.80
530.82	31378.98
531.02	31331.87
531.22	31518.24
531.43	31428.13
531.63	31594.01
531.83	31901.21
532.04	31608.35
532.24	31360.55
532.44	32230.93
532.64	32054.81
532.85	31956.50
533.05	32251.41
533.25	32134.68
533.46	32065.05
533.66	32499.22
533.86	32237.08
534.07	32480.78
534.27	32292.37
534.47	32796.17
534.67	32962.06
534.88	32841.23
535.08	32849.42
535.28	32878.09
535.49	32970.25
535.69	33527.30
535.89	33422.85
536.09	33050.12
536.30	33510.91
536.50	33363.46
536.70	33789.44
536.91	33680.89
537.11	33359.36
537.31	33863.16
537.51	33959.42
537.72	34338.29
537.92	34151.93
538.12	34448.88
538.32	33983.99
538.53	34350.58
538.73	34162.17
538.93	34467.31
539.13	34823.66
539.34	34903.53
539.54	34385.40
539.74	34938.35
539.94	34751.98
540.15	34801.13
540.35	35075.56
540.55	35210.73
540.75	35171.82
540.96	35083.75
541.16	34997.74
541.36	35374.56
541.56	35427.81
541.77	35716.58
541.97	35454.44
542.17	35497.44
542.37	35626.46
542.58	35472.87
542.78	35339.75
542.98	36052.44
543.18	35894.75
543.38	36238.81
543.59	36103.64
543.79	36191.70
543.99	36115.93
544.19	36333.01
544.40	36320.73
544.60	36621.78
544.80	36355.54
545.00	36793.81
545.20	36904.40
545.41	36750.80
545.61	36505.04
545.81	37150.15
546.01	37004.75
546.21	36963.79
546.42	36728.27
546.62	37453.25
546.82	36914.64
547.02	37148.11
547.22	37361.09
547.43	37443.01
547.63	37676.48
547.83	37760.45
548.03	37225.93
548.23	37938.62
548.44	37983.68
548.64	37780.93
548.84	38075.84
549.04	38145.47
549.24	38348.21
549.45	38180.28
549.65	38239.67
549.85	38165.95
550.05	38346.17
550.25	38686.13
550.45	39183.79
550.66	38610.35
550.86	38548.92
551.06	38686.13
551.26	38647.22
551.46	39171.50
551.66	39151.02
551.87	38843.82
552.07	38966.70
552.27	39116.20
552.47	39359.91
552.67	39335.34
552.87	39128.49
553.07	39507.37
553.28	39232.94
553.48	39892.38
553.68	39867.81
553.88	40142.24
554.08	39439.78
554.28	39761.31
554.48	39531.94
554.69	39706.02
554.89	39822.75
555.09	40125.85
555.29	39706.02
555.49	40113.56
555.69	40056.22
555.89	40136.09
556.10	40449.43
556.30	39984.54
556.50	40506.77
556.70	40553.88
556.90	41043.34
557.10	40719.76
557.30	40437.14
557.50	40676.76
557.70	40740.24
557.91	40777.11
558.11	40859.02
558.31	41084.30
558.51	40945.04
558.71	41196.94
558.91	41600.39
559.11	40875.41
559.31	41051.53
559.51	41069.97
559.72	41301.39
559.92	41168.27
560.12	41014.67
560.32	41565.57
560.52	41162.12
560.72	41571.72
560.92	41612.68
561.12	41633.16
561.32	41598.34
561.52	41393.54
561.72	42079.61
561.93	41901.44
562.13	41811.33
562.33	41942.40
562.53	42579.32
562.73	42005.89
562.93	42186.11
563.13	42114.43
563.33	42009.98
563.53	42487.16
563.73	41905.54
563.93	42575.22
564.13	42616.18
564.33	42220.92
564.53	42790.26
564.74	42628.47
564.94	41969.02
565.14	42474.87
565.34	42282.36
565.54	42974.58
565.74	43398.51
565.94	43388.27
566.14	42855.79
566.34	42990.96
566.54	43627.88
566.74	43054.45
566.94	43218.28
567.14	43605.35
567.34	43171.18
567.54	43287.92
567.74	43242.86
567.94	43197.80
568.14	43257.20
568.34	43771.24
568.54	43341.16
568.74	43941.22
568.94	43468.14
569.14	43945.31
569.34	43869.54
569.54	43625.83
569.75	43314.54
569.95	44103.01
570.15	44285.28
570.35	43873.63
570.55	43840.87
570.75	44143.97
570.95	44150.11
571.15	44080.48
571.35	44111.20
571.55	44359.00
571.75	44393.82
571.95	44457.31
572.15	43857.25
572.35	44633.43
572.55	44541.27
572.75	44184.93
572.95	44391.77
573.15	44602.71
573.35	44639.57
573.55	44631.38
573.75	44520.79
573.95	44967.25
574.15	44330.33
574.35	44799.32
574.55	44787.03
574.75	44531.03
574.95	44836.18
575.15	44766.55
575.34	44533.08
575.54	45751.62
575.74	45108.56
575.94	45219.15
576.14	44895.57
576.34	45636.94
576.54	45579.59
576.74	45444.43
576.94	45471.05
577.14	45753.67
577.34	45735.24
577.54	45696.33
577.74	45780.29
577.94	45579.59
578.14	45626.70
578.34	46077.25
578.54	45452.62
578.74	45407.56
578.94	46093.63
579.14	46183.74
579.34	45876.55
579.54	46028.10
579.74	46239.04
579.94	46302.53
580.13	46363.96
580.33	46204.22
580.53	46681.40
580.73	46447.93
580.93	46142.78
581.13	46335.29
581.33	46495.03
581.53	46617.91
581.73	46751.03
581.93	46693.69
582.13	46548.28
582.33	46499.13
582.53	46425.40
582.73	47093.04
582.92	46931.25
583.12	47224.11
583.32	46882.10
583.52	46462.27
583.72	47258.93
583.92	46683.45
584.12	46796.09
584.32	47416.62
584.52	47109.43
584.72	47031.60
584.92	47181.10
585.11	47465.77
585.31	47482.16
585.51	47281.45
585.71	47635.75
585.91	47541.55
586.11	47217.97
586.31	47349.04
586.51	47301.93
586.71	47572.27
586.91	47574.31
587.10	47691.05
587.30	47815.97
587.50	47897.89
587.70	47707.43
587.90	47641.90
588.10	47736.10
588.30	47713.58
588.50	47543.59
588.69	47367.47
