SpectraSuite Data File
++++++++++++++++++++++++++++++++++++
Date: Fri Jun 02 14:53:31 CEST 2017
User: INFO_000
Dark Spectrum Present: No
Reference Spectrum Present: No
Number of Sampled Component Spectra: 1
Spectrometers: USB4H00879
Integration Time (usec): 80000 (USB4H00879)
Spectra Averaged: 1 (USB4H00879)
Boxcar Smoothing: 0 (USB4H00879)
Correct for Electrical Dark: No (USB4H00879)
Strobe/Lamp Enabled: No (USB4H00879)
Correct for Detector Non-linearity: No (USB4H00879)
Correct for Stray Light: No (USB4H00879)
Number of Pixels in Processed Spectrum: 3648
>>>>>Begin Processed Spectral Data<<<<<
345.13	1331.18
345.34	1331.18
345.56	1331.18
345.78	1269.74
345.99	1337.32
346.21	1722.34
346.42	1716.20
346.64	1615.85
346.86	1775.59
347.07	1689.57
347.29	1701.86
347.50	1591.27
347.72	1648.61
347.94	1781.73
348.15	1593.32
348.37	1570.79
348.59	1681.38
348.80	1632.23
349.02	1759.21
349.23	1869.80
349.45	1806.31
349.67	1925.09
349.88	1806.31
350.10	1900.52
350.31	1839.08
350.53	1798.12
350.75	1927.14
350.96	1773.54
351.18	1906.66
351.39	1920.99
351.61	1853.41
351.82	1855.46
352.04	1947.62
352.26	1808.36
352.47	1916.90
352.69	1951.71
352.90	1746.92
353.12	1859.56
353.34	1857.51
353.55	1976.29
353.77	1845.22
353.98	1908.71
354.20	1818.60
354.41	1871.84
354.63	1953.76
354.85	2002.91
355.06	1904.61
355.28	1716.20
355.49	1957.86
355.71	1794.02
355.92	1886.18
356.14	1863.65
356.35	1886.18
356.57	1896.42
356.79	2045.92
357.00	1955.81
357.22	1945.57
357.43	1810.40
357.65	2002.91
357.86	1787.88
358.08	2025.44
358.29	2007.01
358.51	1951.71
358.72	1935.33
358.94	1984.48
359.16	1957.86
359.37	2002.91
359.59	2007.01
359.80	1966.05
360.02	1945.57
360.23	1841.12
360.45	1896.42
360.66	1923.04
360.88	1800.16
361.09	1912.80
361.31	2027.49
361.52	2002.91
361.74	1966.05
361.95	2136.03
362.17	1972.19
362.38	2101.22
362.60	1970.15
362.81	1968.10
363.03	2031.58
363.24	2004.96
363.46	2056.16
363.67	2027.49
363.89	2000.87
364.10	1998.82
364.32	2007.01
364.53	2066.40
364.75	1941.47
364.96	2084.83
365.18	2070.50
365.39	2058.21
365.61	1978.34
365.82	2127.84
366.04	2011.11
366.25	1976.29
366.47	2019.30
366.68	2082.78
366.90	1986.53
367.11	2138.08
367.33	2035.68
367.54	2109.41
367.76	2064.35
367.97	2086.88
368.19	2017.25
368.40	2176.99
368.62	1935.33
368.83	2004.96
369.05	2076.64
369.26	2007.01
369.48	2066.40
369.69	2011.11
369.91	2027.49
370.12	2072.54
370.33	2142.18
370.55	1966.05
370.76	2109.41
370.98	2119.65
371.19	2047.97
371.41	2074.59
371.62	2056.16
371.84	2076.64
372.05	2217.95
372.27	2060.26
372.48	2084.83
372.69	2125.79
372.91	2158.56
373.12	2176.99
373.34	2117.60
373.55	2113.50
373.77	2303.96
373.98	2148.32
374.20	2174.94
374.41	2230.24
374.62	2142.18
374.84	2142.18
375.05	2207.71
375.27	2158.56
375.48	2174.94
375.70	2215.90
375.91	2301.92
376.12	2222.05
376.34	2133.98
376.55	2230.24
376.77	2275.29
376.98	2117.60
377.19	2156.51
377.41	2117.60
377.62	2199.52
377.84	2295.77
378.05	2332.64
378.27	2195.42
378.48	2281.44
378.69	2357.21
378.91	2377.69
379.12	2310.11
379.34	2191.33
379.55	2287.58
379.76	2355.16
379.98	2213.85
380.19	2279.39
380.41	2293.72
380.62	2357.21
380.83	2299.87
381.05	2222.05
381.26	2379.74
381.47	2215.90
381.69	2318.30
381.90	2400.22
382.12	2289.63
382.33	2303.96
382.54	2267.10
382.76	2306.01
382.97	2303.96
383.19	2279.39
383.40	2287.58
383.61	2334.68
383.83	2222.05
384.04	2338.78
384.25	2400.22
384.47	2318.30
384.68	2375.64
384.89	2336.73
385.11	2344.92
385.32	2318.30
385.54	2303.96
385.75	2244.57
385.96	2428.89
386.18	2465.75
386.39	2418.65
386.60	2351.07
386.82	2482.14
387.03	2406.36
387.24	2508.76
387.46	2443.23
387.67	2465.75
387.88	2500.57
388.10	2508.76
388.31	2576.34
388.52	2570.20
388.74	2600.92
388.95	2418.65
389.16	2486.23
389.38	2437.08
389.59	2688.98
389.80	2521.05
390.02	2519.00
390.23	2686.94
390.44	2521.05
390.66	2602.97
390.87	2488.28
391.08	2545.63
391.30	2650.07
391.51	2631.64
391.72	2676.70
391.94	2678.74
392.15	2654.17
392.36	2637.78
392.58	2451.42
392.79	2693.08
393.00	2691.03
393.22	2715.61
393.43	2789.33
393.64	2869.20
393.85	2844.63
394.07	2650.07
394.28	2746.33
394.49	2758.61
394.71	2717.65
394.92	2828.24
395.13	2717.65
395.35	2756.57
395.56	2697.17
395.77	2738.13
395.98	2777.05
396.20	2789.33
396.41	2809.81
396.62	2871.25
396.84	2895.83
397.05	2844.63
397.26	2893.78
397.47	2977.75
397.69	2842.58
397.90	2998.23
398.11	2811.86
398.32	2910.16
398.54	2981.84
398.75	2899.92
398.96	2869.20
399.18	3098.58
399.39	2979.79
399.60	3100.62
399.81	2967.51
400.03	3035.09
400.24	3260.37
400.45	2977.75
400.66	3119.06
400.88	3104.72
401.09	3211.22
401.30	3080.14
401.51	3106.77
401.73	3153.87
401.94	3117.01
402.15	3162.06
402.36	3082.19
402.58	3084.24
402.79	3211.22
403.00	3190.74
403.21	3215.31
403.43	3223.50
403.64	3327.95
403.85	3137.49
404.06	3274.70
404.27	3176.40
404.49	3196.88
404.70	3098.58
404.91	3319.76
405.12	3235.79
405.34	3235.79
405.55	3540.94
405.76	3223.50
405.97	3340.24
406.19	3424.20
406.40	3286.99
406.61	3299.28
406.82	3344.33
407.03	3348.43
407.25	3301.33
407.46	3469.26
407.67	3573.71
407.88	3528.65
408.09	3434.44
408.31	3432.40
408.52	3485.64
408.73	3438.54
408.94	3370.96
409.15	3516.36
409.37	3565.51
409.58	3575.75
409.79	3553.23
410.00	3616.71
410.21	3504.07
410.43	3534.79
410.64	3428.30
410.85	3581.90
411.06	3657.67
411.27	3647.43
411.48	3782.60
411.70	3565.51
411.91	3622.86
412.12	3839.94
412.33	3686.34
412.54	3741.64
412.76	3694.54
412.97	3655.62
413.18	3715.02
413.39	3702.73
413.60	3704.78
413.81	3717.06
414.03	3704.78
414.24	3663.82
414.45	3772.36
414.66	3649.48
414.87	3794.89
415.08	3682.25
415.30	3778.50
415.51	3721.16
415.72	3833.80
415.93	3835.85
416.14	3971.01
416.35	3964.87
416.56	3852.23
416.78	3831.75
416.99	3868.61
417.20	3989.44
417.41	4122.56
417.62	3874.76
417.83	3975.11
418.04	3852.23
418.26	4034.50
418.47	3872.71
418.68	4040.64
418.89	4114.37
419.10	4245.44
419.31	4120.51
419.52	4071.36
419.73	4067.27
419.95	4085.70
420.16	4100.03
420.37	4104.13
420.58	4220.86
420.79	3977.16
421.00	4212.67
421.21	4194.24
421.42	4237.25
421.63	4251.58
421.85	4157.38
422.06	4272.06
422.27	4190.14
422.48	4272.06
422.69	4198.34
422.90	4362.17
423.11	4491.20
423.32	4296.64
423.53	4503.48
423.75	4446.14
423.96	4507.58
424.17	4394.94
424.38	4499.39
424.59	4564.92
424.80	4571.07
425.01	4657.08
425.22	4540.35
425.43	4620.22
425.64	4759.48
425.85	4630.46
426.06	4683.70
426.28	4607.93
426.49	4536.25
426.70	4493.24
426.91	4526.01
427.12	4675.51
427.33	4761.53
427.54	4661.18
427.75	4736.95
427.96	4843.45
428.17	4695.99
428.38	4747.19
428.59	4984.76
428.80	4763.58
429.01	4784.06
429.23	4868.02
429.44	5054.39
429.65	5013.43
429.86	4992.95
430.07	4847.54
430.28	4999.09
430.49	4947.89
430.70	5089.20
430.91	5054.39
431.12	4999.09
431.33	5181.36
431.54	5171.12
431.75	5074.87
431.96	5228.46
432.17	5210.03
432.38	5175.22
432.59	5437.36
432.80	5294.00
433.01	5341.10
433.22	5279.66
433.43	5242.80
433.64	5197.74
433.85	5228.46
434.06	5353.39
434.27	5175.22
434.49	5310.38
434.70	5427.12
434.91	5332.91
435.12	5474.22
435.33	5328.81
435.54	5484.46
435.75	5408.69
435.96	5355.44
436.17	5431.21
436.38	5601.19
436.59	5490.60
436.80	5611.43
437.01	5664.68
437.22	5765.03
437.43	5652.39
437.64	5476.27
437.85	5713.83
438.06	5762.98
438.27	5703.59
438.48	5613.48
438.69	5838.76
438.90	5560.24
439.11	5588.91
439.32	5871.53
439.53	5803.94
439.74	5951.40
439.95	5883.81
440.16	5754.79
440.37	5773.22
440.57	5699.50
440.78	5959.59
440.99	6082.47
441.20	5857.19
441.41	5961.64
441.62	5945.25
441.83	5808.04
442.04	5996.45
442.25	5982.12
442.46	5947.30
442.67	6176.67
442.88	6277.02
443.09	6078.37
443.30	6180.77
443.51	6092.71
443.72	6281.12
443.93	6088.61
444.14	6545.31
444.35	6080.42
444.56	6399.90
444.77	6227.87
444.98	6438.81
445.19	6377.37
445.40	6387.61
445.61	6393.76
445.81	6504.35
446.02	6535.07
446.23	6381.47
446.44	6434.72
446.65	6547.36
446.86	6565.79
447.07	6520.73
447.28	6674.33
447.49	6713.24
447.70	6698.91
447.91	6606.75
448.12	6608.80
448.33	6887.32
448.54	6897.56
448.74	6614.94
448.95	6688.67
449.16	6649.75
449.37	7036.82
449.58	6883.22
449.79	6911.89
450.00	6678.43
450.21	7077.78
450.42	7161.75
450.63	7010.20
450.84	7065.49
451.05	6928.28
451.25	7024.53
451.46	7114.64
451.67	7157.65
451.88	7204.75
452.09	7255.95
452.30	7167.89
452.51	7407.50
452.72	7458.70
452.93	7675.79
453.13	7331.73
453.34	7253.91
453.55	7413.65
453.76	7413.65
453.97	7774.09
454.18	7557.00
454.39	7651.21
454.60	7436.17
454.81	7593.87
455.01	7724.94
455.22	7393.17
455.43	7866.25
455.64	8023.94
455.85	7966.60
456.06	8073.09
456.27	8077.19
456.48	7759.75
456.68	8073.09
456.89	8144.77
457.10	8157.06
457.31	8048.52
457.52	8058.76
457.73	8277.89
457.94	8486.78
458.14	8130.44
458.35	8533.89
458.56	8265.60
458.77	8365.95
458.98	8476.54
459.19	8365.95
459.39	8476.54
459.60	8654.72
459.81	8505.21
460.02	8818.55
460.23	8716.16
460.44	9009.01
460.65	8757.11
460.85	8832.89
461.06	9140.08
461.27	8626.04
461.48	9168.76
461.69	9197.43
461.89	8826.75
462.10	8959.86
462.31	8990.58
462.52	9111.41
462.73	9205.62
462.94	9480.05
463.14	9236.34
463.35	9518.96
463.56	9836.39
463.77	9641.84
463.98	9578.35
464.18	9439.09
464.39	9678.70
464.60	9813.87
464.81	10028.90
465.02	9873.26
465.23	10022.76
465.43	9979.75
465.64	10202.98
465.85	10135.40
466.06	9883.50
466.27	10311.52
466.47	10436.45
466.68	10202.98
466.89	10430.30
467.10	10495.84
467.30	10258.28
467.51	10618.72
467.72	10862.43
467.93	10497.89
468.14	10657.63
468.34	10921.82
468.55	10997.59
468.76	11102.04
468.97	10979.16
469.17	11188.05
469.38	11116.37
469.59	11276.12
469.80	11075.42
470.01	11120.47
470.21	11337.56
470.42	11501.39
470.63	11620.17
470.84	11353.94
471.04	11603.79
471.25	11710.29
471.46	11704.14
471.67	11953.99
471.87	11759.44
472.08	11876.17
472.29	12025.67
472.50	11814.73
472.70	11997.00
472.91	12074.82
473.12	12357.44
473.33	12498.75
473.53	12721.98
473.74	12271.43
473.95	12619.58
474.16	12793.66
474.36	12930.87
474.57	12808.00
474.78	12969.79
474.99	12898.11
475.19	12967.74
475.40	13311.80
475.61	13543.22
475.81	13578.03
476.02	13559.60
476.23	13365.04
476.44	13565.74
476.64	13709.10
476.85	13877.04
477.06	13913.90
477.27	14186.28
477.47	13905.71
477.68	14100.26
477.89	14284.58
478.09	14378.79
478.30	14554.91
478.51	14518.05
478.71	14556.96
478.92	14884.64
479.13	14948.12
479.34	14827.29
479.54	14884.64
479.75	15097.63
479.96	15138.58
480.16	14987.04
480.37	15236.89
480.58	15314.71
480.78	15587.09
480.99	15644.43
481.20	15558.42
481.41	15988.49
481.61	15634.19
481.82	16015.12
482.03	15787.79
482.23	15984.40
482.44	16230.15
482.65	16293.64
482.85	16348.93
483.06	16205.58
483.27	16148.23
483.47	16512.77
483.68	16561.92
483.89	16688.90
484.09	16537.35
484.30	16914.17
484.51	16930.56
484.71	17241.85
484.92	17237.75
485.13	17340.15
485.33	17094.40
485.54	17383.16
485.75	17354.49
485.95	17753.84
486.16	17618.68
486.37	17598.20
486.57	17690.35
486.78	17686.26
486.98	17798.90
487.19	17852.14
487.40	18470.63
487.60	18165.48
487.81	18300.65
488.02	18401.00
488.22	18300.65
488.43	18681.57
488.64	18681.57
488.84	18491.11
489.05	18738.91
489.25	18671.33
489.46	19152.60
489.67	18972.38
489.87	19003.10
490.08	18898.66
490.29	19046.11
490.49	19554.01
490.70	19586.77
490.90	19621.59
491.11	19453.66
491.32	19564.25
491.52	19574.49
491.73	19662.55
491.94	19795.67
492.14	19842.77
492.35	20358.86
492.55	20223.69
492.76	20416.20
492.97	20274.89
493.17	20575.94
493.38	20698.82
493.58	20680.39
493.79	20672.20
494.00	20653.76
494.20	20715.20
494.41	21001.92
494.61	21188.28
494.82	20954.82
495.02	20829.89
495.23	21026.50
495.44	21122.75
495.64	21411.51
495.85	21327.55
496.05	21354.17
496.26	21130.94
496.47	21507.77
496.67	21597.88
496.88	21812.92
497.08	21583.54
497.29	22130.35
497.49	21737.14
497.70	22027.95
497.91	22085.30
498.11	22302.38
498.32	22075.06
498.52	22095.53
498.73	22810.28
498.93	22498.98
499.14	22763.17
499.34	22539.94
499.55	23002.78
499.76	22728.36
499.96	22980.26
500.17	22650.53
500.37	22859.43
500.58	22869.67
500.78	23283.36
500.99	23010.98
501.19	23391.90
501.40	23312.03
501.60	22990.50
501.81	23262.88
502.02	23113.38
502.22	23359.13
502.43	23588.50
502.63	23625.37
502.84	23977.62
503.04	24086.16
503.25	23852.69
503.45	23897.75
503.66	24168.08
503.86	23940.75
504.07	24237.71
504.27	24247.95
504.48	24237.71
504.68	24395.40
504.89	24805.00
505.09	24866.44
505.30	24278.67
505.50	24665.74
505.71	24751.75
505.91	24811.14
506.12	24620.68
506.32	24606.34
506.53	24970.88
506.73	24948.36
506.94	25046.66
507.14	25038.47
507.35	25325.18
507.55	25341.57
507.76	25173.63
507.96	25247.36
508.17	25589.37
508.37	25298.56
508.58	25556.60
508.78	25806.45
508.99	25642.62
509.19	25732.73
509.40	25869.94
509.60	25550.46
509.81	26138.23
510.01	26039.92
510.22	25611.90
510.42	26009.20
510.63	26187.38
510.83	25980.53
511.04	25962.10
511.24	26383.98
511.44	26197.62
511.65	26451.56
511.85	26725.99
512.06	26371.69
512.26	26480.24
512.47	26654.31
512.67	26594.92
512.88	26883.69
513.08	26799.72
513.29	26967.65
513.49	27008.61
513.69	27012.71
513.90	27147.87
514.10	27149.92
514.31	27385.44
514.51	27563.61
514.72	27182.69
514.92	27446.88
515.13	27530.84
515.33	27594.33
515.53	27354.72
515.74	27674.20
515.94	27915.86
516.15	27627.10
516.35	27684.44
516.56	27977.30
516.76	28042.84
516.96	27846.23
517.17	28036.69
517.37	28243.54
517.58	28307.02
517.78	28126.80
517.99	28257.87
518.19	28403.28
518.39	28556.88
518.60	28966.47
518.80	28886.60
519.01	28857.93
519.21	28943.94
519.41	28790.34
519.62	28761.67
519.82	29156.93
520.03	29177.41
520.23	29222.47
520.43	29132.36
520.64	29582.91
520.84	29697.59
521.05	29556.28
521.25	29754.94
521.45	29914.68
521.66	30023.22
521.86	29750.84
522.07	29756.99
522.27	29941.30
522.47	30176.82
522.68	30236.21
522.88	30441.01
523.08	30619.18
523.29	30463.54
523.49	30580.27
523.70	30498.35
523.90	30817.83
524.10	30942.76
524.31	30926.38
524.51	31235.62
524.71	31450.66
524.92	31178.28
525.12	31557.15
525.33	31538.72
525.53	31413.79
525.73	31759.90
525.94	31845.91
526.14	31464.99
526.34	32099.86
526.55	31768.09
526.75	32138.77
526.95	32290.32
527.16	32169.49
527.36	32157.21
527.56	32677.39
527.77	32724.49
527.97	32794.12
528.17	32818.70
528.38	32699.92
528.58	33224.20
528.78	32890.38
528.99	33138.18
529.19	33226.24
529.39	33113.61
529.60	33381.89
529.80	33457.67
530.00	33496.58
530.21	33820.16
530.41	33830.40
530.61	33707.52
530.82	34024.95
531.02	33875.45
531.22	34424.31
531.43	34360.82
531.63	34409.97
531.83	34596.34
532.04	34926.06
532.24	34631.15
532.44	35249.64
532.64	34756.08
532.85	35329.51
533.05	35030.51
533.25	35311.08
533.46	35231.21
533.66	35571.17
533.86	35507.68
534.07	35818.97
534.27	35857.88
534.47	36365.78
534.67	35935.71
534.88	36009.43
535.08	35929.56
535.28	36304.34
535.49	36537.81
535.69	36881.87
535.89	36763.09
536.09	36865.49
536.30	36924.88
536.50	36986.32
536.70	37195.21
536.91	37193.16
537.11	37070.28
537.31	37696.96
537.51	37268.94
537.72	37637.57
537.92	37967.29
538.12	38071.74
538.32	37451.20
538.53	38018.49
538.73	38380.98
538.93	38188.47
539.13	38190.52
539.34	38280.63
539.54	38405.56
539.74	38780.34
539.94	38303.16
540.15	38223.29
540.35	38892.97
540.55	38544.82
540.75	38919.60
540.96	39181.74
541.16	38968.75
541.36	39429.54
541.56	39204.27
541.77	39300.52
541.97	39429.54
542.17	39677.35
542.37	39540.13
542.58	39830.94
542.78	39415.21
542.98	39574.95
543.18	39888.29
543.38	40431.00
543.59	40072.60
543.79	39454.12
543.99	40011.17
544.19	40291.74
544.40	40066.46
544.60	40201.63
544.80	40105.37
545.00	40654.23
545.20	40533.40
545.41	40326.55
545.61	40680.85
545.81	40826.26
546.01	40672.66
546.21	40627.60
546.42	40678.80
546.62	40951.18
546.82	40957.33
547.02	41049.49
547.22	41428.36
547.43	41217.42
547.63	41022.86
547.83	41184.65
548.03	41090.44
548.23	41371.02
548.44	41244.04
548.64	41297.29
548.84	41264.52
549.04	42075.52
549.24	41817.47
549.45	42089.85
549.65	41371.02
549.85	41706.88
550.05	42173.82
550.25	41788.80
550.45	42550.65
550.66	42108.29
550.86	42263.93
551.06	42397.05
551.26	41989.50
551.46	42173.82
551.66	42356.09
551.87	42806.64
552.07	42474.87
552.27	42368.38
552.47	42691.96
552.67	42493.30
552.87	42597.75
553.07	42491.26
553.28	42438.01
553.48	42780.02
553.68	42718.58
553.88	43400.55
554.08	42704.24
554.28	42999.15
554.48	42513.78
554.69	42882.42
554.89	43249.00
555.09	42886.51
555.29	42614.13
555.49	42931.57
555.69	43183.47
555.89	43031.92
556.10	43191.66
556.30	42515.83
556.50	43369.83
556.70	43107.69
556.90	43533.67
557.10	43734.37
557.30	42798.45
557.50	43478.38
557.70	43416.94
557.91	43677.03
558.11	43480.42
558.31	43810.15
558.51	43758.95
558.71	43701.61
558.91	43787.62
559.11	43134.32
559.31	43779.43
559.51	43480.42
559.72	43128.17
559.92	43853.15
560.12	43472.23
560.32	44006.75
560.52	43744.61
560.72	43408.75
560.92	44170.59
561.12	44055.90
561.32	44125.53
561.52	43670.89
561.72	44135.77
561.93	44074.34
562.13	43677.03
562.33	43437.42
562.53	44522.84
562.73	43588.97
562.93	44160.35
563.13	44197.21
563.33	44066.14
563.53	44363.10
563.73	43976.03
563.93	44559.70
564.13	44627.29
564.33	44211.55
564.53	44234.08
564.74	44569.94
564.94	44037.47
565.14	44186.97
565.34	44324.19
565.54	44279.13
565.74	44602.71
565.94	44551.51
566.14	44066.14
566.34	44254.56
566.54	44283.23
566.74	44047.71
566.94	44205.41
567.14	44598.62
567.34	44387.67
567.54	44768.60
567.74	44479.83
567.94	44412.25
568.14	44629.34
568.34	45024.59
568.54	44606.81
568.74	44907.86
568.94	44619.10
569.14	44848.47
569.34	44746.07
569.54	44440.92
569.75	44418.39
569.95	44737.88
570.15	44928.34
570.35	44662.10
570.55	44557.66
570.75	44815.70
570.95	44766.55
571.15	45040.98
571.35	44856.66
571.55	45356.36
571.75	45014.35
571.95	44844.37
572.15	44473.69
572.35	45057.36
572.55	44977.49
572.75	45483.34
572.95	44940.63
573.15	45038.93
573.35	45675.85
573.55	44799.32
573.75	44950.87
573.95	45413.71
574.15	45272.40
574.35	45294.92
574.55	45296.97
574.75	45382.99
574.95	45145.42
575.15	45100.37
575.34	45755.72
575.54	45544.78
575.74	45630.79
575.94	45618.50
576.14	45167.95
576.34	46159.17
576.54	46347.58
576.74	45725.00
576.94	45559.11
577.14	45782.34
577.34	46062.91
577.54	45790.53
577.74	45802.82
577.94	45817.16
578.14	45694.28
578.34	46406.97
578.54	45790.53
578.74	46316.86
578.94	46454.08
579.14	45725.00
579.34	46462.27
579.54	46388.54
579.74	46693.69
579.94	46292.29
580.13	46566.71
580.33	46988.60
580.53	46519.61
580.73	46239.04
580.93	46634.30
581.13	46683.45
581.33	46798.13
581.53	46769.46
581.73	46761.27
581.93	46808.37
582.13	46994.74
582.33	47129.90
582.53	47162.67
582.73	46708.02
582.92	46880.05
583.12	46796.09
583.32	47203.63
583.52	46806.33
583.72	47525.16
583.92	46982.45
584.12	46818.61
584.32	47830.31
584.52	47559.98
584.72	47476.01
584.92	47822.12
585.11	47617.32
585.31	47111.47
585.51	47355.18
585.71	47678.76
585.91	47856.93
586.11	47584.55
586.31	47480.11
586.51	47772.97
586.71	47645.99
586.91	48117.03
587.10	48014.63
587.30	48155.94
587.50	47842.60
587.70	47881.51
587.90	48225.57
588.10	48096.55
588.30	47938.85
588.50	48168.22
