SpectraSuite Data File
++++++++++++++++++++++++++++++++++++
Date: Fri Jun 02 14:53:32 CEST 2017
User: INFO_000
Dark Spectrum Present: No
Reference Spectrum Present: No
Number of Sampled Component Spectra: 1
Spectrometers: USB4H00879
Integration Time (usec): 80000 (USB4H00879)
Spectra Averaged: 1 (USB4H00879)
Boxcar Smoothing: 0 (USB4H00879)
Correct for Electrical Dark: No (USB4H00879)
Strobe/Lamp Enabled: No (USB4H00879)
Correct for Detector Non-linearity: No (USB4H00879)
Correct for Stray Light: No (USB4H00879)
Number of Pixels in Processed Spectrum: 3648
>>>>>Begin Processed Spectral Data<<<<<
345.13	1286.12
345.34	1286.12
345.56	1286.12
345.78	1316.84
345.99	1292.27
346.21	1667.05
346.42	1644.52
346.64	1617.90
346.86	1847.27
347.07	1716.20
347.29	1820.64
347.50	1605.61
347.72	1662.95
347.94	1744.87
348.15	1597.42
348.37	1615.85
348.59	1621.99
348.80	1660.90
349.02	1765.35
349.23	1873.89
349.45	1896.42
349.67	1832.93
349.88	1765.35
350.10	1900.52
350.31	1904.61
350.53	1863.65
350.75	1931.23
350.96	1716.20
351.18	1888.23
351.39	1914.85
351.61	1841.12
351.82	1888.23
352.04	1886.18
352.26	1746.92
352.47	1820.64
352.69	1943.52
352.90	1742.82
353.12	1814.50
353.34	1925.09
353.55	1886.18
353.77	1845.22
353.98	1935.33
354.20	1818.60
354.41	1935.33
354.63	1984.48
354.85	2045.92
355.06	1941.47
355.28	1787.88
355.49	1931.23
355.71	1945.57
355.92	1947.62
356.14	1953.76
356.35	1877.99
356.57	1898.47
356.79	1974.24
357.00	1824.74
357.22	1955.81
357.43	1847.27
357.65	1908.71
357.86	1859.56
358.08	1918.95
358.29	1947.62
358.51	1890.28
358.72	1959.91
358.94	1908.71
359.16	1888.23
359.37	1941.47
359.59	1941.47
359.80	1972.19
360.02	1980.39
360.23	1976.29
360.45	1992.67
360.66	1925.09
360.88	1953.76
361.09	1902.56
361.31	2043.87
361.52	1953.76
361.74	2039.78
361.95	1978.34
362.17	1902.56
362.38	2097.12
362.60	2047.97
362.81	1898.47
363.03	1902.56
363.24	1968.10
363.46	2047.97
363.67	1986.53
363.89	2017.25
364.10	1970.15
364.32	1998.82
364.53	2041.82
364.75	1904.61
364.96	2097.12
365.18	2052.06
365.39	1933.28
365.61	2033.63
365.82	2150.37
366.04	2027.49
366.25	1970.15
366.47	2043.87
366.68	2101.22
366.90	1988.58
367.11	2084.83
367.33	2035.68
367.54	2009.06
367.76	1968.10
367.97	2154.46
368.19	2045.92
368.40	2076.64
368.62	2007.01
368.83	1982.43
369.05	2054.11
369.26	2064.35
369.48	2043.87
369.69	2078.69
369.91	2015.20
370.12	2060.26
370.33	2136.03
370.55	2007.01
370.76	2093.02
370.98	2086.88
371.19	2031.58
371.41	2023.39
371.62	2058.21
371.84	1961.95
372.05	2185.18
372.27	1996.77
372.48	2183.13
372.69	2039.78
372.91	2154.46
373.12	2228.19
373.34	2113.50
373.55	2166.75
373.77	2150.37
373.98	2068.45
374.20	2152.42
374.41	2220.00
374.62	2103.26
374.84	2199.52
375.05	2133.98
375.27	2129.89
375.48	2230.24
375.70	2215.90
375.91	2256.86
376.12	2289.63
376.34	2289.63
376.55	2131.94
376.77	2179.04
376.98	2166.75
377.19	2148.32
377.41	2142.18
377.62	2250.72
377.84	2269.15
378.05	2316.25
378.27	2238.43
378.48	2379.74
378.69	2303.96
378.91	2367.45
379.12	2211.81
379.34	2240.48
379.55	2252.77
379.76	2297.82
379.98	2224.09
380.19	2191.33
380.41	2318.30
380.62	2322.40
380.83	2215.90
381.05	2232.29
381.26	2389.98
381.47	2293.72
381.69	2367.45
381.90	2363.36
382.12	2297.82
382.33	2338.78
382.54	2342.88
382.76	2289.63
382.97	2371.55
383.19	2277.34
383.40	2410.46
383.61	2320.35
383.83	2215.90
384.04	2340.83
384.25	2344.92
384.47	2428.89
384.68	2256.86
384.89	2357.21
385.11	2254.81
385.32	2381.79
385.54	2301.92
385.75	2445.27
385.96	2482.14
386.18	2475.99
386.39	2351.07
386.60	2361.31
386.82	2465.75
387.03	2387.93
387.24	2439.13
387.46	2480.09
387.67	2529.24
387.88	2484.19
388.10	2551.77
388.31	2457.56
388.52	2555.86
388.74	2508.76
388.95	2467.80
389.16	2510.81
389.38	2602.97
389.59	2631.64
389.80	2545.63
390.02	2678.74
390.23	2695.13
390.44	2611.16
390.66	2619.35
390.87	2467.80
391.08	2523.10
391.30	2643.93
391.51	2605.02
391.72	2619.35
391.94	2584.54
392.15	2613.21
392.36	2719.70
392.58	2672.60
392.79	2729.94
393.00	2678.74
393.22	2770.90
393.43	2791.38
393.64	2826.20
393.85	2895.83
394.07	2639.83
394.28	2731.99
394.49	2779.09
394.71	2785.24
394.92	2908.12
395.13	2750.42
395.35	2695.13
395.56	2795.48
395.77	2697.17
395.98	2959.31
396.20	2844.63
396.41	3016.66
396.62	2885.59
396.84	2897.88
397.05	2750.42
397.26	2887.64
397.47	2944.98
397.69	2875.35
397.90	3049.43
398.11	2961.36
398.32	2828.24
398.54	2951.12
398.75	2877.40
398.96	2951.12
399.18	3055.57
399.39	3063.76
399.60	3053.52
399.81	2967.51
400.03	2994.13
400.24	3356.62
400.45	2916.31
400.66	3076.05
400.88	2994.13
401.09	3190.74
401.30	3020.75
401.51	3231.69
401.73	3153.87
401.94	3094.48
402.15	3172.30
402.36	3045.33
402.58	3213.26
402.79	3190.74
403.00	3037.14
403.21	3180.50
403.43	3311.57
403.64	3411.92
403.85	3127.25
404.06	3344.33
404.27	3100.62
404.49	3256.27
404.70	3194.83
404.91	3344.33
405.12	3385.29
405.34	3387.34
405.55	3391.44
405.76	3182.54
405.97	3262.41
406.19	3475.40
406.40	3366.86
406.61	3358.67
406.82	3387.34
407.03	3284.94
407.25	3178.45
407.46	3432.40
407.67	3424.20
407.88	3475.40
408.09	3450.83
408.31	3495.88
408.52	3356.62
408.73	3422.16
408.94	3432.40
409.15	3530.70
409.37	3592.14
409.58	3510.22
409.79	3528.65
410.00	3508.17
410.21	3385.29
410.43	3522.51
410.64	3438.54
410.85	3551.18
411.06	3483.59
411.27	3594.19
411.48	3715.02
411.70	3549.13
411.91	3614.66
412.12	3753.93
412.33	3606.47
412.54	3608.52
412.76	3835.85
412.97	3680.20
413.18	3553.23
413.39	3696.58
413.60	3741.64
413.81	3719.11
414.03	3596.23
414.24	3631.05
414.45	3848.13
414.66	3616.71
414.87	3762.12
415.08	3735.50
415.30	3755.97
415.51	3835.85
415.72	3764.17
415.93	3749.83
416.14	3891.14
416.35	3872.71
416.56	3837.89
416.78	3882.95
416.99	3815.37
417.20	3807.17
417.41	3958.72
417.62	3891.14
417.83	4011.97
418.04	3983.30
418.26	3973.06
418.47	3954.63
418.68	4003.78
418.89	3866.56
419.10	4155.33
419.31	4100.03
419.52	4102.08
419.73	4095.94
419.95	4165.57
420.16	4059.07
420.37	4020.16
420.58	4063.17
420.79	3930.05
421.00	4122.56
421.21	4208.58
421.42	4118.47
421.63	4206.53
421.85	4054.98
422.06	4136.90
422.27	4261.82
422.48	4274.11
422.69	4276.16
422.90	4265.92
423.11	4300.73
423.32	4423.61
423.53	4442.04
423.75	4356.03
423.96	4544.44
424.17	4396.99
424.38	4485.05
424.59	4460.48
424.80	4648.89
425.01	4589.50
425.22	4503.48
425.43	4474.81
425.64	4640.70
425.85	4599.74
426.06	4642.75
426.28	4616.12
426.49	4630.46
426.70	4626.36
426.91	4454.33
427.12	4591.55
427.33	4624.31
427.54	4679.61
427.75	4831.16
427.96	4951.99
428.17	4673.46
428.38	4898.74
428.59	4923.32
428.80	4816.82
429.01	4915.12
429.23	4902.84
429.44	5216.18
429.65	5005.24
429.86	5160.88
430.07	4927.41
430.28	4990.90
430.49	5009.33
430.70	5193.65
430.91	5040.05
431.12	5126.07
431.33	5244.85
431.54	5236.66
431.75	5105.59
431.96	5162.93
432.17	5158.83
432.38	5150.64
432.59	5496.75
432.80	5369.77
433.01	5222.32
433.22	5296.05
433.43	5416.88
433.64	5396.40
433.85	5113.78
434.06	5459.88
434.27	5439.40
434.49	5412.78
434.70	5511.08
434.91	5492.65
435.12	5550.00
435.33	5531.56
435.54	5466.03
435.75	5451.69
435.96	5441.45
436.17	5537.71
436.38	5650.35
436.59	5668.78
436.80	5447.60
437.01	5875.62
437.22	5861.29
437.43	5830.57
437.64	5433.26
437.85	5832.62
438.06	5875.62
438.27	5679.02
438.48	5699.50
438.69	6012.84
438.90	5857.19
439.11	5842.85
439.32	5908.39
439.53	5857.19
439.74	5926.82
439.95	5988.26
440.16	5871.53
440.37	6064.04
440.57	5900.20
440.78	6080.42
440.99	6023.08
441.20	6088.61
441.41	5894.05
441.62	6109.09
441.83	5965.73
442.04	6139.81
442.25	6152.10
442.46	6055.84
442.67	6172.58
442.88	6573.98
443.09	6090.66
443.30	6139.81
443.51	6256.54
443.72	6500.25
443.93	6303.65
444.14	6383.52
444.35	6191.01
444.56	6360.99
444.77	6317.98
444.98	6555.55
445.19	6516.64
445.40	6442.91
445.61	6397.85
445.81	6600.60
446.02	6457.25
446.23	6510.49
446.44	6416.29
446.65	6657.95
446.86	6545.31
447.07	6633.37
447.28	6819.74
447.49	6719.39
447.70	6655.90
447.91	6682.52
448.12	6723.48
448.33	6799.26
448.54	6770.58
448.74	6760.34
448.95	6915.99
449.16	6709.15
449.37	6979.48
449.58	6786.97
449.79	7325.58
450.00	6897.56
450.21	7045.01
450.42	7139.22
450.63	7305.10
450.84	7042.96
451.05	7079.83
451.25	7094.16
451.46	7133.08
451.67	7325.58
451.88	7339.92
452.09	7305.10
452.30	7231.38
452.51	7186.32
452.72	7323.54
452.93	7737.23
453.13	7096.21
453.34	7307.15
453.55	7450.51
453.76	7501.71
453.97	7606.16
454.18	7380.88
454.39	7720.84
454.60	7456.65
454.81	7606.16
455.01	7757.71
455.22	7526.29
455.43	7722.89
455.64	7872.39
455.85	7876.49
456.06	7935.88
456.27	7823.24
456.48	7817.10
456.68	7974.79
456.89	7905.16
457.10	8095.62
457.31	8030.09
457.52	8066.95
457.73	8085.38
457.94	8167.30
458.14	8054.66
458.35	8568.70
458.56	8292.23
458.77	8271.75
458.98	8427.39
459.19	8298.37
459.39	8370.05
459.60	8595.32
459.81	8417.15
460.02	8527.74
460.23	8382.34
460.44	8853.37
460.65	8669.05
460.85	8744.83
461.06	8845.18
461.27	8664.96
461.48	9047.93
461.69	9062.26
461.89	8781.69
462.10	9033.59
462.31	8908.66
462.52	8992.63
462.73	9023.35
462.94	9373.55
463.14	8908.66
463.35	9209.72
463.56	9707.37
463.77	9453.42
463.98	9240.44
464.18	9342.83
464.39	9637.74
464.60	9856.87
464.81	9744.24
465.02	9666.41
465.23	9951.08
465.43	9559.92
465.64	9748.33
465.85	9979.75
466.06	9647.98
466.27	10094.44
466.47	9873.26
466.68	10383.20
466.89	9963.37
467.10	10168.16
467.30	10045.29
467.51	10282.85
467.72	10547.04
467.93	10245.99
468.14	10399.59
468.34	10588.00
468.55	10661.73
468.76	10776.41
468.97	10481.50
469.17	10719.07
469.38	10958.68
469.59	10919.77
469.80	10692.44
470.01	10880.86
470.21	10868.57
470.42	11134.81
470.63	11353.94
470.84	11124.57
471.04	11315.03
471.25	11319.12
471.46	11546.45
471.67	11454.29
471.87	11433.81
472.08	11685.71
472.29	11880.27
472.50	11579.22
472.70	11798.35
472.91	11751.24
473.12	11990.86
473.33	12027.72
473.53	12382.02
473.74	12027.72
473.95	12488.51
474.16	12498.75
474.36	12470.08
474.57	12767.04
474.78	12678.97
474.99	12574.53
475.19	12672.83
475.40	12957.50
475.61	12963.64
475.81	13162.30
476.02	13111.10
476.23	13176.63
476.44	13410.10
476.64	13530.93
476.85	13727.53
477.06	13487.92
477.27	13979.43
477.47	14026.54
477.68	13862.70
477.89	13983.53
478.09	13922.09
478.30	13975.34
478.51	14497.57
478.71	14311.21
478.92	14487.33
479.13	14618.40
479.34	14718.75
479.54	14634.78
479.75	14743.33
479.96	14962.46
480.16	14749.47
480.37	14976.80
480.58	15085.34
480.78	15347.48
480.99	15447.83
481.20	15511.32
481.41	15314.71
481.61	15490.84
481.82	15920.91
482.03	15714.06
482.23	15795.98
482.44	16142.09
482.65	16135.95
482.85	16170.76
483.06	16312.07
483.27	16027.40
483.47	16035.60
483.68	16437.00
483.89	16568.07
484.09	16324.36
484.30	16600.83
484.51	16957.18
484.71	17008.38
484.92	17094.40
485.13	17022.72
485.33	17280.76
485.54	17164.03
485.75	17508.08
485.95	17600.24
486.16	17553.14
486.37	17870.58
486.57	17770.22
486.78	17870.58
486.98	17866.48
487.19	18028.27
487.40	18024.17
487.60	18267.88
487.81	18603.75
488.02	18200.30
488.22	18349.80
488.43	18460.39
488.64	18683.62
488.84	18693.86
489.05	18820.83
489.25	18849.50
489.46	19209.95
489.67	19078.88
489.87	19226.33
490.08	19320.54
490.29	19054.30
490.49	19568.34
490.70	19400.41
490.90	19709.65
491.11	19838.67
491.32	20066.00
491.52	19859.15
491.73	20145.87
491.94	20207.31
492.14	20121.29
492.35	20278.99
492.55	20217.55
492.76	20373.19
492.97	20768.45
493.17	20336.33
493.38	20819.65
493.58	20952.77
493.79	20989.63
494.00	20825.79
494.20	21143.23
494.41	21190.33
494.61	21147.33
494.82	21307.07
495.02	21106.37
495.23	21636.79
495.44	21536.44
495.64	21626.55
495.85	21851.83
496.05	21939.89
496.26	21345.98
496.47	22140.59
496.67	22034.10
496.88	22199.98
497.08	22304.43
497.29	22255.28
497.49	22410.92
497.70	22326.96
497.91	22742.69
498.11	22703.78
498.32	22785.70
498.52	22797.99
498.73	22931.11
498.93	22984.35
499.14	23051.94
499.34	22904.48
499.55	23236.25
499.76	22861.48
499.96	23301.79
500.17	23197.34
500.37	23754.39
500.58	23379.61
500.78	23633.56
500.99	23533.21
501.19	23633.56
501.40	23680.66
501.60	23754.39
501.81	23860.88
502.02	23963.28
502.22	23901.84
502.43	24084.11
502.63	24288.91
502.84	24389.26
503.04	24473.23
503.25	24202.89
503.45	24718.98
503.66	24647.30
503.86	24860.29
504.07	25042.56
504.27	24761.99
504.48	25081.47
504.68	25165.44
504.89	25216.64
505.09	25089.67
505.30	25108.10
505.50	25501.31
505.71	25355.90
505.91	25245.31
506.12	25241.21
506.32	25253.50
506.53	25409.15
506.73	25456.25
506.94	25810.55
507.14	25534.07
507.35	25638.52
507.55	25921.14
507.76	25751.16
507.96	25884.28
508.17	25958.00
508.37	25826.93
508.58	26123.89
508.78	26248.82
508.99	26050.16
509.19	26226.29
509.40	26476.14
509.60	26144.37
509.81	26670.70
510.01	26486.38
510.22	26402.41
510.42	26701.42
510.63	26674.79
510.83	26844.77
511.04	26578.54
511.24	26893.93
511.44	27080.29
511.65	26928.74
511.85	27012.71
512.06	26840.68
512.26	26775.14
512.47	27250.27
512.67	26992.23
512.88	27221.60
513.08	27240.03
513.29	27434.59
513.49	27446.88
513.69	27274.85
513.90	27756.12
514.10	27735.64
514.31	27369.05
514.51	27840.09
514.72	27881.05
514.92	27663.96
515.13	27792.98
515.33	27829.85
515.53	28073.56
515.74	27709.02
515.94	28276.30
516.15	28126.80
516.35	27887.19
516.56	28505.68
516.76	28530.25
516.96	28653.13
517.17	28243.54
517.37	28382.80
517.58	28653.13
517.78	28743.24
517.99	28325.46
518.19	28726.86
518.39	29183.55
518.60	29267.52
518.80	28751.43
519.01	29066.82
519.21	28945.99
519.41	29152.84
519.62	28857.93
519.82	29042.24
520.03	29423.17
520.23	29204.03
520.43	29222.47
520.64	29943.35
520.84	29705.79
521.05	29732.41
521.25	29892.15
521.45	29902.39
521.66	30070.33
521.86	30006.84
522.07	29937.21
522.27	30037.56
522.47	30162.48
522.68	30578.22
522.88	29857.34
523.08	30377.52
523.29	30438.96
523.49	30473.78
523.70	30553.65
523.90	30647.85
524.10	30854.70
524.31	30934.57
524.51	30602.80
524.71	31270.43
524.92	30955.05
525.12	31313.44
525.33	31102.50
525.53	31331.87
525.73	31723.04
525.94	31389.22
526.14	31387.17
526.34	31677.98
526.55	31741.47
526.75	31964.70
526.95	31766.04
527.16	31551.01
527.36	31890.97
527.56	32337.43
527.77	32056.85
527.97	32314.90
528.17	32384.53
528.38	32388.63
528.58	32552.46
528.78	32962.06
528.99	32355.86
529.19	33213.96
529.39	32613.90
529.60	33052.17
529.80	33109.51
530.00	33115.65
530.21	33295.88
530.41	33340.93
530.61	33328.64
530.82	33650.17
531.02	33504.77
531.22	33355.27
531.43	33740.29
531.63	34225.65
531.83	34158.07
532.04	34303.48
532.24	33928.70
532.44	34229.75
532.64	34100.73
532.85	34690.54
533.05	34526.71
533.25	34493.94
533.46	34381.30
533.66	34799.08
533.86	34883.05
534.07	35102.18
534.27	35182.06
534.47	35732.96
534.67	35077.61
534.88	35243.49
535.08	35200.49
535.28	35780.06
535.49	35448.29
535.69	35673.57
535.89	35833.31
536.09	36158.94
536.30	36275.67
536.50	35945.95
536.70	36453.84
536.91	36150.74
537.11	35884.51
537.31	36584.91
537.51	36345.30
537.72	36924.88
537.92	36670.93
538.12	37434.82
538.32	36705.74
538.53	37144.01
538.73	37387.72
538.93	36898.25
539.13	37273.03
539.34	37074.38
539.54	37275.08
539.74	37686.72
539.94	37600.71
540.15	37494.21
540.35	37674.43
540.55	37686.72
540.75	37365.19
540.96	37907.90
541.16	38184.38
541.36	38032.83
541.56	37809.60
541.77	38555.06
541.97	37940.67
542.17	38671.79
542.37	38532.53
542.58	38686.13
542.78	38581.68
542.98	38319.54
543.18	38288.82
543.38	38743.47
543.59	38901.17
543.79	38804.91
543.99	39200.17
544.19	39058.86
544.40	39015.85
544.60	39050.67
544.80	39437.73
545.00	39667.11
545.20	39544.23
545.41	39239.08
545.61	39040.43
545.81	39910.82
546.01	39187.88
546.21	40007.07
546.42	39716.26
546.62	39771.55
546.82	39869.86
547.02	39763.36
547.22	39962.01
547.43	39828.90
547.63	39861.66
547.83	40017.31
548.03	39998.88
548.23	40009.12
548.44	40021.41
548.64	40445.33
548.84	40578.45
549.04	40553.88
549.24	40398.23
549.45	40570.26
549.65	40175.00
549.85	40689.04
550.05	41072.01
550.25	40699.28
550.45	41166.22
550.66	40908.18
550.86	40899.98
551.06	41235.85
551.26	41112.97
551.46	41121.16
551.66	41110.92
551.87	41151.88
552.07	41334.15
552.27	41336.20
552.47	41330.06
552.67	41516.42
552.87	41434.50
553.07	41604.49
553.28	41561.48
553.48	41643.40
553.68	41612.68
553.88	42380.67
554.08	41975.17
554.28	41688.45
554.48	42030.46
554.69	41887.10
554.89	41856.39
555.09	42270.08
555.29	41768.32
555.49	41942.40
555.69	41921.92
555.89	41895.30
556.10	42038.65
556.30	42036.61
556.50	42300.79
556.70	42003.84
556.90	42317.18
557.10	42292.60
557.30	42333.56
557.50	42347.90
557.70	42442.10
557.91	42915.19
558.11	42734.96
558.31	43081.07
558.51	42696.05
558.71	42767.73
558.91	43060.59
559.11	42655.09
559.31	42579.32
559.51	42968.43
559.72	42952.05
559.92	42947.95
560.12	42622.33
560.32	42950.00
560.52	42947.95
560.72	43126.13
560.92	43455.85
561.12	42888.56
561.32	43285.87
561.52	43330.92
561.72	43666.79
561.93	43095.41
562.13	43627.88
562.33	43111.79
562.53	43851.11
562.73	43425.13
562.93	43296.11
563.13	43625.83
563.33	43461.99
563.53	44027.23
563.73	43715.94
563.93	43689.32
564.13	44074.34
564.33	43869.54
564.53	43877.73
564.74	44184.93
564.94	43677.03
565.14	43867.49
565.34	44256.60
565.54	43853.15
565.74	43783.52
565.94	44522.84
566.14	44356.96
566.34	43892.07
566.54	44592.47
566.74	44209.50
566.94	44789.08
567.14	44744.02
567.34	44479.83
567.54	44608.86
567.74	44412.25
567.94	44365.15
568.14	44309.85
568.34	44571.99
568.54	44744.02
568.74	44795.22
568.94	44864.85
569.14	44950.87
569.34	44961.11
569.54	44879.19
569.75	44547.42
569.95	45004.11
570.15	45313.36
570.35	45180.24
570.55	44881.24
570.75	45135.18
570.95	45008.21
571.15	44936.53
571.35	45022.54
571.55	45432.14
571.75	45471.05
571.95	45401.42
572.15	45016.40
572.35	45423.95
572.55	45618.50
572.75	45671.75
572.95	45712.71
573.15	45823.30
573.35	45591.88
573.55	45378.89
573.75	45626.70
573.95	45782.34
574.15	45503.82
574.35	45643.08
574.55	45487.43
574.75	45454.67
574.95	46103.87
575.15	45886.79
575.34	46150.98
575.54	46343.48
575.74	46327.10
575.94	46261.57
576.14	46236.99
576.34	46611.77
576.54	46867.76
576.74	46380.35
576.94	46464.32
577.14	46525.75
577.34	46941.49
577.54	46261.57
577.74	46583.10
577.94	46527.80
578.14	46939.44
578.34	47172.91
578.54	46503.23
578.74	46665.02
578.94	46880.05
579.14	46943.54
579.34	46918.96
579.54	47084.85
579.74	47308.08
579.94	47125.81
580.13	47529.26
580.33	47070.51
580.53	47379.76
580.73	46908.72
580.93	47525.16
581.13	47619.37
581.33	47721.77
581.53	47729.96
581.73	47265.07
581.93	47949.09
582.13	47957.28
582.33	47889.70
582.53	47678.76
582.73	48297.25
582.92	48182.56
583.12	47725.86
583.32	47656.23
583.52	47672.62
583.72	48362.78
583.92	48301.34
584.12	47922.47
584.32	48448.80
584.52	48256.29
584.72	48389.41
584.92	48586.01
585.11	48936.21
585.31	48631.07
585.51	48586.01
585.71	48577.82
585.91	48788.76
586.11	49016.08
586.31	48477.47
586.51	48643.35
586.71	48872.73
586.91	49354.00
587.10	49149.20
587.30	49157.39
587.50	49345.81
587.70	49083.67
587.90	49650.95
588.10	49308.94
588.30	49566.99
588.50	49220.88
