SpectraSuite Data File
++++++++++++++++++++++++++++++++++++
Date: Fri Jun 02 14:53:30 CEST 2017
User: INFO_000
Dark Spectrum Present: No
Reference Spectrum Present: No
Number of Sampled Component Spectra: 1
Spectrometers: USB4H00879
Integration Time (usec): 80000 (USB4H00879)
Spectra Averaged: 1 (USB4H00879)
Boxcar Smoothing: 0 (USB4H00879)
Correct for Electrical Dark: No (USB4H00879)
Strobe/Lamp Enabled: No (USB4H00879)
Correct for Detector Non-linearity: No (USB4H00879)
Correct for Stray Light: No (USB4H00879)
Number of Pixels in Processed Spectrum: 3648
>>>>>Begin Processed Spectral Data<<<<<
345.13	1296.36
345.34	1296.36
345.56	1296.36
345.78	1288.17
345.99	1382.38
346.21	1712.10
346.42	1654.76
346.64	1658.85
346.86	1746.92
347.07	1658.85
347.29	1718.25
347.50	1626.09
347.72	1675.24
347.94	1830.88
348.15	1595.37
348.37	1609.70
348.59	1656.81
348.80	1667.05
349.02	1791.97
349.23	1886.18
349.45	1830.88
349.67	1918.95
349.88	1837.03
350.10	1978.34
350.31	1888.23
350.53	1820.64
350.75	1959.91
350.96	1773.54
351.18	1961.95
351.39	1890.28
351.61	1865.70
351.82	1904.61
352.04	1920.99
352.26	1841.12
352.47	1843.17
352.69	1943.52
352.90	1843.17
353.12	1880.04
353.34	1871.84
353.55	1900.52
353.77	1873.89
353.98	1824.74
354.20	1830.88
354.41	1904.61
354.63	1959.91
354.85	1996.77
355.06	1908.71
355.28	1816.55
355.49	1949.67
355.71	1945.57
355.92	1906.66
356.14	1906.66
356.35	1914.85
356.57	1785.83
356.79	2017.25
357.00	1896.42
357.22	1978.34
357.43	1886.18
357.65	1964.00
357.86	1931.23
358.08	1970.15
358.29	2000.87
358.51	1961.95
358.72	2031.58
358.94	2015.20
359.16	1937.38
359.37	1998.82
359.59	2025.44
359.80	1996.77
360.02	1910.75
360.23	1902.56
360.45	2021.35
360.66	1918.95
360.88	1779.68
361.09	2000.87
361.31	1994.72
361.52	2023.39
361.74	2025.44
361.95	1992.67
362.17	1964.00
362.38	2097.12
362.60	2035.68
362.81	1988.58
363.03	1980.39
363.24	1964.00
363.46	2060.26
363.67	2007.01
363.89	2080.74
364.10	1986.53
364.32	1970.15
364.53	2090.98
364.75	1931.23
364.96	2019.30
365.18	1978.34
365.39	2007.01
365.61	1990.63
365.82	2105.31
366.04	2037.73
366.25	1996.77
366.47	2019.30
366.68	2000.87
366.90	2000.87
367.11	2150.37
367.33	2205.66
367.54	2090.98
367.76	2039.78
367.97	2107.36
368.19	2037.73
368.40	2027.49
368.62	1990.63
368.83	2011.11
369.05	2013.15
369.26	1984.48
369.48	2009.06
369.69	1959.91
369.91	2041.82
370.12	2017.25
370.33	2133.98
370.55	1980.39
370.76	2052.06
370.98	2041.82
371.19	2099.17
371.41	2031.58
371.62	2080.74
371.84	2027.49
372.05	2187.23
372.27	2119.65
372.48	2021.35
372.69	2043.87
372.91	2183.13
373.12	2166.75
373.34	2045.92
373.55	2125.79
373.77	2222.05
373.98	2072.54
374.20	2224.09
374.41	2289.63
374.62	2150.37
374.84	2162.66
375.05	2156.51
375.27	2224.09
375.48	2174.94
375.70	2189.28
375.91	2215.90
376.12	2297.82
376.34	2099.17
376.55	2131.94
376.77	2129.89
376.98	2170.85
377.19	2158.56
377.41	2148.32
377.62	2213.85
377.84	2252.77
378.05	2365.40
378.27	2054.11
378.48	2281.44
378.69	2316.25
378.91	2363.36
379.12	2213.85
379.34	2215.90
379.55	2324.44
379.76	2232.29
379.98	2217.95
380.19	2240.48
380.41	2263.01
380.62	2408.41
380.83	2263.01
381.05	2236.38
381.26	2469.85
381.47	2289.63
381.69	2265.05
381.90	2410.46
382.12	2297.82
382.33	2318.30
382.54	2359.26
382.76	2265.05
382.97	2287.58
383.19	2236.38
383.40	2426.84
383.61	2392.03
383.83	2289.63
384.04	2373.60
384.25	2359.26
384.47	2412.51
384.68	2441.18
384.89	2297.82
385.11	2355.16
385.32	2330.59
385.54	2367.45
385.75	2375.64
385.96	2410.46
386.18	2396.12
386.39	2463.71
386.60	2359.26
386.82	2416.60
387.03	2494.43
387.24	2410.46
387.46	2459.61
387.67	2510.81
387.88	2568.15
388.10	2416.60
388.31	2510.81
388.52	2609.11
388.74	2492.38
388.95	2500.57
389.16	2537.43
389.38	2486.23
389.59	2559.96
389.80	2621.40
390.02	2525.15
390.23	2674.65
390.44	2566.10
390.66	2533.34
390.87	2580.44
391.08	2611.16
391.30	2637.78
391.51	2795.48
391.72	2707.41
391.94	2711.51
392.15	2650.07
392.36	2639.83
392.58	2570.20
392.79	2668.50
393.00	2719.70
393.22	2691.03
393.43	2740.18
393.64	2852.82
393.85	2830.29
394.07	2666.46
394.28	2865.11
394.49	2850.77
394.71	2858.96
394.92	2881.49
395.13	2678.74
395.35	2701.27
395.56	2762.71
395.77	2770.90
395.98	2824.15
396.20	2947.03
396.41	2994.13
396.62	2912.21
396.84	2797.53
397.05	2865.11
397.26	2922.45
397.47	2953.17
397.69	2914.26
397.90	3014.61
398.11	2953.17
398.32	3016.66
398.54	2908.12
398.75	2887.64
398.96	2965.46
399.18	3069.91
399.39	3012.56
399.60	2979.79
399.81	3000.27
400.03	3061.71
400.24	3170.26
400.45	3008.47
400.66	3182.54
400.88	2971.60
401.09	3252.17
401.30	3160.02
401.51	3205.07
401.73	3135.44
401.94	3239.89
402.15	3243.98
402.36	3211.22
402.58	3129.30
402.79	3170.26
403.00	3246.03
403.21	3209.17
403.43	3276.75
403.64	3321.81
403.85	3223.50
404.06	3280.85
404.27	3178.45
404.49	3184.59
404.70	3225.55
404.91	3346.38
405.12	3344.33
405.34	3327.95
405.55	3411.92
405.76	3233.74
405.97	3209.17
406.19	3411.92
406.40	3196.88
406.61	3461.07
406.82	3336.14
407.03	3373.00
407.25	3330.00
407.46	3323.85
407.67	3467.21
407.88	3547.08
408.09	3321.81
408.31	3377.10
408.52	3491.79
408.73	3385.29
408.94	3327.95
409.15	3411.92
409.37	3450.83
409.58	3563.47
409.79	3596.23
410.00	3542.99
410.21	3385.29
410.43	3573.71
410.64	3540.94
410.85	3600.33
411.06	3551.18
411.27	3555.27
411.48	3694.54
411.70	3514.31
411.91	3594.19
412.12	3712.97
412.33	3459.02
412.54	3542.99
412.76	3758.02
412.97	3706.82
413.18	3518.41
413.39	3694.54
413.60	3684.30
413.81	3561.42
414.03	3665.86
414.24	3624.90
414.45	3708.87
414.66	3563.47
414.87	3755.97
415.08	3712.97
415.30	3631.05
415.51	3758.02
415.72	3719.11
415.93	3717.06
416.14	3829.70
416.35	3694.54
416.56	3805.13
416.78	3825.61
416.99	3841.99
417.20	3903.43
417.41	3882.95
417.62	3903.43
417.83	3923.91
418.04	4014.02
418.26	3993.54
418.47	3776.45
418.68	3975.11
418.89	3934.15
419.10	3995.59
419.31	3930.05
419.52	4024.26
419.73	4036.55
419.95	4198.34
420.16	3858.37
420.37	4020.16
420.58	4132.80
420.79	3960.77
421.00	4167.62
421.21	4059.07
421.42	3983.30
421.63	4188.10
421.85	4048.83
422.06	4179.90
422.27	4104.13
422.48	4241.34
422.69	4288.45
422.90	4296.64
423.11	4194.24
423.32	4329.41
423.53	4304.83
423.75	4384.70
423.96	4325.31
424.17	4333.50
424.38	4540.35
424.59	4353.98
424.80	4550.59
425.01	4444.09
425.22	4474.81
425.43	4421.56
425.64	4663.22
425.85	4562.87
426.06	4569.02
426.28	4706.23
426.49	4550.59
426.70	4526.01
426.91	4556.73
427.12	4628.41
427.33	4540.35
427.54	4618.17
427.75	4794.29
427.96	4835.25
428.17	4751.29
428.38	4947.89
428.59	4829.11
428.80	4777.91
429.01	4788.15
429.23	4835.25
429.44	5105.59
429.65	5177.26
429.86	5038.00
430.07	4833.21
430.28	4843.45
430.49	5019.57
430.70	5167.03
430.91	5191.60
431.12	5074.87
431.33	5148.59
431.54	5257.14
431.75	5134.26
431.96	5226.42
432.17	5056.43
432.38	5181.36
432.59	5470.12
432.80	5367.73
433.01	5363.63
433.22	5361.58
433.43	5361.58
433.64	5369.77
433.85	5357.49
434.06	5472.17
434.27	5394.35
434.49	5515.18
434.70	5474.22
434.91	5582.76
435.12	5603.24
435.33	5738.41
435.54	5500.84
435.75	5332.91
435.96	5562.28
436.17	5466.03
436.38	5629.87
436.59	5730.22
436.80	5595.05
437.01	5814.18
437.22	5791.66
437.43	5775.27
437.64	5640.11
437.85	5924.77
438.06	5892.01
438.27	5857.19
438.48	5832.62
438.69	5939.11
438.90	5910.44
439.11	5797.80
439.32	6051.75
439.53	6029.22
439.74	6008.74
439.95	5998.50
440.16	5926.82
440.37	6041.51
440.57	5849.00
440.78	6096.80
440.99	6172.58
441.20	6170.53
441.41	5982.12
441.62	6068.13
441.83	6131.62
442.04	6315.94
442.25	6211.49
442.46	6156.19
442.67	6277.02
442.88	6633.37
443.09	6219.68
443.30	6451.10
443.51	6356.90
443.72	6604.70
443.93	6287.26
444.14	6678.43
444.35	6340.51
444.56	6350.75
444.77	6547.36
444.98	6676.38
445.19	6635.42
445.40	6533.02
445.61	6557.60
445.81	6666.14
446.02	6692.76
446.23	6520.73
446.44	6506.40
446.65	6596.51
446.86	6686.62
447.07	6774.68
447.28	6913.94
447.49	6827.93
447.70	6803.35
447.91	6791.06
448.12	6813.59
448.33	6918.04
448.54	6866.84
448.74	6741.91
448.95	7026.58
449.16	6883.22
449.37	7235.47
449.58	7012.24
449.79	7137.17
450.00	6760.34
450.21	7006.10
450.42	7231.38
450.63	7286.67
450.84	7008.15
451.05	7182.23
451.25	7163.79
451.46	6971.29
451.67	7294.86
451.88	7409.55
452.09	7358.35
452.30	7370.64
452.51	7358.35
452.72	7356.30
452.93	7655.31
453.13	7186.32
453.34	7341.97
453.55	7514.00
453.76	7434.13
453.97	7653.26
454.18	7442.32
454.39	7477.13
454.60	7690.12
454.81	7735.18
455.01	7821.19
455.22	7524.24
455.43	7630.73
455.64	7962.50
455.85	8060.80
456.06	8028.04
456.27	7862.15
456.48	7974.79
456.68	7919.50
456.89	8042.37
457.10	7991.17
457.31	7853.96
457.52	8120.20
457.73	8183.68
457.94	8388.48
458.14	8046.47
458.35	8621.95
458.56	8214.40
458.77	8171.40
458.98	8329.09
459.19	8292.23
459.39	8435.58
459.60	8609.66
459.81	8286.08
460.02	8728.44
460.23	8658.81
460.44	8705.92
460.65	8529.79
460.85	8707.96
461.06	8892.28
461.27	8568.70
461.48	8882.04
461.69	8814.46
461.89	8703.87
462.10	9043.83
462.31	8861.56
462.52	8892.28
462.73	8826.75
462.94	9187.19
463.14	8970.10
463.35	9095.03
463.56	9297.78
463.77	9490.29
463.98	9142.13
464.18	9232.24
464.39	9498.48
464.60	9537.39
464.81	9686.89
465.02	9490.29
465.23	9875.31
465.43	9559.92
465.64	9725.80
465.85	9699.18
466.06	9590.64
466.27	9924.46
466.47	10065.77
466.68	10078.05
466.89	9967.46
467.10	10149.73
467.30	10012.52
467.51	10395.49
467.72	10157.92
467.93	9875.31
468.14	10458.98
468.34	10366.82
468.55	10321.76
468.76	10415.97
468.97	10231.65
469.17	10682.20
469.38	10624.86
469.59	10827.61
469.80	10456.93
470.01	10800.99
470.21	10690.40
470.42	10968.92
470.63	11190.10
470.84	10989.40
471.04	11036.50
471.25	11102.04
471.46	11038.55
471.67	11345.75
471.87	11114.33
472.08	11413.33
472.29	11820.88
472.50	11386.71
472.70	11511.63
472.91	11603.79
473.12	11835.21
473.33	11880.27
473.53	12019.53
473.74	11855.69
473.95	12060.49
474.16	12271.43
474.36	12345.16
474.57	12345.16
474.78	12388.16
474.99	12406.59
475.19	12334.92
475.40	12826.43
475.61	12803.90
475.81	12977.98
476.02	12945.21
476.23	12805.95
476.44	13160.25
476.64	13160.25
476.85	13358.90
477.06	13266.74
477.27	13743.92
477.47	13627.18
477.68	13766.45
477.89	13823.79
478.09	13803.31
478.30	13920.04
478.51	13856.56
478.71	14077.74
478.92	14100.26
479.13	14159.66
479.34	14626.59
479.54	14577.44
479.75	14499.62
479.96	14663.46
480.16	14735.14
480.37	14839.58
480.58	15144.73
480.78	15261.46
480.99	15126.30
481.20	15331.09
481.41	15456.02
481.61	15435.54
481.82	15658.77
482.03	15402.77
482.23	15539.99
482.44	16066.31
482.65	16035.60
482.85	16025.36
483.06	16072.46
483.27	16221.96
483.47	16166.67
483.68	16350.98
483.89	16535.30
484.09	16482.05
484.30	16633.60
484.51	17041.15
484.71	17000.19
484.92	16969.47
485.13	17004.28
485.33	17137.40
485.54	17071.87
485.75	17377.01
485.95	17352.44
486.16	17436.41
486.37	17737.46
486.57	17483.51
486.78	17891.06
486.98	17938.16
487.19	18151.15
487.40	18032.36
487.60	17985.26
487.81	18523.88
488.02	18519.78
488.22	18255.59
488.43	18372.33
488.64	18507.49
488.84	18812.64
489.05	18882.27
489.25	18869.98
489.46	19144.41
489.67	19091.16
489.87	19396.31
490.08	19488.47
490.29	19554.01
490.49	19459.80
490.70	19924.69
490.90	19949.26
491.11	19846.87
491.32	19967.70
491.52	19857.10
491.73	20393.67
491.94	20066.00
492.14	20076.24
492.35	20508.36
492.55	20641.48
492.76	20833.99
492.97	20754.12
493.17	20870.85
493.38	20854.47
493.58	21405.37
493.79	21157.57
494.00	21309.11
494.20	21454.52
494.41	21587.64
494.61	21571.25
494.82	21763.76
495.02	21687.99
495.23	21683.89
495.44	22019.76
495.64	21837.49
495.85	21907.12
496.05	22238.89
496.26	22154.93
496.47	22404.78
496.67	22263.47
496.88	22601.38
497.08	22314.67
497.29	22988.45
497.49	22744.74
497.70	22896.29
497.91	23295.64
498.11	23342.75
498.32	23207.58
498.52	23103.14
498.73	23756.44
498.93	23486.11
499.14	23531.16
499.34	23584.41
499.55	23799.44
499.76	23746.20
499.96	23875.22
500.17	23670.42
500.37	23987.86
500.58	24030.87
500.78	24239.76
500.99	24448.65
501.19	24366.73
501.40	24417.93
501.60	24395.40
501.81	24424.08
502.02	24549.00
502.22	24637.06
502.43	24542.86
502.63	24884.87
502.84	24866.44
503.04	24809.09
503.25	24817.29
503.45	25050.75
503.66	25192.06
503.86	25276.03
504.07	25325.18
504.27	25210.50
504.48	25638.52
504.68	25544.31
504.89	25824.89
505.09	25708.15
505.30	25753.21
505.50	25745.02
505.71	25785.97
505.91	26123.89
506.12	25851.51
506.32	26054.26
506.53	26140.27
506.73	26203.76
506.94	26222.19
507.14	25992.82
507.35	26250.86
507.55	26351.21
507.76	26668.65
507.96	26336.88
508.17	26513.00
508.37	26535.53
508.58	26488.43
508.78	27307.62
508.99	27100.77
509.19	26916.45
509.40	27070.05
509.60	26719.85
509.81	26961.51
510.01	26926.69
510.22	26781.29
510.42	27037.28
510.63	27604.57
510.83	27381.34
511.04	27311.71
511.24	27385.44
511.44	27299.42
511.65	27604.57
511.85	27299.42
512.06	27704.92
512.26	28116.56
512.47	27825.75
512.67	27883.09
512.88	27928.15
513.08	27700.83
513.29	28042.84
513.49	27702.87
513.69	27917.91
513.90	28028.50
514.10	27825.75
514.31	28079.70
514.51	28442.19
514.72	28145.23
514.92	27862.61
515.13	28059.22
515.33	28231.25
515.53	28153.43
515.74	28536.40
515.94	28454.48
516.15	28585.55
516.35	28470.86
516.56	28649.03
516.76	28536.40
516.96	28563.02
517.17	28821.06
517.37	28878.41
517.58	28624.46
517.78	28814.92
517.99	29189.70
518.19	28870.22
518.39	28884.55
518.60	29259.33
518.80	29009.48
519.01	29234.75
519.21	29046.34
519.41	29496.89
519.62	29142.60
519.82	29253.19
520.03	29503.04
520.23	29535.81
520.43	29339.20
520.64	29818.42
520.84	29765.18
521.05	29625.92
521.25	29556.28
521.45	29847.10
521.66	29896.25
521.86	29890.10
522.07	29959.73
522.27	29816.38
522.47	29916.73
522.68	30211.64
522.88	30170.68
523.08	30733.87
523.29	30537.26
523.49	30144.05
523.70	30664.24
523.90	30711.34
524.10	30445.10
524.31	31192.61
524.51	30666.28
524.71	31301.15
524.92	30885.42
525.12	31424.03
525.33	31071.78
525.53	31141.41
525.73	31307.30
525.94	31393.31
526.14	31340.07
526.34	31782.43
526.55	31559.20
526.75	31211.04
526.95	31475.23
527.16	31342.11
527.36	31790.62
527.56	31888.92
527.77	31860.25
527.97	31901.21
528.17	31845.91
528.38	31893.02
528.58	32017.94
528.78	32497.17
528.99	32204.31
529.19	32435.73
529.39	32316.95
529.60	32630.29
529.80	32515.60
530.00	32558.61
530.21	32787.98
530.41	32968.20
530.61	32515.60
530.82	32917.00
531.02	32984.58
531.22	33037.83
531.43	32906.76
531.63	33285.64
531.83	33549.82
532.04	33754.62
532.24	33510.91
532.44	33848.83
532.64	33730.05
532.85	33801.72
533.05	33793.53
533.25	33803.77
533.46	34145.78
533.66	34231.80
533.86	34053.62
534.07	34375.16
534.27	34655.73
534.47	34549.23
534.67	34528.75
534.88	34430.45
535.08	34500.08
535.28	34618.86
535.49	35026.41
535.69	35155.43
535.89	35237.35
536.09	35075.56
536.30	35218.92
536.50	35429.86
536.70	35622.37
536.91	35722.72
537.11	35317.22
537.31	35421.67
537.51	35450.34
537.72	36019.67
537.92	36031.96
538.12	36070.87
538.32	36103.64
538.53	36558.29
538.73	36185.56
538.93	36228.57
539.13	36148.70
539.34	36318.68
539.54	36349.40
539.74	36511.19
539.94	36546.00
540.15	36406.74
540.35	36845.01
540.55	36789.71
540.75	36576.72
540.96	36810.19
541.16	36998.60
541.36	37002.70
541.56	37139.91
541.77	37619.14
541.97	37133.77
542.17	37422.53
542.37	37246.41
542.58	37492.16
542.78	37475.78
542.98	37379.53
543.18	37651.91
543.38	37612.99
543.59	37858.75
543.79	37899.71
543.99	37901.76
544.19	38354.36
544.40	37813.70
544.60	38563.25
544.80	38471.09
545.00	38522.29
545.20	38659.51
545.41	38391.22
545.61	38434.23
545.81	38565.30
546.01	38532.53
546.21	38589.88
546.42	38393.27
546.62	38725.04
546.82	38837.68
547.02	39050.67
547.22	39069.10
547.43	38884.78
547.63	39011.76
547.83	39359.91
548.03	39386.54
548.23	39837.09
548.44	39321.00
548.64	39017.90
548.84	39413.16
549.04	39486.89
549.24	39957.92
549.45	40164.76
549.65	39818.66
549.85	39902.62
550.05	39953.82
550.25	40140.19
550.45	40562.07
550.66	40422.81
550.86	40175.00
551.06	40646.04
551.26	40670.61
551.46	40514.97
551.66	40703.38
551.87	40293.79
552.07	40519.06
552.27	40431.00
552.47	40732.05
552.67	41080.21
552.87	40971.66
553.07	40986.00
553.28	41194.89
553.48	40693.14
553.68	41086.35
553.88	41710.98
554.08	41436.55
554.28	41244.04
554.48	40793.49
554.69	41518.47
554.89	41858.43
555.09	41504.13
555.29	41221.52
555.49	41928.06
555.69	41743.75
555.89	41422.22
556.10	42048.89
556.30	41385.35
556.50	41721.22
556.70	41821.57
556.90	42093.95
557.10	42139.00
557.30	41921.92
557.50	42061.18
557.70	42202.49
557.91	42112.38
558.11	42108.29
558.31	42718.58
558.51	42321.27
558.71	42640.76
558.91	42970.48
559.11	42294.65
559.31	42646.90
559.51	42704.24
559.72	42769.78
559.92	42943.86
560.12	42517.88
560.32	42724.72
560.52	42769.78
560.72	43115.89
560.92	43074.93
561.12	43359.59
561.32	43535.72
561.52	43162.99
561.72	43328.87
561.93	43402.60
562.13	43611.49
562.33	43222.38
562.53	43617.64
562.73	43310.44
562.93	43525.48
563.13	43720.04
563.33	43574.63
563.53	43672.93
563.73	43320.68
563.93	44107.10
564.13	44272.99
564.33	44092.77
564.53	44094.82
564.74	44170.59
564.94	44123.49
565.14	43963.75
565.34	44070.24
565.54	44268.89
565.74	44324.19
565.94	44750.17
566.14	44328.28
566.34	44600.66
566.54	44873.04
566.74	44408.15
566.94	45251.92
567.14	45149.52
567.34	44645.72
567.54	45110.61
567.74	45098.32
567.94	44791.12
568.14	45641.03
568.34	45333.84
568.54	45063.50
568.74	45174.09
568.94	45241.68
569.14	45612.36
569.34	45311.31
569.54	45565.26
569.75	45196.62
569.95	45196.62
570.15	46073.15
570.35	45825.35
570.55	45366.60
570.75	45743.43
570.95	45501.77
571.15	45774.15
571.35	46122.30
571.55	46189.89
571.75	45929.80
571.95	46120.26
572.15	45976.90
572.35	46318.91
572.55	46267.71
572.75	46236.99
572.95	46384.44
573.15	46245.18
573.35	46232.89
573.55	45989.19
573.75	46441.79
573.95	46783.80
574.15	46589.24
574.35	46433.60
574.55	46302.53
574.75	46687.54
574.95	47109.43
575.15	46779.70
575.34	46970.16
575.54	47455.53
575.74	47369.52
575.94	47404.33
576.14	47007.03
576.34	47543.59
576.54	47463.72
576.74	47293.74
576.94	47777.06
577.14	47981.86
577.34	47439.15
577.54	47830.31
577.74	48039.20
577.94	48119.07
578.14	47697.19
578.34	48067.87
578.54	47256.88
578.74	47635.75
578.94	48366.88
579.14	47979.81
579.34	47879.46
579.54	48551.20
579.74	48348.45
579.94	48485.66
580.13	48422.17
580.33	48334.11
580.53	48870.68
580.73	48813.34
580.93	48719.13
581.13	49014.04
581.33	49011.99
581.53	48694.55
581.73	49075.48
581.93	49345.81
582.13	49216.78
582.33	48960.79
582.53	49091.86
582.73	49009.94
582.92	49011.99
583.12	49784.07
583.32	49321.23
583.52	49274.13
583.72	49579.28
583.92	49415.44
584.12	49427.73
584.32	49814.79
584.52	49827.08
584.72	49671.43
584.92	49943.81
585.11	50220.29
585.31	49988.87
585.51	49952.01
585.71	49726.73
585.91	50078.98
586.11	49810.70
586.31	50111.75
586.51	50234.63
586.71	50521.34
586.91	50576.64
587.10	50197.76
587.30	50511.10
587.50	50781.43
587.70	50355.46
587.90	50599.16
588.10	50644.22
588.30	50857.21
588.50	50787.58
