SpectraSuite Data File
++++++++++++++++++++++++++++++++++++
Date: Fri Jun 02 14:53:30 CEST 2017
User: INFO_000
Dark Spectrum Present: No
Reference Spectrum Present: No
Number of Sampled Component Spectra: 1
Spectrometers: USB4H00879
Integration Time (usec): 80000 (USB4H00879)
Spectra Averaged: 1 (USB4H00879)
Boxcar Smoothing: 0 (USB4H00879)
Correct for Electrical Dark: No (USB4H00879)
Strobe/Lamp Enabled: No (USB4H00879)
Correct for Detector Non-linearity: No (USB4H00879)
Correct for Stray Light: No (USB4H00879)
Number of Pixels in Processed Spectrum: 3648
>>>>>Begin Processed Spectral Data<<<<<
345.13	1302.51
345.34	1302.51
345.56	1302.51
345.78	1142.77
345.99	1368.04
346.21	1665.00
346.42	1728.49
346.64	1681.38
346.86	1802.21
347.07	1611.75
347.29	1726.44
347.50	1591.27
347.72	1652.71
347.94	1722.34
348.15	1540.07
348.37	1634.28
348.59	1753.06
348.80	1687.53
349.02	1794.02
349.23	1859.56
349.45	1839.08
349.67	1927.14
349.88	1834.98
350.10	1949.67
350.31	1839.08
350.53	1802.21
350.75	1953.76
350.96	1839.08
351.18	1949.67
351.39	1859.56
351.61	1841.12
351.82	1955.81
352.04	1910.75
352.26	1839.08
352.47	1877.99
352.69	1959.91
352.90	1777.64
353.12	1906.66
353.34	1869.80
353.55	1935.33
353.77	1910.75
353.98	1906.66
354.20	1904.61
354.41	1877.99
354.63	1927.14
354.85	2047.97
355.06	1945.57
355.28	1796.07
355.49	1812.45
355.71	1886.18
355.92	1900.52
356.14	1976.29
356.35	1855.46
356.57	1910.75
356.79	1886.18
357.00	1892.32
357.22	2013.15
357.43	1875.94
357.65	2033.63
357.86	1851.36
358.08	1906.66
358.29	1957.86
358.51	2009.06
358.72	1945.57
358.94	1904.61
359.16	1916.90
359.37	1970.15
359.59	1916.90
359.80	2017.25
360.02	1996.77
360.23	1957.86
360.45	1990.63
360.66	1943.52
360.88	1898.47
361.09	1910.75
361.31	2041.82
361.52	1871.84
361.74	2023.39
361.95	2136.03
362.17	2000.87
362.38	2043.87
362.60	1978.34
362.81	2000.87
363.03	1935.33
363.24	1998.82
363.46	2103.26
363.67	1986.53
363.89	1961.95
364.10	2013.15
364.32	1990.63
364.53	2080.74
364.75	1949.67
364.96	1968.10
365.18	2062.30
365.39	1996.77
365.61	1988.58
365.82	2131.94
366.04	2025.44
366.25	2007.01
366.47	2054.11
366.68	1984.48
366.90	2021.35
367.11	2019.30
367.33	2140.13
367.54	2045.92
367.76	2045.92
367.97	2072.54
368.19	2056.16
368.40	2039.78
368.62	2052.06
368.83	1992.67
369.05	2074.59
369.26	1972.19
369.48	2035.68
369.69	2023.39
369.91	2041.82
370.12	2076.64
370.33	2086.88
370.55	2035.68
370.76	2047.97
370.98	2068.45
371.19	2076.64
371.41	1976.29
371.62	2093.02
371.84	2039.78
372.05	2224.09
372.27	2080.74
372.48	2066.40
372.69	2105.31
372.91	2199.52
373.12	2174.94
373.34	2125.79
373.55	2101.22
373.77	2185.18
373.98	2082.78
374.20	2248.67
374.41	2263.01
374.62	2099.17
374.84	2150.37
375.05	2195.42
375.27	2191.33
375.48	2189.28
375.70	2213.85
375.91	2201.57
376.12	2301.92
376.34	2193.37
376.55	2127.84
376.77	2240.48
376.98	2136.03
377.19	2121.70
377.41	2201.57
377.62	2160.61
377.84	2277.34
378.05	2332.64
378.27	2205.66
378.48	2342.88
378.69	2424.80
378.91	2250.72
379.12	2252.77
379.34	2197.47
379.55	2342.88
379.76	2289.63
379.98	2256.86
380.19	2220.00
380.41	2256.86
380.62	2306.01
380.83	2205.66
381.05	2275.29
381.26	2422.75
381.47	2189.28
381.69	2252.77
381.90	2410.46
382.12	2308.06
382.33	2242.53
382.54	2289.63
382.76	2396.12
382.97	2449.37
383.19	2189.28
383.40	2428.89
383.61	2351.07
383.83	2275.29
384.04	2322.40
384.25	2392.03
384.47	2418.65
384.68	2328.54
384.89	2314.20
385.11	2326.49
385.32	2361.31
385.54	2428.89
385.75	2365.40
385.96	2439.13
386.18	2484.19
386.39	2410.46
386.60	2369.50
386.82	2377.69
387.03	2371.55
387.24	2555.86
387.46	2445.27
387.67	2584.54
387.88	2486.23
388.10	2428.89
388.31	2570.20
388.52	2570.20
388.74	2494.43
388.95	2484.19
389.16	2584.54
389.38	2514.91
389.59	2545.63
389.80	2721.75
390.02	2594.78
390.23	2787.29
390.44	2609.11
390.66	2547.67
390.87	2516.95
391.08	2510.81
391.30	2691.03
391.51	2596.82
391.72	2641.88
391.94	2637.78
392.15	2576.34
392.36	2633.69
392.58	2519.00
392.79	2668.50
393.00	2695.13
393.22	2654.17
393.43	2799.57
393.64	2791.38
393.85	2822.10
394.07	2734.04
394.28	2787.29
394.49	2805.72
394.71	2781.14
394.92	2805.72
395.13	2703.32
395.35	2723.80
395.56	2867.16
395.77	2760.66
395.98	2906.07
396.20	2844.63
396.41	2772.95
396.62	2871.25
396.84	2854.87
397.05	2846.68
397.26	2901.97
397.47	2967.51
397.69	2793.43
397.90	3030.99
398.11	2994.13
398.32	2901.97
398.54	2912.21
398.75	2981.84
398.96	2842.58
399.18	3049.43
399.39	2951.12
399.60	3010.51
399.81	3030.99
400.03	2897.88
400.24	3223.50
400.45	2987.99
400.66	2977.75
400.88	2975.70
401.09	3108.82
401.30	3112.91
401.51	3096.53
401.73	2992.08
401.94	3180.50
402.15	3162.06
402.36	3092.43
402.58	3067.86
402.79	3217.36
403.00	3137.49
403.21	3215.31
403.43	3223.50
403.64	3313.61
403.85	3119.06
404.06	3229.65
404.27	3106.77
404.49	3250.13
404.70	3168.21
404.91	3205.07
405.12	3164.11
405.34	3217.36
405.55	3330.00
405.76	3102.67
405.97	3241.93
406.19	3297.23
406.40	3332.05
406.61	3317.71
406.82	3389.39
407.03	3321.81
407.25	3278.80
407.46	3327.95
407.67	3454.92
407.88	3422.16
408.09	3377.10
408.31	3483.59
408.52	3282.89
408.73	3248.08
408.94	3422.16
409.15	3454.92
409.37	3565.51
409.58	3594.19
409.79	3475.40
410.00	3542.99
410.21	3477.45
410.43	3426.25
410.64	3481.55
410.85	3510.22
411.06	3579.85
411.27	3629.00
411.48	3477.45
411.70	3616.71
411.91	3655.62
412.12	3739.59
412.33	3710.92
412.54	3592.14
412.76	3764.17
412.97	3602.38
413.18	3454.92
413.39	3721.16
413.60	3825.61
413.81	3770.31
414.03	3618.76
414.24	3712.97
414.45	3870.66
414.66	3745.73
414.87	3702.73
415.08	3811.27
415.30	3796.93
415.51	3856.33
415.72	3788.74
415.93	3831.75
416.14	3708.87
416.35	3790.79
416.56	3782.60
416.78	3942.34
416.99	3909.57
417.20	3831.75
417.41	3909.57
417.62	3925.96
417.83	4059.07
418.04	3934.15
418.26	3940.29
418.47	3952.58
418.68	3977.16
418.89	3983.30
419.10	4261.82
419.31	4097.99
419.52	4075.46
419.73	4081.60
419.95	4261.82
420.16	4028.35
420.37	4052.93
420.58	4097.99
420.79	3991.49
421.00	4167.62
421.21	4259.78
421.42	4155.33
421.63	4259.78
421.85	4310.97
422.06	4317.12
422.27	4321.21
422.48	4239.30
422.69	4278.21
422.90	4290.49
423.11	4366.27
423.32	4333.50
423.53	4636.60
423.75	4566.97
423.96	4689.85
424.17	4505.53
424.38	4702.14
424.59	4493.24
424.80	4655.03
425.01	4609.98
425.22	4501.44
425.43	4562.87
425.64	4757.43
425.85	4728.76
426.06	4609.98
426.28	4603.83
426.49	4591.55
426.70	4695.99
426.91	4523.96
427.12	4710.33
427.33	4704.18
427.54	4726.71
427.75	4802.49
427.96	4927.41
428.17	4829.11
428.38	4806.58
428.59	4865.97
428.80	4919.22
429.01	4968.37
429.23	4958.13
429.44	5060.53
429.65	5146.55
429.86	5148.59
430.07	4956.08
430.28	5062.58
430.49	5027.76
430.70	5160.88
430.91	5085.11
431.12	5220.27
431.33	5154.74
431.54	5244.85
431.75	5238.70
431.96	5326.77
432.17	5160.88
432.38	5181.36
432.59	5390.25
432.80	5386.16
433.01	5437.36
433.22	5468.08
433.43	5461.93
433.64	5375.92
433.85	5312.43
434.06	5441.45
434.27	5449.64
434.49	5441.45
434.70	5521.32
434.91	5443.50
435.12	5578.67
435.33	5453.74
435.54	5423.02
435.75	5351.34
435.96	5480.36
436.17	5468.08
436.38	5590.95
436.59	5724.07
436.80	5652.39
437.01	5828.52
437.22	5808.04
437.43	5799.85
437.64	5607.34
437.85	5615.53
438.06	5922.73
438.27	5621.67
438.48	5779.37
438.69	5740.46
438.90	5922.73
439.11	5644.20
439.32	5906.34
439.53	5760.94
439.74	5881.77
439.95	5984.16
440.16	5945.25
440.37	6035.36
440.57	5758.89
440.78	6037.41
440.99	6045.60
441.20	5941.16
441.41	5883.81
441.62	6121.38
441.83	5953.45
442.04	6121.38
442.25	6014.88
442.46	6084.52
442.67	6154.15
442.88	6383.52
443.09	5971.88
443.30	6023.08
443.51	6270.88
443.72	6440.86
443.93	6047.65
444.14	6303.65
444.35	6008.74
444.56	6360.99
444.77	6242.21
444.98	6418.33
445.19	6393.76
445.40	6307.74
445.61	6217.63
445.81	6420.38
446.02	6428.57
446.23	6471.58
446.44	6277.02
446.65	6520.73
446.86	6399.90
447.07	6485.92
447.28	6545.31
447.49	6516.64
447.70	6451.10
447.91	6719.39
448.12	6586.27
448.33	6840.22
448.54	6784.92
448.74	6711.19
448.95	6834.07
449.16	6559.64
449.37	7038.87
449.58	6823.83
449.79	7120.79
450.00	6725.53
450.21	6918.04
450.42	6903.70
450.63	7024.53
450.84	6959.00
451.05	6819.74
451.25	6907.80
451.46	6811.54
451.67	7055.25
451.88	7100.31
452.09	7278.48
452.30	7028.63
452.51	7131.03
452.72	7280.53
452.93	7427.98
453.13	7094.16
453.34	7311.25
453.55	7239.57
453.76	7149.46
453.97	7643.02
454.18	7331.73
454.39	7624.59
454.60	7630.73
454.81	7503.76
455.01	7716.75
455.22	7387.02
455.43	7600.01
455.64	7724.94
455.85	7825.29
456.06	7935.88
456.27	7829.38
456.48	7563.15
456.68	7792.52
456.89	7974.79
457.10	7757.71
457.31	8003.46
457.52	7952.26
457.73	8140.68
457.94	8163.20
458.14	8046.47
458.35	8454.02
458.56	8251.27
458.77	8036.23
458.98	8236.93
459.19	8232.83
459.39	8419.20
459.60	8433.54
459.81	8353.66
460.02	8566.65
460.23	8501.12
460.44	8525.69
460.65	8669.05
460.85	8650.62
461.06	8769.40
461.27	8474.49
461.48	9064.31
461.69	9086.84
461.89	8712.06
462.10	8859.51
462.31	8658.81
462.52	8865.66
462.73	8923.00
462.94	9281.39
463.14	9133.94
463.35	9041.78
463.56	9484.14
463.77	9437.04
463.98	9322.35
464.18	9527.15
464.39	9719.66
464.60	9746.28
464.81	9547.63
465.02	9494.38
465.23	9887.59
465.43	9799.53
465.64	9875.31
465.85	9850.73
466.06	9785.19
466.27	9869.16
466.47	10168.16
466.68	10194.79
466.89	10180.45
467.10	10299.23
467.30	10168.16
467.51	10506.08
467.72	10391.39
467.93	10293.09
468.14	10624.86
468.34	10620.77
468.55	10772.32
468.76	10850.14
468.97	10432.35
469.17	10757.98
469.38	10925.91
469.59	11120.47
469.80	10893.15
470.01	11018.07
470.21	11149.14
470.42	11198.29
470.63	11405.14
470.84	11272.02
471.04	11622.22
471.25	11454.29
471.46	11519.82
471.67	11784.01
471.87	11753.29
472.08	11908.94
472.29	12099.40
472.50	11712.33
472.70	12027.72
472.91	11935.56
473.12	12093.26
473.33	12363.59
473.53	12597.06
473.74	12222.28
473.95	12525.38
474.16	12822.33
474.36	12748.61
474.57	12955.45
474.78	12885.82
474.99	13012.79
475.19	12840.76
475.40	13276.98
475.61	13217.59
475.81	13350.71
476.02	13571.89
476.23	13471.54
476.44	13461.30
476.64	13848.36
476.85	13879.08
477.06	13743.92
477.27	13985.58
477.47	14047.02
477.68	14106.41
477.89	14397.22
478.09	14407.46
478.30	14403.36
478.51	14475.04
478.71	14567.20
478.92	14710.56
479.13	14860.06
479.34	14929.69
479.54	14819.10
479.75	14858.01
479.96	15408.92
480.16	15144.73
480.37	15253.27
480.58	15585.04
480.78	15779.60
480.99	15621.91
481.20	15951.63
481.41	15968.01
481.61	16037.64
481.82	16031.50
482.03	15871.76
482.23	16086.79
482.44	16373.51
482.65	16557.83
482.85	16733.95
483.06	16684.80
483.27	16613.12
483.47	16729.86
483.68	16703.23
483.89	16987.90
484.09	16733.95
484.30	17309.43
484.51	17442.55
484.71	17086.20
484.92	17368.82
485.13	17542.90
485.33	17698.55
485.54	17626.87
485.75	17997.55
485.95	17923.82
486.16	17833.71
486.37	17991.41
486.57	18142.96
486.78	18222.83
486.98	18302.70
487.19	18251.50
487.40	18521.83
487.60	18507.49
487.81	18648.80
488.02	18632.42
488.22	18722.53
488.43	18810.59
488.64	18685.67
488.84	19361.50
489.05	19451.61
489.25	19166.94
489.46	19347.16
489.67	19177.18
489.87	19590.87
490.08	19248.86
490.29	19560.15
490.49	19945.17
490.70	19971.79
490.90	20041.42
491.11	19912.40
491.32	20037.33
491.52	20061.90
491.73	20152.01
491.94	20348.62
492.14	20338.38
492.35	20522.69
492.55	20551.37
492.76	20817.60
492.97	20842.18
493.17	20811.46
493.38	20948.67
493.58	20965.06
493.79	21223.10
494.00	20928.19
494.20	21022.40
494.41	21477.05
494.61	21475.00
494.82	21737.14
495.02	21331.64
495.23	21673.65
495.44	21593.78
495.64	21814.96
495.85	21839.54
496.05	22005.42
496.26	21800.63
496.47	22269.61
496.67	22095.53
496.88	22335.15
497.08	21974.70
497.29	22214.32
497.49	22357.67
497.70	22619.81
497.91	22425.26
498.11	22896.29
498.32	22662.82
498.52	22709.93
498.73	22894.24
498.93	22804.13
499.14	23045.79
499.34	23269.02
499.55	23090.85
499.76	23066.27
499.96	23187.10
500.17	23068.32
500.37	23275.16
500.58	23281.31
500.78	23549.59
500.99	23332.51
501.19	23490.20
501.40	23639.70
501.60	23549.59
501.81	23680.66
502.02	23762.58
502.22	23545.50
502.43	24080.02
502.63	24120.98
502.84	24370.83
503.04	24102.54
503.25	24374.92
503.45	24280.72
503.66	24561.29
503.86	24397.45
504.07	24430.22
504.27	24360.59
504.48	24751.75
504.68	24637.06
504.89	24901.25
505.09	24704.65
505.30	24690.31
505.50	25147.01
505.71	25104.00
505.91	24981.12
506.12	25013.89
506.32	25235.07
506.53	24864.39
506.73	25177.73
506.94	25024.13
507.14	25222.78
507.35	25343.61
507.55	25265.79
507.76	25552.51
507.96	25263.74
508.17	25517.69
508.37	25751.16
508.58	25751.16
508.78	25486.97
508.99	25812.60
509.19	25955.96
509.40	25927.28
509.60	25896.56
509.81	25996.92
510.01	25775.73
510.22	25880.18
510.42	26078.83
510.63	26179.18
510.83	26246.77
511.04	26056.31
511.24	26306.16
511.44	26330.73
511.65	26273.39
511.85	26189.42
512.06	26312.30
512.26	26478.19
512.47	26838.63
512.67	26793.58
512.88	26725.99
513.08	26531.44
513.29	26725.99
513.49	26527.34
513.69	26781.29
513.90	26900.07
514.10	27203.17
514.31	27280.99
514.51	26855.01
514.72	26988.13
514.92	26793.58
515.13	27209.31
515.33	27053.67
515.53	26914.41
515.74	27201.12
515.94	27532.89
516.15	27029.09
516.35	27496.03
516.56	27643.48
516.76	27414.11
516.96	27838.04
517.17	27788.89
517.37	27733.59
517.58	27719.26
517.78	27795.03
517.99	27737.69
518.19	28485.20
518.39	28261.97
518.60	28253.78
518.80	28259.92
519.01	28315.22
519.21	28345.94
519.41	28466.77
519.62	28200.53
519.82	28499.53
520.03	28583.50
520.23	28446.29
520.43	28565.07
520.64	29029.96
520.84	29060.68
521.05	28905.03
521.25	29275.71
521.45	29378.11
521.66	29312.58
521.86	29292.10
522.07	29191.75
522.27	29316.67
522.47	29249.09
522.68	29574.72
522.88	29521.47
523.08	29720.12
523.29	29976.12
523.49	29931.06
523.70	30019.13
523.90	29990.45
524.10	30078.52
524.31	30113.33
524.51	29832.76
524.71	30504.49
524.92	30416.43
525.12	30236.21
525.33	30527.02
525.53	30838.31
525.73	30967.34
525.94	30928.42
526.14	30946.86
526.34	31127.08
526.55	31069.73
526.75	31268.39
526.95	31512.10
527.16	31526.43
527.36	31440.42
527.56	31442.46
527.77	31630.88
527.97	31983.13
528.17	32189.97
528.38	31792.67
528.58	31915.54
528.78	31958.55
528.99	31882.78
529.19	32560.66
529.39	32136.73
529.60	32706.06
529.80	32312.85
530.00	32503.31
530.21	32830.99
530.41	32953.87
530.61	32656.91
530.82	32736.78
531.02	32908.81
531.22	33342.98
531.43	33183.24
531.63	33299.97
531.83	33998.33
532.04	33949.18
532.24	33715.71
532.44	34192.89
532.64	34309.62
532.85	34326.00
533.05	34117.11
533.25	34268.66
533.46	34010.62
533.66	34938.35
533.86	34530.80
534.07	34967.02
534.27	34964.97
534.47	35464.67
534.67	35270.12
534.88	35022.31
535.08	35063.27
535.28	35560.93
535.49	35591.65
535.69	35866.08
535.89	35411.43
536.09	36003.29
536.30	36115.93
536.50	36171.22
536.70	36095.45
536.91	36373.97
537.11	36253.14
537.31	36449.75
537.51	36412.88
537.72	37295.56
537.92	36941.26
538.12	37520.84
538.32	36802.00
538.53	37254.60
538.73	36779.47
538.93	37305.80
539.13	37465.54
539.34	37610.95
539.54	37686.72
539.74	37352.90
539.94	37475.78
540.15	37608.90
540.35	38018.49
540.55	37778.88
540.75	38041.02
540.96	38442.42
541.16	38292.92
541.36	38553.01
541.56	38432.18
541.77	38512.05
541.97	38481.33
542.17	38782.38
542.37	38823.34
542.58	39155.11
542.78	38667.70
542.98	38895.02
543.18	39058.86
543.38	39402.92
543.59	38999.47
543.79	39202.22
543.99	39413.16
544.19	39675.30
544.40	39331.24
544.60	39740.83
544.80	39953.82
545.00	39507.37
545.20	40224.15
545.41	39726.50
545.61	40119.71
545.81	40297.88
546.01	39931.29
546.21	40066.46
546.42	39933.34
546.62	40584.60
546.82	40557.97
547.02	40324.50
547.22	40664.47
547.43	40605.08
547.63	40633.75
547.83	40818.07
548.03	40486.29
548.23	41086.35
548.44	41213.32
548.64	41424.26
548.84	41350.54
549.04	41088.40
549.24	41000.33
549.45	41534.85
549.65	41352.58
549.85	41706.88
550.05	41962.88
550.25	41366.92
550.45	41856.39
550.66	42304.89
550.86	42182.01
551.06	42173.82
551.26	41645.44
551.46	42210.68
551.66	42057.09
551.87	42100.09
552.07	41936.26
552.27	42184.06
552.47	42401.14
552.67	42417.53
552.87	42327.42
553.07	42663.28
553.28	42644.85
553.48	42790.26
553.68	42900.85
553.88	42847.60
554.08	43074.93
554.28	42988.91
554.48	42538.36
554.69	42915.19
554.89	42943.86
555.09	43040.11
555.29	42845.55
555.49	43150.70
555.69	43316.59
555.89	42847.60
556.10	43179.37
556.30	43195.76
556.50	43619.69
556.70	43427.18
556.90	43726.18
557.10	43455.85
557.30	43234.67
557.50	43543.91
557.70	43824.48
557.91	43930.98
558.11	43873.63
558.31	43824.48
558.51	43541.86
558.71	44027.23
558.91	43980.13
559.11	43689.32
559.31	44041.57
559.51	43986.27
559.72	44025.18
559.92	43812.20
560.12	44139.87
560.32	44402.01
560.52	44012.90
560.72	44262.75
560.92	44021.09
561.12	44320.09
561.32	44709.21
561.52	44049.76
561.72	44440.92
561.93	44426.59
562.13	44330.33
562.33	44205.41
562.53	44750.17
562.73	44146.01
562.93	44670.29
563.13	44897.62
563.33	44494.17
563.53	44850.52
563.73	44551.51
563.93	44780.88
564.13	45057.36
564.33	44748.12
564.53	44852.56
564.74	44766.55
564.94	44895.57
565.14	44791.12
565.34	44651.86
565.54	44893.52
565.74	45022.54
565.94	45493.58
566.14	45088.08
566.34	44895.57
566.54	45923.65
566.74	45143.38
566.94	45122.90
567.14	45458.76
567.34	45086.03
567.54	45395.28
567.74	45196.62
567.94	45274.45
568.14	45731.14
568.34	45536.59
568.54	45796.68
568.74	45874.50
568.94	45387.08
569.14	45653.32
569.34	45911.36
569.54	45761.86
569.75	45393.23
569.95	45421.90
570.15	46220.61
570.35	45598.02
570.55	45966.66
570.75	45862.21
570.95	46187.84
571.15	46015.81
571.35	45604.17
571.55	45935.94
571.75	45819.20
571.95	46185.79
572.15	45989.19
572.35	46011.71
572.55	45983.04
572.75	45884.74
572.95	45757.77
573.15	46169.41
573.35	45954.37
573.55	45978.95
573.75	46116.16
573.95	45897.03
574.15	46093.63
574.35	46611.77
574.55	46204.22
574.75	46497.08
574.95	46175.55
575.15	46249.28
575.34	46638.39
575.54	46615.86
575.74	46742.84
575.94	46722.36
576.14	46464.32
576.34	47062.32
576.54	46607.67
576.74	47183.15
576.94	46800.18
577.14	46912.82
577.34	46990.64
577.54	46941.49
577.74	47093.04
577.94	46699.83
578.14	46976.31
578.34	47250.74
578.54	46501.18
578.74	46880.05
578.94	47355.18
579.14	47269.17
579.34	47469.87
579.54	46957.88
579.74	47174.96
579.94	47396.14
580.13	47756.58
580.33	47797.54
580.53	47254.83
580.73	47834.41
580.93	47502.64
581.13	47404.33
581.33	47625.51
581.53	47875.37
581.73	47682.86
581.93	47682.86
582.13	47901.99
582.33	47633.71
582.53	47559.98
582.73	48078.11
582.92	48102.69
583.12	47961.38
583.32	47840.55
583.52	47789.35
583.72	48377.12
583.92	47863.08
584.12	47977.76
584.32	48497.95
584.52	48139.55
584.72	48061.73
584.92	47807.78
585.11	48526.62
585.31	47949.09
585.51	48213.28
585.71	48168.22
585.91	48821.53
586.11	47957.28
586.31	48127.27
586.51	48592.15
586.71	48276.77
586.91	48565.53
587.10	48522.52
587.30	48608.54
587.50	48928.02
587.70	48913.69
587.90	48485.66
588.10	48532.76
588.30	48629.02
588.50	49134.87
