SpectraSuite Data File
++++++++++++++++++++++++++++++++++++
Date: Fri Jun 02 14:53:31 CEST 2017
User: INFO_000
Dark Spectrum Present: No
Reference Spectrum Present: No
Number of Sampled Component Spectra: 1
Spectrometers: USB4H00879
Integration Time (usec): 80000 (USB4H00879)
Spectra Averaged: 1 (USB4H00879)
Boxcar Smoothing: 0 (USB4H00879)
Correct for Electrical Dark: No (USB4H00879)
Strobe/Lamp Enabled: No (USB4H00879)
Correct for Detector Non-linearity: No (USB4H00879)
Correct for Stray Light: No (USB4H00879)
Number of Pixels in Processed Spectrum: 3648
>>>>>Begin Processed Spectral Data<<<<<
345.13	1296.36
345.34	1296.36
345.56	1296.36
345.78	1245.16
345.99	1386.47
346.21	1646.57
346.42	1611.75
346.64	1609.70
346.86	1755.11
347.07	1654.76
347.29	1712.10
347.50	1589.22
347.72	1673.19
347.94	1748.97
348.15	1517.54
348.37	1642.47
348.59	1708.01
348.80	1679.33
349.02	1812.45
349.23	1920.99
349.45	1834.98
349.67	1914.85
349.88	1794.02
350.10	1918.95
350.31	1855.46
350.53	1755.11
350.75	1949.67
350.96	1789.92
351.18	1935.33
351.39	1826.79
351.61	1794.02
351.82	1933.28
352.04	1884.13
352.26	1894.37
352.47	1972.19
352.69	1966.05
352.90	1771.49
353.12	1886.18
353.34	1843.17
353.55	1933.28
353.77	1959.91
353.98	1865.70
354.20	1867.75
354.41	1931.23
354.63	1966.05
354.85	2080.74
355.06	1847.27
355.28	1853.41
355.49	2011.11
355.71	1925.09
355.92	1920.99
356.14	1953.76
356.35	1935.33
356.57	1871.84
356.79	1937.38
357.00	1773.54
357.22	1992.67
357.43	1802.21
357.65	1953.76
357.86	1896.42
358.08	1968.10
358.29	1972.19
358.51	2011.11
358.72	1996.77
358.94	1980.39
359.16	1920.99
359.37	1904.61
359.59	1990.63
359.80	2009.06
360.02	1935.33
360.23	1951.71
360.45	2009.06
360.66	1974.24
360.88	1869.80
361.09	1877.99
361.31	2037.73
361.52	1927.14
361.74	2021.35
361.95	2074.59
362.17	1931.23
362.38	2088.93
362.60	2072.54
362.81	2000.87
363.03	2011.11
363.24	2029.54
363.46	2080.74
363.67	2011.11
363.89	2056.16
364.10	2031.58
364.32	1992.67
364.53	1980.39
364.75	1900.52
364.96	2074.59
365.18	2017.25
365.39	2019.30
365.61	1957.86
365.82	2064.35
366.04	2050.02
366.25	1988.58
366.47	2027.49
366.68	2088.93
366.90	1957.86
367.11	2035.68
367.33	2133.98
367.54	2052.06
367.76	2031.58
367.97	2129.89
368.19	2078.69
368.40	2041.82
368.62	1959.91
368.83	1988.58
369.05	2093.02
369.26	1992.67
369.48	2074.59
369.69	2058.21
369.91	2068.45
370.12	2086.88
370.33	2097.12
370.55	1984.48
370.76	2070.50
370.98	2156.51
371.19	2035.68
371.41	2070.50
371.62	2027.49
371.84	2023.39
372.05	2228.19
372.27	2043.87
372.48	2062.30
372.69	2179.04
372.91	2121.70
373.12	2162.66
373.34	2181.09
373.55	2072.54
373.77	2263.01
373.98	2099.17
374.20	2156.51
374.41	2226.14
374.62	2127.84
374.84	2101.22
375.05	2230.24
375.27	2179.04
375.48	2168.80
375.70	2133.98
375.91	2250.72
376.12	2242.53
376.34	2078.69
376.55	2228.19
376.77	2211.81
376.98	2121.70
377.19	2181.09
377.41	2082.78
377.62	2279.39
377.84	2303.96
378.05	2396.12
378.27	2205.66
378.48	2367.45
378.69	2439.13
378.91	2330.59
379.12	2283.49
379.34	2279.39
379.55	2281.44
379.76	2310.11
379.98	2232.29
380.19	2222.05
380.41	2232.29
380.62	2338.78
380.83	2328.54
381.05	2191.33
381.26	2375.64
381.47	2222.05
381.69	2254.81
381.90	2447.32
382.12	2303.96
382.33	2260.96
382.54	2258.91
382.76	2303.96
382.97	2371.55
383.19	2332.64
383.40	2392.03
383.61	2340.83
383.83	2279.39
384.04	2346.97
384.25	2418.65
384.47	2514.91
384.68	2375.64
384.89	2336.73
385.11	2299.87
385.32	2314.20
385.54	2412.51
385.75	2359.26
385.96	2394.08
386.18	2346.97
386.39	2406.36
386.60	2308.06
386.82	2392.03
387.03	2349.02
387.24	2496.47
387.46	2535.39
387.67	2449.37
387.88	2541.53
388.10	2478.04
388.31	2461.66
388.52	2580.44
388.74	2547.67
388.95	2508.76
389.16	2519.00
389.38	2564.06
389.59	2586.58
389.80	2574.30
390.02	2576.34
390.23	2631.64
390.44	2580.44
390.66	2514.91
390.87	2412.51
391.08	2586.58
391.30	2723.80
391.51	2607.06
391.72	2693.08
391.94	2637.78
392.15	2549.72
392.36	2564.06
392.58	2566.10
392.79	2750.42
393.00	2637.78
393.22	2691.03
393.43	2764.76
393.64	2748.37
393.85	2740.18
394.07	2785.24
394.28	2764.76
394.49	2832.34
394.71	2758.61
394.92	2820.05
395.13	2713.56
395.35	2701.27
395.56	2805.72
395.77	2797.53
395.98	2899.92
396.20	2938.84
396.41	2830.29
396.62	2881.49
396.84	2877.40
397.05	2854.87
397.26	2908.12
397.47	2981.84
397.69	2803.67
397.90	2897.88
398.11	2918.36
398.32	2867.16
398.54	2873.30
398.75	2793.43
398.96	2891.73
399.18	3051.47
399.39	2990.03
399.60	3039.19
399.81	2992.08
400.03	2922.45
400.24	3182.54
400.45	2897.88
400.66	3059.67
400.88	3033.04
401.09	3143.63
401.30	3153.87
401.51	3149.78
401.73	3069.91
401.94	3164.11
402.15	3088.34
402.36	3213.26
402.58	3127.25
402.79	3278.80
403.00	3176.40
403.21	3149.78
403.43	3139.54
403.64	3305.42
403.85	3135.44
404.06	3321.81
404.27	3143.63
404.49	3194.83
404.70	3182.54
404.91	3295.18
405.12	3258.32
405.34	3332.05
405.55	3442.64
405.76	3137.49
405.97	3153.87
406.19	3461.07
406.40	3225.55
406.61	3311.57
406.82	3413.96
407.03	3411.92
407.25	3342.28
407.46	3516.36
407.67	3436.49
407.88	3479.50
408.09	3370.96
408.31	3289.04
408.52	3456.97
408.73	3399.63
408.94	3434.44
409.15	3532.75
409.37	3604.42
409.58	3444.68
409.79	3542.99
410.00	3696.58
410.21	3463.12
410.43	3461.07
410.64	3481.55
410.85	3585.99
411.06	3672.01
411.27	3612.62
411.48	3631.05
411.70	3526.60
411.91	3612.62
412.12	3753.93
412.33	3692.49
412.54	3717.06
412.76	3725.26
412.97	3829.70
413.18	3561.42
413.39	3731.40
413.60	3665.86
413.81	3739.59
414.03	3710.92
414.24	3688.39
414.45	3825.61
414.66	3727.30
414.87	3760.07
415.08	3784.65
415.30	3782.60
415.51	3921.86
415.72	3737.54
415.93	3944.39
416.14	3848.13
416.35	3827.65
416.56	3891.14
416.78	3858.37
416.99	3909.57
417.20	3805.13
417.41	4042.69
417.62	3983.30
417.83	3948.48
418.04	3899.33
418.26	4036.55
418.47	3930.05
418.68	4089.79
418.89	3995.59
419.10	4216.77
419.31	4005.83
419.52	4169.66
419.73	4134.85
419.95	4083.65
420.16	4036.55
420.37	4140.99
420.58	4161.47
420.79	3962.82
421.00	4173.76
421.21	4126.66
421.42	4026.31
421.63	4255.68
421.85	4089.79
422.06	4259.78
422.27	4288.45
422.48	4138.94
422.69	4278.21
422.90	4366.27
423.11	4440.00
423.32	4296.64
423.53	4380.61
423.75	4384.70
423.96	4515.77
424.17	4474.81
424.38	4609.98
424.59	4503.48
424.80	4603.83
425.01	4538.30
425.22	4542.39
425.43	4501.44
425.64	4763.58
425.85	4693.94
426.06	4605.88
426.28	4601.79
426.49	4505.53
426.70	4558.78
426.91	4597.69
427.12	4704.18
427.33	4837.30
427.54	4777.91
427.75	4786.10
427.96	4943.80
428.17	4702.14
428.38	4845.49
428.59	4892.60
428.80	4775.86
429.01	4925.36
429.23	4982.71
429.44	4968.37
429.65	5005.24
429.86	4995.00
430.07	4960.18
430.28	4917.17
430.49	5031.86
430.70	5046.20
430.91	5087.15
431.12	5031.86
431.33	5201.84
431.54	5279.66
431.75	5199.79
431.96	5193.65
432.17	5201.84
432.38	5205.94
432.59	5396.40
432.80	5255.09
433.01	5248.94
433.22	5343.15
433.43	5369.77
433.64	5259.18
433.85	5244.85
434.06	5466.03
434.27	5345.20
434.49	5402.54
434.70	5445.55
434.91	5375.92
435.12	5414.83
435.33	5382.06
435.54	5369.77
435.75	5367.73
435.96	5490.60
436.17	5470.12
436.38	5550.00
436.59	5609.39
436.80	5531.56
437.01	5771.18
437.22	5724.07
437.43	5705.64
437.64	5459.88
437.85	5805.99
438.06	5879.72
438.27	5535.66
438.48	5726.12
438.69	5668.78
438.90	5709.74
439.11	5730.22
439.32	5892.01
439.53	5795.75
439.74	5885.86
439.95	5869.48
440.16	5754.79
440.37	5840.81
440.57	5861.29
440.78	5975.97
440.99	5879.72
441.20	5857.19
441.41	5781.42
441.62	6031.27
441.83	5765.03
442.04	6014.88
442.25	5879.72
442.46	5922.73
442.67	6119.33
442.88	6510.49
443.09	6107.04
443.30	6131.62
443.51	6205.35
443.72	6262.69
443.93	6283.17
444.14	6424.48
444.35	6148.00
444.56	6352.80
444.77	6313.89
444.98	6334.37
445.19	6416.29
445.40	6373.28
445.61	6385.57
445.81	6424.48
446.02	6561.69
446.23	6477.73
446.44	6256.54
446.65	6520.73
446.86	6418.33
447.07	6723.48
447.28	6621.08
447.49	6586.27
447.70	6514.59
447.91	6643.61
448.12	6637.47
448.33	6860.70
448.54	6840.22
448.74	6705.05
448.95	6670.23
449.16	6768.54
449.37	6909.85
449.58	6860.70
449.79	7071.64
450.00	6786.97
450.21	6911.89
450.42	7053.20
450.63	7026.58
450.84	6897.56
451.05	7040.92
451.25	6922.13
451.46	7053.20
451.67	7208.85
451.88	7249.81
452.09	7231.38
452.30	7165.84
452.51	7253.91
452.72	7448.46
452.93	7532.43
453.13	7186.32
453.34	7184.27
453.55	7434.13
453.76	7413.65
453.97	7712.65
454.18	7589.77
454.39	7542.67
454.60	7507.85
454.81	7479.18
455.01	7870.34
455.22	7583.63
455.43	7782.28
455.64	8017.80
455.85	7890.82
456.06	7970.69
456.27	7829.38
456.48	7876.49
456.68	8019.85
456.89	8062.85
457.10	7866.25
457.31	8200.07
457.52	7987.08
457.73	8021.89
457.94	8370.05
458.14	8044.42
458.35	8376.19
458.56	8423.30
458.77	8335.23
458.98	8359.81
459.19	8361.86
459.39	8499.07
459.60	8540.03
459.81	8521.60
460.02	8720.25
460.23	8691.58
460.44	8918.90
460.65	8998.77
460.85	8988.53
461.06	9101.17
461.27	8824.70
461.48	9066.36
461.69	9115.51
461.89	8701.82
462.10	8955.77
462.31	8990.58
462.52	8986.49
462.73	9146.23
462.94	9240.44
463.14	9193.33
463.35	9144.18
463.56	9660.27
463.77	9574.25
463.98	9471.86
464.18	9586.54
464.39	9748.33
464.60	9758.57
464.81	9703.28
465.02	9848.68
465.23	10159.97
465.43	9760.62
465.64	9998.18
465.85	10047.33
466.06	9938.79
466.27	10178.40
466.47	10317.67
466.68	10303.33
466.89	10315.62
467.10	10506.08
467.30	10297.19
467.51	10620.77
467.72	10807.13
467.93	10504.03
468.14	10581.85
468.34	10854.23
468.55	10860.38
468.76	10835.80
468.97	10692.44
469.17	11192.15
469.38	11018.07
469.59	11392.85
469.80	10989.40
470.01	10917.72
470.21	11183.96
470.42	11562.83
470.63	11442.00
470.84	11556.69
471.04	11554.64
471.25	11530.06
471.46	11468.62
471.67	11773.77
471.87	11915.08
472.08	12152.65
472.29	12244.81
472.50	11851.60
472.70	11798.35
472.91	12007.24
473.12	12345.16
473.33	12291.91
473.53	12224.33
473.74	12261.19
473.95	12840.76
474.16	12584.77
474.36	12689.21
474.57	12742.46
474.78	13115.19
474.99	12943.16
475.19	13037.37
475.40	13303.60
475.61	13158.20
475.81	13535.03
476.02	13543.22
476.23	13365.04
476.44	13475.63
476.64	13786.93
476.85	13877.04
477.06	13782.83
477.27	14126.89
477.47	14067.50
477.68	14237.48
477.89	14149.42
478.09	14284.58
478.30	14249.77
478.51	14536.48
478.71	14688.03
478.92	14677.79
479.13	14798.62
479.34	14749.47
479.54	14726.94
479.75	14749.47
479.96	15060.76
480.16	15195.93
480.37	15300.37
480.58	15515.41
480.78	15630.10
480.99	15589.14
481.20	15574.80
481.41	15814.41
481.61	15865.61
481.82	16082.70
482.03	15728.40
482.23	15658.77
482.44	16181.00
482.65	16338.69
482.85	16512.77
483.06	16260.87
483.27	16318.22
483.47	16377.61
483.68	16604.93
483.89	16682.75
484.09	16774.91
484.30	16666.37
484.51	16961.28
484.71	16998.14
484.92	16842.50
485.13	17143.55
485.33	17385.21
485.54	17215.23
485.75	17542.90
485.95	17680.11
486.16	17688.31
486.37	17915.63
486.57	17682.16
486.78	17755.89
486.98	17868.53
487.19	18005.74
487.40	18284.26
487.60	18114.28
487.81	18368.23
488.02	18530.02
488.22	18290.41
488.43	18546.40
488.64	18554.60
488.84	18671.33
489.05	18941.66
489.25	18826.98
489.46	18910.94
489.67	18761.44
489.87	18966.24
490.08	19306.20
490.29	19334.87
490.49	19605.20
490.70	19621.59
490.90	19652.31
491.11	19570.39
491.32	19752.66
491.52	19703.51
491.73	20176.59
491.94	19818.19
492.14	19904.21
492.35	20096.72
492.55	20369.10
492.76	20444.87
492.97	20653.76
493.17	20354.76
493.38	20850.37
493.58	20756.16
493.79	20666.05
494.00	20698.82
494.20	20948.67
494.41	20985.54
494.61	20852.42
494.82	21153.47
495.02	20756.16
495.23	21161.66
495.44	21214.91
495.64	21388.99
495.85	21231.29
496.05	21634.74
496.26	21761.72
496.47	21673.65
496.67	21604.02
496.88	21954.22
497.08	21341.88
497.29	22279.85
497.49	22027.95
497.70	22140.59
497.91	22179.50
498.11	22232.75
498.32	22523.56
498.52	22439.59
498.73	22779.56
498.93	22603.43
499.14	22863.52
499.34	22779.56
499.55	22664.87
499.76	22757.03
499.96	23113.38
500.17	22961.83
500.37	23258.78
500.58	23051.94
500.78	23000.74
500.99	23279.26
501.19	23570.07
501.40	23385.76
501.60	23115.42
501.81	23230.11
502.02	23537.30
502.22	23254.69
502.43	23889.56
502.63	23813.78
502.84	23641.75
503.04	24088.21
503.25	23762.58
503.45	24137.36
503.66	24088.21
503.86	24022.67
504.07	24278.67
504.27	24290.96
504.48	24620.68
504.68	24342.16
504.89	24616.58
505.09	24581.77
505.30	24409.74
505.50	24608.39
505.71	24725.13
505.91	25228.93
506.12	24628.87
506.32	24833.67
506.53	24729.22
506.73	25247.36
506.94	25028.23
507.14	25118.34
507.35	25382.52
507.55	25286.27
507.76	25368.19
507.96	25386.62
508.17	25716.34
508.37	25560.70
508.58	25708.15
508.78	25665.14
508.99	25628.28
509.19	25706.10
509.40	25912.95
509.60	25771.64
509.81	25626.23
510.01	26115.70
510.22	25863.80
510.42	26220.14
510.63	26379.89
510.83	26007.16
511.04	26386.03
511.24	26336.88
511.44	26553.96
511.65	26455.66
511.85	26437.23
512.06	26531.44
512.26	26496.62
512.47	26703.46
512.67	26869.35
512.88	27113.06
513.08	26560.11
513.29	27068.00
513.49	27000.42
513.69	27084.39
513.90	26908.26
514.10	27125.35
514.31	26998.37
514.51	27285.09
514.72	27338.33
514.92	27367.01
515.13	27735.64
515.33	27493.98
515.53	27477.60
515.74	27410.01
515.94	27926.10
516.15	27639.39
516.35	27657.82
516.56	27899.48
516.76	27817.56
516.96	27926.10
517.17	27997.78
517.37	28094.04
517.58	28044.88
517.78	28276.30
517.99	28167.76
518.19	28763.72
518.39	28739.15
518.60	28886.60
518.80	28495.44
519.01	28718.67
519.21	28685.90
519.41	28763.72
519.62	29011.53
519.82	28845.64
520.03	28896.84
520.23	29027.91
520.43	28884.55
520.64	29355.58
520.84	29609.53
521.05	29521.47
521.25	29611.58
521.45	29756.99
521.66	29892.15
521.86	29609.53
522.07	29787.71
522.27	29922.87
522.47	29797.95
522.68	30772.78
522.88	30096.95
523.08	30393.90
523.29	30643.76
523.49	30400.05
523.70	30348.85
523.90	30506.54
524.10	30891.56
524.31	30543.41
524.51	30567.98
524.71	31264.29
524.92	30877.22
525.12	31098.41
525.33	31344.16
525.53	31219.24
525.73	31663.64
525.94	31350.31
526.14	31770.14
526.34	31438.37
526.55	31825.43
526.75	32085.53
526.95	32314.90
527.16	31901.21
527.36	32116.25
527.56	32413.20
527.77	32321.04
527.97	32067.09
528.17	32343.57
528.38	33080.84
528.58	32497.17
528.78	33031.69
528.99	32980.49
529.19	33420.80
529.39	32593.42
529.60	33211.91
529.80	33297.92
530.00	33426.95
530.21	33748.48
530.41	33584.64
530.61	33517.06
530.82	33791.48
531.02	33983.99
531.22	34246.13
531.43	33918.46
531.63	34131.45
531.83	34694.64
532.04	34838.00
532.24	34690.54
532.44	35050.99
532.64	35208.68
532.85	34866.67
533.05	34977.26
533.25	35200.49
533.46	35014.12
533.66	35683.81
533.86	35417.57
534.07	35880.41
534.27	35571.17
534.47	35751.39
534.67	35800.54
534.88	35775.97
535.08	35773.92
535.28	36283.86
535.49	36150.74
535.69	36730.32
535.89	36478.42
536.09	36298.20
536.30	37053.90
536.50	36480.47
536.70	36572.63
536.91	36851.15
537.11	36935.12
537.31	37176.78
537.51	37115.34
537.72	37348.81
537.92	37590.47
538.12	37938.62
538.32	37504.45
538.53	38118.84
538.73	37551.56
538.93	37631.43
539.13	37852.61
539.34	37500.36
539.54	37830.08
539.74	38565.30
539.94	38022.59
540.15	38118.84
540.35	38356.41
540.55	38401.46
540.75	38401.46
540.96	38495.67
541.16	38921.65
541.36	38661.55
541.56	39009.71
541.77	39122.35
541.97	39138.73
542.17	39411.11
542.37	38995.37
542.58	39632.29
542.78	39069.10
542.98	39665.06
543.18	39617.96
543.38	40011.17
543.59	39931.29
543.79	39097.77
543.99	39425.45
544.19	39720.35
544.40	39722.40
544.60	40195.48
544.80	40037.79
545.00	39744.93
545.20	40164.76
545.41	40254.87
545.61	40318.36
545.81	40316.31
546.01	40580.50
546.21	40529.30
546.42	40383.90
546.62	40977.81
546.82	40756.63
547.02	40820.11
547.22	40838.54
547.43	41127.31
547.63	41004.43
547.83	41078.16
548.03	41233.80
548.23	41418.12
548.44	41274.76
548.64	41315.72
548.84	41201.04
549.04	41440.65
549.24	41239.95
549.45	41637.25
549.65	41387.40
549.85	41670.02
550.05	41792.90
550.25	41328.01
550.45	41854.34
550.66	42147.20
550.86	41401.74
551.06	42200.44
551.26	42124.67
551.46	41883.01
551.66	42030.46
551.87	41956.74
552.07	42247.55
552.27	41917.82
552.47	42268.03
552.67	42423.67
552.87	42108.29
553.07	42878.32
553.28	42331.51
553.48	42444.15
553.68	42636.66
553.88	42843.51
554.08	42134.91
554.28	42673.52
554.48	42319.23
554.69	42607.99
554.89	43029.87
555.09	42788.21
555.29	42843.51
555.49	42884.47
555.69	43005.30
555.89	42747.25
556.10	43019.63
556.30	43048.30
556.50	43013.49
556.70	42810.74
556.90	43048.30
557.10	43156.85
557.30	42642.81
557.50	43574.63
557.70	43173.23
557.91	43273.58
558.11	43023.73
558.31	43355.50
558.51	43394.41
558.71	43214.19
558.91	43662.69
559.11	43357.55
559.31	43523.43
559.51	43212.14
559.72	43517.29
559.92	43623.78
560.12	43187.56
560.32	43873.63
560.52	43795.81
560.72	43873.63
560.92	43777.38
561.12	43545.96
561.32	44295.52
561.52	43830.63
561.72	44098.91
561.93	43717.99
562.13	43699.56
562.33	43529.58
562.53	44459.35
562.73	43636.07
562.93	43943.27
563.13	44191.07
563.33	43824.48
563.53	44143.97
563.73	43984.22
563.93	44135.77
564.13	44502.36
564.33	44533.08
564.53	44117.34
564.74	44479.83
564.94	44168.54
565.14	44303.71
565.34	44238.17
565.54	44137.82
565.74	44076.38
565.94	44713.30
566.14	44062.05
566.34	44365.15
566.54	44475.74
566.74	44229.98
566.94	44375.39
567.14	44303.71
567.34	44223.84
567.54	45045.07
567.74	44440.92
567.94	44426.59
568.14	44322.14
568.34	44764.50
568.54	44594.52
568.74	44989.78
568.94	44811.60
569.14	44770.64
569.34	44647.77
569.54	45028.69
569.75	44569.94
569.95	44969.30
570.15	44834.13
570.35	44774.74
570.55	44615.00
570.75	45217.10
570.95	44985.68
571.15	45012.31
571.35	45049.17
571.55	45385.04
571.75	44987.73
571.95	45024.59
572.15	45137.23
572.35	45352.27
572.55	45282.64
572.75	45339.98
572.95	45225.29
573.15	45350.22
573.35	45079.89
573.55	45116.75
573.75	45393.23
573.95	45573.45
574.15	45659.46
574.35	45860.16
574.55	45600.07
574.75	45436.23
574.95	45423.95
575.15	45487.43
575.34	45704.52
575.54	45727.05
575.74	45782.34
575.94	45923.65
576.14	45518.15
576.34	45872.45
576.54	46079.30
576.74	45598.02
576.94	45528.39
577.14	46288.19
577.34	46290.24
577.54	45831.49
577.74	45999.43
577.94	46091.58
578.14	45714.76
578.34	46306.62
578.54	46212.41
578.74	46320.96
578.94	46513.47
579.14	46218.56
579.34	46075.20
579.54	46550.33
579.74	46765.37
579.94	46415.16
580.13	46699.83
580.33	46490.94
580.53	46423.36
580.73	47117.62
580.93	46808.37
581.13	46771.51
581.33	46921.01
581.53	46914.87
581.73	47019.31
581.93	47031.60
582.13	47197.49
582.33	47031.60
582.53	47093.04
582.73	47213.87
582.92	47072.56
583.12	47240.50
583.32	47119.66
583.52	46867.76
583.72	47236.40
583.92	47215.92
584.12	47351.09
584.32	47910.18
584.52	47191.34
584.72	47449.39
584.92	47627.56
585.11	48035.11
585.31	47719.72
585.51	47738.15
585.71	47602.99
585.91	48155.94
586.11	47361.33
586.31	47988.00
586.51	47662.38
586.71	47826.21
586.91	48145.70
587.10	47920.42
587.30	48436.51
587.50	48076.07
587.70	48526.62
587.90	48133.41
588.10	48387.36
588.30	48231.71
588.50	48368.93
