SpectraSuite Data File
++++++++++++++++++++++++++++++++++++
Date: Fri Jun 02 14:53:29 CEST 2017
User: INFO_000
Dark Spectrum Present: No
Reference Spectrum Present: No
Number of Sampled Component Spectra: 1
Spectrometers: USB4H00879
Integration Time (usec): 80000 (USB4H00879)
Spectra Averaged: 1 (USB4H00879)
Boxcar Smoothing: 0 (USB4H00879)
Correct for Electrical Dark: No (USB4H00879)
Strobe/Lamp Enabled: No (USB4H00879)
Correct for Detector Non-linearity: No (USB4H00879)
Correct for Stray Light: No (USB4H00879)
Number of Pixels in Processed Spectrum: 3648
>>>>>Begin Processed Spectral Data<<<<<
345.13	1267.69
345.34	1267.69
345.56	1267.69
345.78	1296.36
345.99	1214.45
346.21	1796.07
346.42	1652.71
346.64	1699.81
346.86	1818.60
347.07	1679.33
347.29	1691.62
347.50	1646.57
347.72	1671.14
347.94	1798.12
348.15	1589.22
348.37	1621.99
348.59	1724.39
348.80	1681.38
349.02	1791.97
349.23	1857.51
349.45	1751.01
349.67	1847.27
349.88	1714.15
350.10	1902.56
350.31	1804.26
350.53	1697.77
350.75	1888.23
350.96	1810.40
351.18	1845.22
351.39	1855.46
351.61	1806.31
351.82	1849.32
352.04	1839.08
352.26	1787.88
352.47	1916.90
352.69	1863.65
352.90	1712.10
353.12	1812.45
353.34	1796.07
353.55	1896.42
353.77	1896.42
353.98	1818.60
354.20	1851.36
354.41	1843.17
354.63	1892.32
354.85	2082.78
355.06	1939.43
355.28	1843.17
355.49	1849.32
355.71	1822.69
355.92	1886.18
356.14	1853.41
356.35	1857.51
356.57	1867.75
356.79	1937.38
357.00	1738.73
357.22	1927.14
357.43	1820.64
357.65	1943.52
357.86	1841.12
358.08	1894.37
358.29	1964.00
358.51	2011.11
358.72	1912.80
358.94	1896.42
359.16	1877.99
359.37	1908.71
359.59	1884.13
359.80	1970.15
360.02	1994.72
360.23	1933.28
360.45	1970.15
360.66	1894.37
360.88	1908.71
361.09	1925.09
361.31	1966.05
361.52	1949.67
361.74	2025.44
361.95	1994.72
362.17	1888.23
362.38	2047.97
362.60	2105.31
362.81	1949.67
363.03	1925.09
363.24	1968.10
363.46	2127.84
363.67	2031.58
363.89	1964.00
364.10	1961.95
364.32	1912.80
364.53	2011.11
364.75	1912.80
364.96	2002.91
365.18	2021.35
365.39	1994.72
365.61	2058.21
365.82	2131.94
366.04	2013.15
366.25	1961.95
366.47	1992.67
366.68	1978.34
366.90	1935.33
367.11	2062.30
367.33	2058.21
367.54	2062.30
367.76	1984.48
367.97	2082.78
368.19	2084.83
368.40	2025.44
368.62	2045.92
368.83	1935.33
369.05	2056.16
369.26	1933.28
369.48	2000.87
369.69	1978.34
369.91	2023.39
370.12	1966.05
370.33	2086.88
370.55	2017.25
370.76	2025.44
370.98	2093.02
371.19	2062.30
371.41	1933.28
371.62	2072.54
371.84	1923.04
372.05	2185.18
372.27	1966.05
372.48	2119.65
372.69	2070.50
372.91	2201.57
373.12	2121.70
373.34	2054.11
373.55	2076.64
373.77	2129.89
373.98	2088.93
374.20	2207.71
374.41	2310.11
374.62	2066.40
374.84	2187.23
375.05	2160.61
375.27	2240.48
375.48	2113.50
375.70	2256.86
375.91	2211.81
376.12	2316.25
376.34	2172.89
376.55	2224.09
376.77	2273.25
376.98	2082.78
377.19	2164.70
377.41	2156.51
377.62	2260.96
377.84	2340.83
378.05	2293.72
378.27	2176.99
378.48	2308.06
378.69	2373.60
378.91	2320.35
379.12	2234.33
379.34	2265.05
379.55	2332.64
379.76	2293.72
379.98	2310.11
380.19	2224.09
380.41	2342.88
380.62	2330.59
380.83	2334.68
381.05	2197.47
381.26	2449.37
381.47	2328.54
381.69	2277.34
381.90	2371.55
382.12	2295.77
382.33	2283.49
382.54	2267.10
382.76	2332.64
382.97	2275.29
383.19	2256.86
383.40	2373.60
383.61	2377.69
383.83	2295.77
384.04	2287.58
384.25	2420.70
384.47	2402.27
384.68	2330.59
384.89	2297.82
385.11	2445.27
385.32	2256.86
385.54	2369.50
385.75	2381.79
385.96	2510.81
386.18	2363.36
386.39	2428.89
386.60	2396.12
386.82	2521.05
387.03	2346.97
387.24	2576.34
387.46	2375.64
387.67	2447.32
387.88	2531.29
388.10	2437.08
388.31	2435.03
388.52	2557.91
388.74	2514.91
388.95	2580.44
389.16	2467.80
389.38	2508.76
389.59	2545.63
389.80	2551.77
390.02	2562.01
390.23	2553.82
390.44	2469.85
390.66	2539.48
390.87	2494.43
391.08	2600.92
391.30	2670.55
391.51	2578.39
391.72	2629.59
391.94	2559.96
392.15	2621.40
392.36	2654.17
392.58	2596.82
392.79	2736.09
393.00	2740.18
393.22	2742.23
393.43	2750.42
393.64	2791.38
393.85	2826.20
394.07	2637.78
394.28	2811.86
394.49	2760.66
394.71	2762.71
394.92	2818.00
395.13	2752.47
395.35	2691.03
395.56	2775.00
395.77	2944.98
395.98	2764.76
396.20	2947.03
396.41	2867.16
396.62	2957.27
396.84	2858.96
397.05	2746.33
397.26	2883.54
397.47	2949.08
397.69	2912.21
397.90	3041.23
398.11	2861.01
398.32	2901.97
398.54	2871.25
398.75	2838.48
398.96	2940.88
399.18	3082.19
399.39	2934.74
399.60	3172.30
399.81	2953.17
400.03	3051.47
400.24	3256.27
400.45	3035.09
400.66	3033.04
400.88	2969.55
401.09	3168.21
401.30	3096.53
401.51	3166.16
401.73	3198.93
401.94	3190.74
402.15	3119.06
402.36	3133.39
402.58	3168.21
402.79	3268.56
403.00	3223.50
403.21	3233.74
403.43	3170.26
403.64	3385.29
403.85	3227.60
404.06	3270.61
404.27	3129.30
404.49	3352.52
404.70	3211.22
404.91	3393.48
405.12	3297.23
405.34	3186.64
405.55	3426.25
405.76	3190.74
405.97	3252.17
406.19	3471.31
406.40	3198.93
406.61	3327.95
406.82	3364.81
407.03	3317.71
407.25	3286.99
407.46	3459.02
407.67	3407.82
407.88	3450.83
408.09	3307.47
408.31	3311.57
408.52	3395.53
408.73	3375.05
408.94	3350.48
409.15	3395.53
409.37	3442.64
409.58	3557.32
409.79	3422.16
410.00	3557.32
410.21	3456.97
410.43	3588.04
410.64	3424.20
410.85	3639.24
411.06	3516.36
411.27	3657.67
411.48	3641.29
411.70	3518.41
411.91	3606.47
412.12	3657.67
412.33	3659.72
412.54	3581.90
412.76	3811.27
412.97	3684.30
413.18	3612.62
413.39	3706.82
413.60	3698.63
413.81	3688.39
414.03	3657.67
414.24	3715.02
414.45	3874.76
414.66	3538.89
414.87	3755.97
415.08	3667.91
415.30	3749.83
415.51	3688.39
415.72	3770.31
415.93	3729.35
416.14	3825.61
416.35	3788.74
416.56	3817.41
416.78	3985.35
416.99	3979.20
417.20	3839.94
417.41	3819.46
417.62	3936.20
417.83	3907.52
418.04	3973.06
418.26	3946.44
418.47	3762.12
418.68	4046.79
418.89	4011.97
419.10	4151.23
419.31	3983.30
419.52	4073.41
419.73	4022.21
419.95	3991.49
420.16	3995.59
420.37	4079.55
420.58	4104.13
420.79	3889.09
421.00	3977.16
421.21	4116.42
421.42	4026.31
421.63	4155.33
421.85	4100.03
422.06	4286.40
422.27	4274.11
422.48	4288.45
422.69	4298.69
422.90	4253.63
423.11	4210.62
423.32	4362.17
423.53	4528.06
423.75	4380.61
423.96	4472.76
424.17	4523.96
424.38	4558.78
424.59	4409.28
424.80	4691.90
425.01	4585.40
425.22	4474.81
425.43	4485.05
425.64	4755.38
425.85	4726.71
426.06	4634.55
426.28	4487.10
426.49	4497.34
426.70	4591.55
426.91	4655.03
427.12	4816.82
427.33	4743.10
427.54	4681.66
427.75	4822.97
427.96	4831.16
428.17	4806.58
428.38	4796.34
428.59	4851.64
428.80	4747.19
429.01	4806.58
429.23	4956.08
429.44	5119.92
429.65	5003.19
429.86	5083.06
430.07	4843.45
430.28	4876.21
430.49	5007.28
430.70	5121.97
430.91	5101.49
431.12	5011.38
431.33	5066.67
431.54	5244.85
431.75	5261.23
431.96	5195.70
432.17	4992.95
432.38	5158.83
432.59	5463.98
432.80	5343.15
433.01	5244.85
433.22	5287.86
433.43	5275.57
433.64	5320.62
433.85	5263.28
434.06	5349.29
434.27	5359.53
434.49	5447.60
434.70	5468.08
434.91	5580.71
435.12	5574.57
435.33	5550.00
435.54	5502.89
435.75	5265.33
435.96	5451.69
436.17	5416.88
436.38	5648.30
436.59	5636.01
436.80	5529.52
437.01	5853.09
437.22	5734.31
437.43	5689.26
437.64	5547.95
437.85	5701.54
438.06	5898.15
438.27	5672.87
438.48	5627.82
438.69	5926.82
438.90	5820.33
439.11	5666.73
439.32	6027.17
439.53	5973.92
439.74	6029.22
439.95	5953.45
440.16	5777.32
440.37	6057.89
440.57	5787.56
440.78	6078.37
440.99	6045.60
441.20	6002.60
441.41	5836.71
441.62	6086.56
441.83	5924.77
442.04	6137.76
442.25	6195.11
442.46	6104.99
442.67	6266.78
442.88	6512.54
443.09	5973.92
443.30	6188.96
443.51	6160.29
443.72	6346.66
443.93	6317.98
444.14	6590.36
444.35	6252.45
444.56	6295.46
444.77	6254.50
444.98	6307.74
445.19	6485.92
445.40	6438.81
445.61	6268.83
445.81	6674.33
446.02	6586.27
446.23	6356.90
446.44	6377.37
446.65	6588.32
446.86	6643.61
447.07	6610.84
447.28	6776.73
447.49	6733.72
447.70	6346.66
447.91	6844.31
448.12	6608.80
448.33	6848.41
448.54	6909.85
448.74	6795.16
448.95	6854.55
449.16	6758.30
449.37	7081.88
449.58	6887.32
449.79	7110.55
450.00	6922.13
450.21	7049.11
450.42	7112.60
450.63	7163.79
450.84	7264.15
451.05	7016.34
451.25	7249.81
451.46	7016.34
451.67	7198.61
451.88	7292.82
452.09	7233.43
452.30	7198.61
452.51	7176.08
452.72	7450.51
452.93	7452.56
453.13	7247.76
453.34	7260.05
453.55	7436.17
453.76	7430.03
453.97	7817.10
454.18	7563.15
454.39	7483.28
454.60	7694.22
454.81	7753.61
455.01	7632.78
455.22	7516.05
455.43	7645.07
455.64	7700.36
455.85	8171.40
456.06	8103.81
456.27	7976.84
456.48	7753.61
456.68	7939.97
456.89	8001.41
457.10	7860.10
457.31	8087.43
457.52	8081.28
457.73	8036.23
457.94	8220.55
458.14	8007.56
458.35	8646.52
458.56	8198.02
458.77	8232.83
458.98	8564.61
459.19	8351.62
459.39	8402.82
459.60	8566.65
459.81	8384.38
460.02	8593.28
460.23	8501.12
460.44	8769.40
460.65	8832.89
460.85	8677.24
461.06	8836.99
461.27	8726.39
461.48	8988.53
461.69	9105.27
461.89	8568.70
462.10	9070.45
462.31	8966.01
462.52	8945.53
462.73	9088.89
462.94	9185.14
463.14	9217.91
463.35	9291.63
463.56	9555.82
463.77	9447.28
463.98	9199.48
464.18	9484.14
464.39	9672.56
464.60	9883.50
464.81	9783.15
465.02	9752.43
465.23	9901.93
465.43	9547.63
465.64	9961.32
465.85	9856.87
466.06	9815.91
466.27	10190.69
466.47	9926.50
466.68	10014.57
466.89	10090.34
467.10	10121.06
467.30	10180.45
467.51	10168.16
467.72	10389.35
467.93	10235.75
468.14	10528.61
468.34	10674.01
468.55	10590.05
468.76	10651.49
468.97	10483.55
469.17	10805.08
469.38	10901.34
469.59	11095.89
469.80	10833.75
470.01	10858.33
470.21	10903.39
470.42	11179.86
470.63	11423.57
470.84	11079.51
471.04	11157.33
471.25	11411.28
471.46	11558.74
471.67	11429.71
471.87	11511.63
472.08	11513.68
472.29	11872.07
472.50	11519.82
472.70	11669.33
472.91	11839.31
473.12	12029.77
473.33	12021.58
473.53	12054.34
473.74	12154.69
473.95	12103.50
474.16	12549.95
474.36	12523.33
474.57	12707.65
474.78	12517.18
474.99	12844.86
475.19	12611.39
475.40	12973.88
475.61	13041.46
475.81	13217.59
476.02	13037.37
476.23	13113.14
476.44	13367.09
476.64	13496.11
476.85	13649.71
477.06	13795.12
477.27	13657.90
477.47	13788.97
477.68	13690.67
477.89	13944.62
478.09	13770.54
478.30	13885.23
478.51	14118.70
478.71	14239.53
478.92	14292.77
479.13	14464.80
479.34	14614.30
479.54	14495.52
479.75	14767.90
479.96	15025.95
480.16	14696.22
480.37	14984.99
480.58	15091.48
480.78	15099.67
480.99	15253.27
481.20	15417.11
481.41	15474.45
481.61	15611.67
481.82	15849.23
482.03	15675.15
482.23	15529.75
482.44	15972.11
482.65	16174.86
482.85	16269.06
483.06	16414.47
483.27	16334.60
483.47	16205.58
483.68	16193.29
483.89	16604.93
484.09	16738.05
484.30	16701.19
484.51	16875.26
484.71	16922.37
484.92	17202.94
485.13	17184.51
485.33	17309.43
485.54	17260.28
485.75	17524.47
485.95	17557.24
486.16	17594.10
486.37	17891.06
486.57	17889.01
486.78	17866.48
486.98	18067.18
487.19	18024.17
487.40	18079.47
487.60	18247.40
487.81	18300.65
488.02	18339.56
488.22	18292.46
488.43	18620.13
488.64	18810.59
488.84	18751.20
489.05	18773.73
489.25	18695.91
489.46	19044.06
489.67	19089.12
489.87	19060.45
490.08	19508.95
490.29	19238.62
490.49	19748.56
490.70	19521.24
490.90	20012.75
491.11	19582.68
491.32	19828.43
491.52	20082.38
491.73	19914.45
491.94	20211.40
492.14	19969.74
492.35	20737.73
492.55	20504.26
492.76	20762.31
492.97	20852.42
493.17	20604.61
493.38	20862.66
493.58	21036.74
493.79	20876.99
494.00	21020.35
494.20	21173.95
494.41	21102.27
494.61	21386.94
494.82	21546.68
495.02	21440.18
495.23	21436.09
495.44	21677.75
495.64	21937.84
495.85	21841.59
496.05	21872.31
496.26	21853.87
496.47	22265.52
496.67	21810.87
496.88	22656.68
497.08	22218.41
497.29	22746.79
497.49	22425.26
497.70	22681.25
497.91	22750.88
498.11	22699.69
498.32	22775.46
498.52	23189.15
498.73	23305.88
498.93	22896.29
499.14	23377.56
499.34	23301.79
499.55	23651.99
499.76	23477.91
499.96	23281.31
500.17	23498.39
500.37	23578.26
500.58	23574.17
500.78	23735.96
500.99	23715.48
501.19	24008.34
501.40	24155.79
501.60	23758.49
501.81	23963.28
502.02	24243.85
502.22	23979.67
502.43	24020.63
502.63	24540.81
502.84	24831.62
503.04	24577.67
503.25	24442.51
503.45	24473.23
503.66	24565.39
503.86	24708.74
504.07	25050.75
504.27	24870.53
504.48	25470.59
504.68	24712.84
504.89	25218.69
505.09	25073.28
505.30	24837.76
505.50	25208.45
505.71	25269.89
505.91	25650.81
506.12	25527.93
506.32	25347.71
506.53	25257.60
506.73	25814.65
506.94	25601.66
507.14	25577.08
507.35	25876.09
507.55	25941.62
507.76	25572.99
507.96	25869.94
508.17	25978.48
508.37	25747.06
508.58	26095.22
508.78	25765.49
508.99	26308.21
509.19	26388.08
509.40	26201.71
509.60	26383.98
509.81	26451.56
510.01	26121.84
510.22	26363.50
510.42	26461.80
510.63	26711.66
510.83	26504.81
511.04	26646.12
511.24	26801.77
511.44	26877.54
511.65	26947.17
511.85	26949.22
512.06	26945.12
512.26	26984.04
512.47	27145.83
512.67	27536.99
512.88	27133.54
513.08	26826.34
513.29	27453.02
513.49	26945.12
513.69	27481.69
513.90	27508.32
514.10	27461.21
514.31	27553.37
514.51	27606.62
514.72	27405.92
514.92	27602.52
515.13	27536.99
515.33	27805.27
515.53	27881.05
515.74	27780.70
515.94	27762.26
516.15	27879.00
516.35	28014.16
516.56	28343.89
516.76	27999.83
516.96	27940.44
517.17	28261.97
517.37	28128.85
517.58	28264.02
517.78	28524.11
517.99	28718.67
518.19	28620.36
518.39	28479.05
518.60	28853.83
518.80	28683.85
519.01	28802.63
519.21	28810.82
519.41	28978.76
519.62	28835.40
519.82	29230.66
520.03	29240.90
520.23	29408.83
520.43	29367.87
520.64	29353.54
520.84	29607.48
521.05	29222.47
521.25	29595.20
521.45	29642.30
521.66	29607.48
521.86	29648.44
522.07	29761.08
522.27	29451.84
522.47	29783.61
522.68	29976.12
522.88	29992.50
523.08	30545.45
523.29	30389.81
523.49	30139.96
523.70	30203.44
523.90	30713.39
524.10	30283.31
524.31	31028.77
524.51	30516.78
524.71	31213.09
524.92	30670.38
525.12	31184.42
525.33	31032.87
525.53	31188.52
525.73	31419.94
525.94	31020.58
526.14	31221.28
526.34	31624.73
526.55	31499.81
526.75	31671.84
526.95	31852.06
527.16	31770.14
527.36	31780.38
527.56	32046.62
527.77	31962.65
527.97	32177.68
528.17	31911.45
528.38	32292.37
528.58	32503.31
528.78	32316.95
528.99	32362.00
529.19	32976.39
529.39	32329.23
529.60	32646.67
529.80	32777.74
530.00	32886.28
530.21	33125.89
530.41	33394.18
530.61	33275.40
530.82	33381.89
531.02	33363.46
531.22	33525.25
531.43	33500.67
531.63	33719.81
531.83	34086.39
532.04	34018.81
532.24	33902.07
532.44	34321.91
532.64	34268.66
532.85	34452.98
533.05	34385.40
533.25	34432.50
533.46	34522.61
533.66	34663.92
533.86	34645.49
534.07	35077.61
534.27	34848.24
534.47	35225.06
534.67	35347.94
534.88	35124.71
535.08	35292.65
535.28	35714.53
535.49	35632.61
535.69	35904.99
535.89	35845.60
536.09	36017.63
536.30	35988.95
536.50	35945.95
536.70	36232.66
536.91	36322.77
537.11	36277.72
537.31	36566.48
537.51	36380.12
537.72	37105.10
537.92	36865.49
538.12	36935.12
538.32	36881.87
538.53	37361.09
538.73	36828.62
538.93	37141.96
539.13	37144.01
539.34	37268.94
539.54	37397.96
539.74	37385.67
539.94	37526.98
540.15	37213.64
540.35	38167.99
540.55	38088.12
540.75	37729.73
540.96	37799.36
541.16	38165.95
541.36	38067.64
541.56	38438.33
541.77	38354.36
541.97	38415.80
542.17	38331.83
542.37	38505.91
542.58	38563.25
542.78	38761.90
542.98	38749.62
543.18	39124.40
543.38	39411.11
543.59	38899.12
543.79	38989.23
543.99	39124.40
544.19	39433.64
544.40	39656.87
544.60	39671.20
544.80	39566.76
545.00	39599.52
545.20	39675.30
545.41	39738.79
545.61	39503.27
545.81	39720.35
546.01	39867.81
546.21	39740.83
546.42	39923.10
546.62	40199.58
546.82	40099.23
547.02	40306.07
547.22	40109.47
547.43	40486.29
547.63	40244.63
547.83	40441.24
548.03	40052.12
548.23	40506.77
548.44	40314.26
548.64	40535.45
548.84	40807.83
549.04	40474.01
549.24	40986.00
549.45	40990.09
549.65	40828.30
549.85	41246.09
550.05	41248.14
550.25	40603.03
550.45	41282.95
550.66	41364.87
550.86	40971.66
551.06	41397.64
551.26	41059.73
551.46	41559.43
551.66	41577.86
551.87	41614.72
552.07	41713.03
552.27	41516.42
552.47	42012.03
552.67	42149.24
552.87	42012.03
553.07	42110.33
553.28	41702.79
553.48	42192.25
553.68	41418.12
553.88	42485.11
554.08	42042.75
554.28	41731.46
554.48	42261.88
554.69	42079.61
554.89	42390.91
555.09	42083.71
555.29	42575.22
555.49	42351.99
555.69	42511.74
555.89	42489.21
556.10	42626.42
556.30	42464.63
556.50	42775.92
556.70	42255.74
556.90	42620.28
557.10	42960.24
557.30	42423.67
557.50	43226.48
557.70	43201.90
557.91	43095.41
558.11	42841.46
558.31	43156.85
558.51	42870.13
558.71	42931.57
558.91	43095.41
559.11	42845.55
559.31	42810.74
559.51	42841.46
559.72	43001.20
559.92	43201.90
560.12	43099.50
560.32	43554.15
560.52	43359.59
560.72	43439.47
560.92	43033.97
561.12	43261.29
561.32	43668.84
561.52	43416.94
561.72	43840.87
561.93	43597.16
562.13	43230.57
562.33	43767.14
562.53	43996.51
562.73	43320.68
562.93	43572.58
563.13	43834.72
563.33	43513.19
563.53	44103.01
563.73	43599.21
563.93	43763.04
564.13	44127.58
564.33	44100.96
564.53	44078.43
564.74	44203.36
564.94	43750.76
565.14	43787.62
565.34	43976.03
565.54	44055.90
565.74	43793.76
565.94	44381.53
566.14	44299.61
566.34	43812.20
566.54	44420.44
566.74	44193.12
566.94	44457.31
567.14	44148.06
567.34	44445.02
567.54	44735.83
567.74	44361.05
567.94	44207.45
568.14	44801.36
568.34	44594.52
568.54	44434.78
568.74	44803.41
568.94	44793.17
569.14	44645.72
569.34	44836.18
569.54	44594.52
569.75	44399.96
569.95	44418.39
570.15	45045.07
570.35	44694.87
570.55	45098.32
570.75	44737.88
570.95	44653.91
571.15	45108.56
571.35	45147.47
571.55	45253.97
571.75	45368.65
571.95	45286.73
572.15	45088.08
572.35	45227.34
572.55	44889.43
572.75	44975.44
572.95	45270.35
573.15	45077.84
573.35	45198.67
573.55	45442.38
573.75	45038.93
573.95	45350.22
574.15	45372.75
574.35	45612.36
574.55	45583.69
574.75	45098.32
574.95	45598.02
575.15	45370.70
575.34	45679.94
575.54	45725.00
575.74	45909.32
575.94	45987.14
576.14	46208.32
576.34	45921.60
576.54	46406.97
576.74	46294.33
576.94	46128.45
577.14	46107.97
577.34	46630.20
577.54	45815.11
577.74	46337.34
577.94	46259.52
578.14	46232.89
578.34	46859.57
578.54	46136.64
578.74	46630.20
578.94	47047.99
579.14	46585.15
579.34	46525.75
579.54	46646.58
579.74	47283.50
579.94	46810.42
580.13	47236.40
580.33	47406.38
580.53	47058.23
580.73	47369.52
580.93	46798.13
581.13	47166.77
581.33	47109.43
581.53	47611.18
581.73	47191.34
581.93	47797.54
582.13	47609.13
582.33	47508.78
582.53	47670.57
582.73	47807.78
582.92	47820.07
583.12	47590.70
583.32	47486.25
583.52	47555.88
583.72	48383.26
583.92	47779.11
584.12	47809.83
584.32	47949.09
584.52	48221.47
584.72	48225.57
584.92	48624.92
585.11	48579.87
585.31	47682.86
585.51	48221.47
585.71	48403.74
585.91	48456.99
586.11	48315.68
586.31	48270.62
586.51	48518.43
586.71	48583.96
586.91	48649.50
587.10	49071.38
587.30	48942.36
587.50	49036.56
587.70	48780.57
587.90	49198.35
588.10	49255.70
588.30	49345.81
588.50	48968.98
