SpectraSuite Data File
++++++++++++++++++++++++++++++++++++
Date: Fri Jun 02 14:53:35 CEST 2017
User: INFO_000
Dark Spectrum Present: No
Reference Spectrum Present: No
Number of Sampled Component Spectra: 1
Spectrometers: USB4H00879
Integration Time (usec): 80000 (USB4H00879)
Spectra Averaged: 1 (USB4H00879)
Boxcar Smoothing: 0 (USB4H00879)
Correct for Electrical Dark: No (USB4H00879)
Strobe/Lamp Enabled: No (USB4H00879)
Correct for Detector Non-linearity: No (USB4H00879)
Correct for Stray Light: No (USB4H00879)
Number of Pixels in Processed Spectrum: 3648
>>>>>Begin Processed Spectral Data<<<<<
345.13	1267.69
345.34	1267.69
345.56	1267.69
345.78	1288.17
345.99	1273.84
346.21	1697.77
346.42	1650.66
346.64	1673.19
346.86	1763.30
347.07	1587.18
347.29	1660.90
347.50	1624.04
347.72	1705.96
347.94	1775.59
348.15	1630.18
348.37	1628.14
348.59	1720.29
348.80	1638.38
349.02	1748.97
349.23	1914.85
349.45	1843.17
349.67	1877.99
349.88	1822.69
350.10	1892.32
350.31	1757.16
350.53	1814.50
350.75	1931.23
350.96	1728.49
351.18	1834.98
351.39	1832.93
351.61	1873.89
351.82	1861.60
352.04	1906.66
352.26	1812.45
352.47	1865.70
352.69	1931.23
352.90	1726.44
353.12	1861.60
353.34	1845.22
353.55	1904.61
353.77	1847.27
353.98	1853.41
354.20	1925.09
354.41	1877.99
354.63	1945.57
354.85	2035.68
355.06	1875.94
355.28	1828.84
355.49	1832.93
355.71	1880.04
355.92	1931.23
356.14	1871.84
356.35	1949.67
356.57	1783.78
356.79	1947.62
357.00	1904.61
357.22	1982.43
357.43	1777.64
357.65	1974.24
357.86	1873.89
358.08	1912.80
358.29	2047.97
358.51	1980.39
358.72	1937.38
358.94	1933.28
359.16	1990.63
359.37	1945.57
359.59	1941.47
359.80	1974.24
360.02	2007.01
360.23	1972.19
360.45	1970.15
360.66	1847.27
360.88	1953.76
361.09	1839.08
361.31	2011.11
361.52	1941.47
361.74	2072.54
361.95	2039.78
362.17	1978.34
362.38	2093.02
362.60	2066.40
362.81	1939.43
363.03	2015.20
363.24	1900.52
363.46	2136.03
363.67	2047.97
363.89	1988.58
364.10	1959.91
364.32	1978.34
364.53	2037.73
364.75	1900.52
364.96	2035.68
365.18	2056.16
365.39	2017.25
365.61	2107.36
365.82	2150.37
366.04	2021.35
366.25	1951.71
366.47	2029.54
366.68	2031.58
366.90	1949.67
367.11	2101.22
367.33	2093.02
367.54	2144.22
367.76	2064.35
367.97	2187.23
368.19	2011.11
368.40	1994.72
368.62	2019.30
368.83	1974.24
369.05	2070.50
369.26	1910.75
369.48	2023.39
369.69	2011.11
369.91	2031.58
370.12	2021.35
370.33	2086.88
370.55	1923.04
370.76	2093.02
370.98	2168.80
371.19	1994.72
371.41	2099.17
371.62	2058.21
371.84	2011.11
372.05	2234.33
372.27	2072.54
372.48	2185.18
372.69	2146.27
372.91	2160.61
373.12	2195.42
373.34	2156.51
373.55	2230.24
373.77	2209.76
373.98	2113.50
374.20	2203.61
374.41	2226.14
374.62	2084.83
374.84	2244.57
375.05	2215.90
375.27	2226.14
375.48	2215.90
375.70	2205.66
375.91	2281.44
376.12	2394.08
376.34	2256.86
376.55	2213.85
376.77	2201.57
376.98	2107.36
377.19	2172.89
377.41	2115.55
377.62	2232.29
377.84	2193.37
378.05	2365.40
378.27	2226.14
378.48	2318.30
378.69	2349.02
378.91	2359.26
379.12	2355.16
379.34	2273.25
379.55	2306.01
379.76	2371.55
379.98	2154.46
380.19	2236.38
380.41	2271.20
380.62	2324.44
380.83	2279.39
381.05	2189.28
381.26	2381.79
381.47	2252.77
381.69	2326.49
381.90	2496.47
382.12	2287.58
382.33	2222.05
382.54	2256.86
382.76	2400.22
382.97	2326.49
383.19	2199.52
383.40	2473.95
383.61	2359.26
383.83	2269.15
384.04	2310.11
384.25	2367.45
384.47	2461.66
384.68	2396.12
384.89	2387.93
385.11	2377.69
385.32	2377.69
385.54	2435.03
385.75	2387.93
385.96	2504.67
386.18	2459.61
386.39	2443.23
386.60	2312.16
386.82	2418.65
387.03	2484.19
387.24	2514.91
387.46	2512.86
387.67	2478.04
387.88	2488.28
388.10	2617.30
388.31	2392.03
388.52	2568.15
388.74	2523.10
388.95	2445.27
389.16	2535.39
389.38	2494.43
389.59	2533.34
389.80	2566.10
390.02	2537.43
390.23	2672.60
390.44	2588.63
390.66	2475.99
390.87	2557.91
391.08	2611.16
391.30	2656.22
391.51	2621.40
391.72	2576.34
391.94	2627.54
392.15	2650.07
392.36	2543.58
392.58	2645.98
392.79	2652.12
393.00	2697.17
393.22	2734.04
393.43	2713.56
393.64	2811.86
393.85	2813.91
394.07	2631.64
394.28	2795.48
394.49	2746.33
394.71	2871.25
394.92	2901.97
395.13	2779.09
395.35	2703.32
395.56	2736.09
395.77	2664.41
395.98	2858.96
396.20	2879.44
396.41	2863.06
396.62	2850.77
396.84	2793.43
397.05	2846.68
397.26	2834.39
397.47	3018.71
397.69	2805.72
397.90	3106.77
398.11	2985.94
398.32	2963.41
398.54	2889.68
398.75	2977.75
398.96	3026.90
399.18	3117.01
399.39	2920.40
399.60	2959.31
399.81	2985.94
400.03	2971.60
400.24	3254.22
400.45	2985.94
400.66	3008.47
400.88	3047.38
401.09	3209.17
401.30	3188.69
401.51	3172.30
401.73	3213.26
401.94	3243.98
402.15	3235.79
402.36	3149.78
402.58	3121.10
402.79	3149.78
403.00	3125.20
403.21	3264.46
403.43	3229.65
403.64	3344.33
403.85	3178.45
404.06	3211.22
404.27	3153.87
404.49	3203.02
404.70	3200.98
404.91	3192.78
405.12	3192.78
405.34	3162.06
405.55	3370.96
405.76	3125.20
405.97	3260.37
406.19	3432.40
406.40	3266.51
406.61	3383.24
406.82	3397.58
407.03	3297.23
407.25	3352.52
407.46	3330.00
407.67	3420.11
407.88	3528.65
408.09	3483.59
408.31	3340.24
408.52	3338.19
408.73	3499.98
408.94	3327.95
409.15	3456.97
409.37	3524.55
409.58	3526.60
409.79	3514.31
410.00	3579.85
410.21	3448.78
410.43	3563.47
410.64	3395.53
410.85	3524.55
411.06	3676.10
411.27	3575.75
411.48	3551.18
411.70	3393.48
411.91	3696.58
412.12	3696.58
412.33	3510.22
412.54	3557.32
412.76	3778.50
412.97	3727.30
413.18	3532.75
413.39	3608.52
413.60	3702.73
413.81	3663.82
414.03	3665.86
414.24	3790.79
414.45	3837.89
414.66	3585.99
414.87	3813.32
415.08	3712.97
415.30	3798.98
415.51	3825.61
415.72	3827.65
415.93	3741.64
416.14	3880.90
416.35	3870.66
416.56	3846.09
416.78	3891.14
416.99	3848.13
417.20	3776.45
417.41	4030.40
417.62	3874.76
417.83	3846.09
418.04	4065.22
418.26	3995.59
418.47	4003.78
418.68	4054.98
418.89	4011.97
419.10	4173.76
419.31	4009.92
419.52	4118.47
419.73	3987.40
419.95	4218.82
420.16	3977.16
420.37	4042.69
420.58	4214.72
420.79	4022.21
421.00	4126.66
421.21	4231.10
421.42	4138.94
421.63	4077.51
421.85	4210.62
422.06	4292.54
422.27	4161.47
422.48	4255.68
422.69	4341.69
422.90	4216.77
423.11	4325.31
423.32	4339.65
423.53	4347.84
423.75	4300.73
423.96	4464.57
424.17	4458.43
424.38	4575.16
424.59	4487.10
424.80	4640.70
425.01	4368.32
425.22	4489.15
425.43	4509.63
425.64	4706.23
425.85	4769.72
426.06	4607.93
426.28	4677.56
426.49	4603.83
426.70	4614.07
426.91	4495.29
427.12	4747.19
427.33	4708.28
427.54	4632.51
427.75	4661.18
427.96	4808.63
428.17	4773.82
428.38	4759.48
428.59	4976.56
428.80	4761.53
429.01	4865.97
429.23	4853.69
429.44	5072.82
429.65	5044.15
429.86	5099.44
430.07	4927.41
430.28	4962.23
430.49	4960.18
430.70	5103.54
430.91	5179.31
431.12	5081.01
431.33	5181.36
431.54	5187.50
431.75	5210.03
431.96	5109.68
432.17	5113.78
432.38	5222.32
432.59	5418.93
432.80	5353.39
433.01	5285.81
433.22	5322.67
433.43	5289.90
433.64	5341.10
433.85	5314.48
434.06	5425.07
434.27	5439.40
434.49	5423.02
434.70	5693.35
434.91	5455.79
435.12	5506.99
435.33	5412.78
435.54	5525.42
435.75	5238.70
435.96	5494.70
436.17	5449.64
436.38	5654.44
436.59	5736.36
436.80	5531.56
437.01	5781.42
437.22	5926.82
437.43	5779.37
437.64	5470.12
437.85	5695.40
438.06	5820.33
438.27	5625.77
438.48	5777.32
438.69	5840.81
438.90	5824.42
439.11	5681.07
439.32	5877.67
439.53	5973.92
439.74	5844.90
439.95	5984.16
440.16	5973.92
440.37	5898.15
440.57	5808.04
440.78	6000.55
440.99	6018.98
441.20	6016.93
441.41	6027.17
441.62	6064.04
441.83	6104.99
442.04	6076.32
442.25	6193.06
442.46	6145.95
442.67	6131.62
442.88	6475.68
443.09	5984.16
443.30	6223.78
443.51	6360.99
443.72	6490.01
443.93	6131.62
444.14	6367.13
444.35	6191.01
444.56	6281.12
444.77	6381.47
444.98	6342.56
445.19	6309.79
445.40	6287.26
445.61	6367.13
445.81	6369.18
446.02	6557.60
446.23	6582.17
446.44	6418.33
446.65	6475.68
446.86	6453.15
447.07	6500.25
447.28	6803.35
447.49	6676.38
447.70	6397.85
447.91	6825.88
448.12	6832.02
448.33	6868.89
448.54	6832.02
448.74	6741.91
448.95	6864.79
449.16	6690.71
449.37	7051.16
449.58	6838.17
449.79	6950.81
450.00	6827.93
450.21	6961.05
450.42	7204.75
450.63	6991.77
450.84	7020.44
451.05	6989.72
451.25	6977.43
451.46	6975.38
451.67	7243.67
451.88	7157.65
452.09	7188.37
452.30	7026.58
452.51	7247.76
452.72	7442.32
452.93	7585.68
453.13	7114.64
453.34	7237.52
453.55	7329.68
453.76	7374.74
453.97	7581.58
454.18	7456.65
454.39	7548.81
454.60	7499.66
454.81	7532.43
455.01	7673.74
455.22	7532.43
455.43	7663.50
455.64	7718.79
455.85	7958.41
456.06	8007.56
456.27	7837.58
456.48	7849.86
456.68	7823.24
456.89	7683.98
457.10	8134.53
457.31	8036.23
457.52	8048.52
457.73	8071.04
457.94	8378.24
458.14	8003.46
458.35	8642.43
458.56	8150.92
458.77	8044.42
458.98	8277.89
459.19	8497.02
459.39	8488.83
459.60	8497.02
459.81	8298.37
460.02	8736.63
460.23	8638.33
460.44	8861.56
460.65	8720.25
460.85	8767.35
461.06	8834.94
461.27	8658.81
461.48	8879.99
461.69	9160.56
461.89	8769.40
462.10	8912.76
462.31	8882.04
462.52	8949.62
462.73	9111.41
462.94	9164.66
463.14	9154.42
463.35	9170.80
463.56	9637.74
463.77	9582.45
463.98	9138.04
464.18	9385.84
464.39	9625.45
464.60	9781.10
464.81	9547.63
465.02	9611.12
465.23	9791.34
465.43	9785.19
465.64	9961.32
465.85	9783.15
466.06	9711.47
466.27	10112.87
466.47	10106.73
466.68	10250.08
466.89	9942.89
467.10	10276.71
467.30	10245.99
467.51	10383.20
467.72	10563.42
467.93	10284.90
468.14	10450.78
468.34	10796.89
468.55	10692.44
468.76	10721.12
468.97	10780.51
469.17	10768.22
469.38	10755.93
469.59	11155.29
469.80	10907.48
470.01	10987.35
470.21	10977.11
470.42	11437.91
470.63	11347.79
470.84	11462.48
471.04	11366.23
471.25	11423.57
471.46	11495.25
471.67	11450.19
471.87	11683.66
472.08	11788.11
472.29	11974.47
472.50	11882.31
472.70	11980.62
472.91	11767.63
473.12	12318.53
473.33	12349.25
473.53	12373.83
473.74	12195.65
473.95	12496.71
474.16	12578.62
474.36	12611.39
474.57	12588.86
474.78	12742.46
474.99	12896.06
475.19	12695.36
475.40	13156.15
475.61	13225.78
475.81	13086.52
476.02	13356.85
476.23	13258.55
476.44	13322.04
476.64	13397.81
476.85	13979.43
477.06	13547.31
477.27	13944.62
477.47	14051.11
477.68	13991.72
477.89	14239.53
478.09	14366.50
478.30	14337.83
478.51	14257.96
478.71	14411.56
478.92	14681.89
479.13	14642.98
479.34	14853.92
479.54	14876.44
479.75	14847.77
479.96	14864.16
480.16	15120.15
480.37	15077.15
480.58	15312.66
480.78	15574.80
480.99	15249.18
481.20	15585.04
481.41	15812.37
481.61	15681.30
481.82	15863.57
482.03	15920.91
482.23	15808.27
482.44	16275.21
482.65	16256.78
482.85	16359.17
483.06	16480.00
483.27	16420.61
483.47	16633.60
483.68	16531.20
483.89	16641.79
484.09	17018.62
484.30	16867.07
484.51	17223.42
484.71	17125.11
484.92	17067.77
485.13	17659.63
485.33	17557.24
485.54	17397.49
485.75	17436.41
485.95	17635.06
486.16	17825.52
486.37	17934.06
486.57	17860.34
486.78	17919.73
486.98	17862.38
487.19	18011.89
487.40	18159.34
487.60	18298.60
487.81	18509.54
488.02	18321.13
488.22	18429.67
488.43	18765.54
488.64	18843.36
488.84	19144.41
489.05	19078.88
489.25	18892.51
489.46	19037.92
489.67	19070.68
489.87	19308.25
490.08	19332.82
490.29	19398.36
490.49	19830.48
490.70	19838.67
490.90	19723.99
491.11	19971.79
491.32	19998.41
491.52	19969.74
491.73	19844.82
491.94	20178.64
492.14	19924.69
492.35	20250.32
492.55	20426.44
492.76	20543.17
492.97	20643.52
493.17	20551.37
493.38	20717.25
493.58	21020.35
493.79	20922.05
494.00	21153.47
494.20	21024.45
494.41	21200.57
494.61	21499.58
494.82	21223.10
495.02	21438.14
495.23	21460.66
495.44	21704.37
495.64	21526.20
495.85	21546.68
496.05	21952.18
496.26	21399.23
496.47	22423.21
496.67	21880.50
496.88	22384.30
497.08	22005.42
497.29	22443.69
497.49	22204.08
497.70	22329.00
497.91	22447.79
498.11	22601.38
498.32	22570.66
498.52	22548.14
498.73	23035.55
498.93	23072.42
499.14	23324.32
499.34	23064.22
499.55	23174.81
499.76	23219.87
499.96	23285.40
500.17	23209.63
500.37	23211.68
500.58	23512.73
500.78	23680.66
500.99	23492.25
501.19	23764.63
501.40	23639.70
501.60	23598.74
501.81	23879.32
502.02	23676.57
502.22	23574.17
502.43	24190.61
502.63	24243.85
502.84	24651.40
503.04	23897.75
503.25	24438.41
503.45	24462.99
503.66	24714.89
503.86	24575.62
504.07	24755.85
504.27	24293.01
504.48	24991.36
504.68	24870.53
504.89	25384.57
505.09	25060.99
505.30	25017.99
505.50	25013.89
505.71	24850.05
505.91	25325.18
506.12	25130.62
506.32	25120.38
506.53	25321.09
506.73	25378.43
506.94	25558.65
507.14	25331.33
507.35	25405.05
507.55	25718.39
507.76	25611.90
507.96	25433.72
508.17	25962.10
508.37	25917.04
508.58	25845.37
508.78	26029.68
508.99	26447.47
509.19	25785.97
509.40	25906.80
509.60	26371.69
509.81	26127.99
510.01	26175.09
510.22	25949.81
510.42	26064.50
510.63	26402.41
510.83	26377.84
511.04	26553.96
511.24	26404.46
511.44	26672.74
511.65	26650.22
511.85	26748.52
512.06	26623.59
512.26	26947.17
512.47	26822.25
512.67	26615.40
512.88	27072.10
513.08	26871.40
513.29	27162.21
513.49	27158.11
513.69	27043.43
513.90	27227.74
514.10	26975.84
514.31	27129.44
514.51	27252.32
514.72	27330.14
514.92	27326.05
515.13	27283.04
515.33	27844.18
515.53	27682.39
515.74	27661.91
515.94	27786.84
516.15	27623.00
516.35	27631.19
516.56	27942.49
516.76	27799.13
516.96	28063.32
517.17	28239.44
517.37	28223.06
517.58	28184.15
517.78	28202.58
517.99	28321.36
518.19	28597.84
518.39	28722.76
518.60	28438.09
518.80	28597.84
519.01	28874.31
519.21	28472.91
519.41	28679.75
519.62	28743.24
519.82	28927.56
520.03	28810.82
520.23	28841.54
520.43	28726.86
520.64	29283.91
520.84	29544.00
521.05	29296.19
521.25	29544.00
521.45	29781.56
521.66	29634.11
521.86	29834.81
522.07	29341.25
522.27	29677.12
522.47	29607.48
522.68	30037.56
522.88	29779.51
523.08	30217.78
523.29	30109.24
523.49	30293.55
523.70	30258.74
523.90	30432.82
524.10	30432.82
524.31	30899.75
524.51	30277.17
524.71	30996.01
524.92	30883.37
525.12	30852.65
525.33	30723.63
525.53	31290.91
525.73	31104.55
525.94	31174.18
526.14	31094.31
526.34	31495.71
526.55	31292.96
526.75	31186.47
526.95	31493.66
527.16	31608.35
527.36	31389.22
527.56	32005.66
527.77	32103.96
527.97	32048.66
528.17	32136.73
528.38	32339.47
528.58	32488.98
528.78	32079.38
528.99	32445.97
529.19	32749.07
529.39	32450.06
529.60	32613.90
529.80	32581.13
530.00	32921.10
530.21	33183.24
530.41	33404.42
530.61	33316.36
530.82	33385.99
531.02	33441.28
531.22	33684.99
531.43	33363.46
531.63	33932.79
531.83	34029.05
532.04	34444.79
532.24	33555.97
532.44	33936.89
532.64	34350.58
532.85	34512.37
533.05	34080.25
533.25	34498.03
533.46	34672.11
533.66	34881.00
533.86	34725.36
534.07	35010.03
534.27	34817.52
534.47	35384.80
534.67	35743.20
534.88	35126.76
535.08	35446.24
535.28	35595.74
535.49	35864.03
535.69	35855.84
535.89	35915.23
536.09	36060.63
536.30	36181.46
536.50	36160.98
536.70	36371.92
536.91	36494.80
537.11	36703.70
537.31	36371.92
537.51	36312.53
537.72	36797.90
537.92	36926.92
538.12	37420.48
538.32	36937.16
538.53	37041.61
538.73	36931.02
538.93	37350.85
539.13	37123.53
539.34	37553.60
539.54	37219.78
539.74	37877.18
539.94	37787.07
540.15	37217.74
540.35	37928.38
540.55	37465.54
540.75	37875.13
540.96	38086.07
541.16	38241.72
541.36	38305.21
541.56	38231.48
541.77	38167.99
541.97	38297.02
542.17	38718.90
542.37	38792.62
542.58	38657.46
542.78	38811.06
542.98	38886.83
543.18	39134.63
543.38	39450.02
543.59	39364.01
543.79	39110.06
543.99	39263.66
544.19	39411.11
544.40	39370.15
544.60	40013.21
544.80	39589.28
545.00	39720.35
545.20	39916.96
545.41	39783.84
545.61	39927.20
545.81	40039.84
546.01	40029.60
546.21	39732.64
546.42	40105.37
546.62	40566.16
546.82	40191.39
547.02	40252.83
547.22	40361.37
547.43	40600.98
547.63	40891.79
547.83	40881.55
548.03	40351.13
548.23	40924.56
548.44	40711.57
548.64	40756.63
548.84	41201.04
549.04	40740.24
549.24	41338.25
549.45	41057.68
549.65	41112.97
549.85	41029.01
550.05	41897.34
550.25	41248.14
550.45	41579.91
550.66	41219.47
550.86	41461.13
551.06	41780.61
551.26	41860.48
551.46	41854.34
551.66	41778.56
551.87	41457.03
552.07	41792.90
552.27	41874.82
552.47	41899.39
552.67	42110.33
552.87	42065.28
553.07	42196.35
553.28	42237.31
553.48	42169.72
553.68	41778.56
553.88	42196.35
554.08	42401.14
554.28	42231.16
554.48	42419.58
554.69	42792.31
554.89	42274.17
555.09	42706.29
555.29	42311.03
555.49	42775.92
555.69	42802.55
555.89	42687.86
556.10	43087.21
556.30	42374.52
556.50	42976.62
556.70	42853.75
556.90	43277.68
557.10	42685.81
557.30	43044.21
557.50	43001.20
557.70	42876.27
557.91	43740.52
558.11	43099.50
558.31	43650.41
558.51	42950.00
558.71	43494.76
558.91	43691.37
559.11	43668.84
559.31	43498.86
559.51	43238.76
559.72	43015.54
559.92	43513.19
560.12	43369.83
560.32	43967.84
560.52	43488.62
560.72	43543.91
560.92	43767.14
561.12	44094.82
561.32	43881.83
561.52	43484.52
561.72	43906.40
561.93	43568.49
562.13	44201.31
562.33	43804.00
562.53	44457.31
562.73	43924.83
562.93	44430.68
563.13	44168.54
563.33	44119.39
563.53	44528.98
563.73	44068.19
563.93	44254.56
564.13	44350.81
564.33	44428.63
564.53	44592.47
564.74	44514.65
564.94	44084.58
565.14	44584.28
565.34	44322.14
565.54	44850.52
565.74	44918.10
565.94	45063.50
566.14	44713.30
566.34	44449.11
566.54	44959.06
566.74	44858.71
566.94	44954.96
567.14	45309.26
567.34	44981.59
567.54	44971.35
567.74	44881.24
567.94	44655.96
568.14	45159.76
568.34	45483.34
568.54	45096.27
568.74	45149.52
568.94	45190.48
569.14	45155.66
569.34	45237.58
569.54	44920.15
569.75	44797.27
569.95	45129.04
570.15	45731.14
570.35	45186.38
570.55	45397.32
570.75	45456.71
570.95	45217.10
571.15	45555.02
571.35	45798.73
571.55	45839.68
571.75	45425.99
571.95	45575.50
572.15	45370.70
572.35	45591.88
572.55	45747.53
572.75	45962.56
572.95	45421.90
573.15	45927.75
573.35	45813.06
573.55	45540.68
573.75	45688.13
573.95	45937.99
574.15	45497.67
574.35	45761.86
574.55	46114.11
574.75	46052.67
574.95	46327.10
575.15	46062.91
575.34	46376.25
575.54	46828.85
575.74	46337.34
575.94	46585.15
576.14	46392.64
576.34	46492.99
576.54	46519.61
576.74	46507.32
576.94	46452.03
577.14	46519.61
577.34	47052.08
577.54	46724.41
577.74	46918.96
577.94	46880.05
578.14	46800.18
578.34	46982.45
578.54	46419.26
578.74	46646.58
578.94	47070.51
579.14	46658.87
579.34	46861.62
579.54	47043.89
579.74	47430.96
579.94	47093.04
580.13	47330.61
580.33	47152.43
580.53	47002.93
580.73	47377.71
580.93	47295.79
581.13	47185.20
581.33	47656.23
581.53	47592.75
581.73	47189.30
581.93	47940.90
582.13	47824.17
582.33	48002.34
582.53	47578.41
582.73	47670.57
582.92	47676.71
583.12	48203.04
583.32	48037.16
583.52	47672.62
583.72	47963.43
583.92	47758.63
584.12	48413.98
584.32	48731.42
584.52	48219.42
584.72	48143.65
584.92	48645.40
585.11	48991.51
585.31	48680.22
585.51	48827.67
585.71	48057.63
585.91	48866.58
586.11	48311.58
586.31	48438.56
586.51	48575.77
586.71	48600.35
586.91	49177.87
587.10	48653.59
587.30	48676.12
587.50	48778.52
587.70	49050.90
587.90	49362.19
588.10	49206.55
588.30	49057.04
588.50	48909.59
