SpectraSuite Data File
++++++++++++++++++++++++++++++++++++
Date: Fri Jun 02 14:53:28 CEST 2017
User: INFO_000
Dark Spectrum Present: No
Reference Spectrum Present: No
Number of Sampled Component Spectra: 1
Spectrometers: USB4H00879
Integration Time (usec): 80000 (USB4H00879)
Spectra Averaged: 1 (USB4H00879)
Boxcar Smoothing: 0 (USB4H00879)
Correct for Electrical Dark: No (USB4H00879)
Strobe/Lamp Enabled: No (USB4H00879)
Correct for Detector Non-linearity: No (USB4H00879)
Correct for Stray Light: No (USB4H00879)
Number of Pixels in Processed Spectrum: 3648
>>>>>Begin Processed Spectral Data<<<<<
345.13	1267.69
345.34	1267.69
345.56	1267.69
345.78	1271.79
345.99	1267.69
346.21	1705.96
346.42	1669.09
346.64	1621.99
346.86	1847.27
347.07	1693.67
347.29	1740.77
347.50	1613.80
347.72	1652.71
347.94	1691.62
348.15	1542.12
348.37	1632.23
348.59	1660.90
348.80	1593.32
349.02	1722.34
349.23	1724.39
349.45	1804.26
349.67	1787.88
349.88	1712.10
350.10	1931.23
350.31	1779.68
350.53	1689.57
350.75	1779.68
350.96	1714.15
351.18	1720.29
351.39	1732.58
351.61	1732.58
351.82	1691.62
352.04	1718.25
352.26	1658.85
352.47	1742.82
352.69	1755.11
352.90	1665.00
353.12	1777.64
353.34	1687.53
353.55	1818.60
353.77	1757.16
353.98	1648.61
354.20	1695.72
354.41	1751.01
354.63	1880.04
354.85	1912.80
355.06	1726.44
355.28	1656.81
355.49	1769.44
355.71	1834.98
355.92	1701.86
356.14	1816.55
356.35	1736.68
356.57	1716.20
356.79	1753.06
357.00	1683.43
357.22	1818.60
357.43	1693.67
357.65	1800.16
357.86	1718.25
358.08	1722.34
358.29	1755.11
358.51	1880.04
358.72	1794.02
358.94	1798.12
359.16	1736.68
359.37	1732.58
359.59	1779.68
359.80	1896.42
360.02	1757.16
360.23	1798.12
360.45	1777.64
360.66	1759.21
360.88	1710.05
361.09	1718.25
361.31	1798.12
361.52	1662.95
361.74	1837.03
361.95	1859.56
362.17	1732.58
362.38	1861.60
362.60	1869.80
362.81	1765.35
363.03	1734.63
363.24	1806.31
363.46	1904.61
363.67	1800.16
363.89	1751.01
364.10	1841.12
364.32	1771.49
364.53	1791.97
364.75	1665.00
364.96	1726.44
365.18	1867.75
365.39	1798.12
365.61	1683.43
365.82	1937.38
366.04	1812.45
366.25	1669.09
366.47	1945.57
366.68	1828.84
366.90	1789.92
367.11	1759.21
367.33	1757.16
367.54	1769.44
367.76	1763.30
367.97	1961.95
368.19	1753.06
368.40	1857.51
368.62	1708.01
368.83	1720.29
369.05	1796.07
369.26	1738.73
369.48	1781.73
369.69	1785.83
369.91	1845.22
370.12	1783.78
370.33	1824.74
370.55	1656.81
370.76	1748.97
370.98	1908.71
371.19	1699.81
371.41	1816.55
371.62	1697.77
371.84	1748.97
372.05	1869.80
372.27	1828.84
372.48	1810.40
372.69	1794.02
372.91	1925.09
373.12	1837.03
373.34	1777.64
373.55	1816.55
373.77	1871.84
373.98	1796.07
374.20	1959.91
374.41	1933.28
374.62	1785.83
374.84	1908.71
375.05	1855.46
375.27	1755.11
375.48	1818.60
375.70	1900.52
375.91	1857.51
376.12	1982.43
376.34	1806.31
376.55	1769.44
376.77	1957.86
376.98	1812.45
377.19	1691.62
377.41	1820.64
377.62	1824.74
377.84	1935.33
378.05	2015.20
378.27	1939.43
378.48	1890.28
378.69	1974.24
378.91	2009.06
379.12	1974.24
379.34	1888.23
379.55	1910.75
379.76	1857.51
379.98	1814.50
380.19	1916.90
380.41	1888.23
380.62	1918.95
380.83	1828.84
381.05	1767.40
381.26	2121.70
381.47	1888.23
381.69	1892.32
381.90	1953.76
382.12	1904.61
382.33	1916.90
382.54	1918.95
382.76	1968.10
382.97	1898.47
383.19	1732.58
383.40	2084.83
383.61	1982.43
383.83	1920.99
384.04	1939.43
384.25	1976.29
384.47	1955.81
384.68	1920.99
384.89	1896.42
385.11	2072.54
385.32	2017.25
385.54	1990.63
385.75	1900.52
385.96	1941.47
386.18	1947.62
386.39	1964.00
386.60	1992.67
386.82	1959.91
387.03	1912.80
387.24	2021.35
387.46	2052.06
387.67	2031.58
387.88	2111.46
388.10	1929.19
388.31	2068.45
388.52	2191.33
388.74	2125.79
388.95	2093.02
389.16	2050.02
389.38	2017.25
389.59	2121.70
389.80	2158.56
390.02	2197.47
390.23	2256.86
390.44	2021.35
390.66	2123.74
390.87	1957.86
391.08	2109.41
391.30	2326.49
391.51	2320.35
391.72	2246.62
391.94	2224.09
392.15	2355.16
392.36	2150.37
392.58	2248.67
392.79	2236.38
393.00	2226.14
393.22	2326.49
393.43	2365.40
393.64	2344.92
393.85	2277.34
394.07	2224.09
394.28	2357.21
394.49	2346.97
394.71	2439.13
394.92	2383.84
395.13	2303.96
395.35	2301.92
395.56	2220.00
395.77	2525.15
395.98	2353.12
396.20	2410.46
396.41	2422.75
396.62	2525.15
396.84	2459.61
397.05	2387.93
397.26	2320.35
397.47	2555.86
397.69	2367.45
397.90	2580.44
398.11	2559.96
398.32	2512.86
398.54	2508.76
398.75	2420.70
398.96	2615.26
399.18	2564.06
399.39	2529.24
399.60	2645.98
399.81	2412.51
400.03	2680.79
400.24	2797.53
400.45	2545.63
400.66	2719.70
400.88	2539.48
401.09	2883.54
401.30	2545.63
401.51	2883.54
401.73	2758.61
401.94	2719.70
402.15	2781.14
402.36	2953.17
402.58	2695.13
402.79	3016.66
403.00	2904.02
403.21	2789.33
403.43	2914.26
403.64	2981.84
403.85	2836.44
404.06	3008.47
404.27	2811.86
404.49	2891.73
404.70	2918.36
404.91	2967.51
405.12	2867.16
405.34	2863.06
405.55	3100.62
405.76	2922.45
405.97	2953.17
406.19	3317.71
406.40	2944.98
406.61	3168.21
406.82	3002.32
407.03	3041.23
407.25	2938.84
407.46	3295.18
407.67	3092.43
407.88	3368.91
408.09	3055.57
408.31	3117.01
408.52	3252.17
408.73	3149.78
408.94	3133.39
409.15	3252.17
409.37	3243.98
409.58	3282.89
409.79	3246.03
410.00	3243.98
410.21	3254.22
410.43	3250.13
410.64	3006.42
410.85	3325.90
411.06	3368.91
411.27	3399.63
411.48	3334.09
411.70	3305.42
411.91	3420.11
412.12	3549.13
412.33	3626.95
412.54	3389.39
412.76	3565.51
412.97	3571.66
413.18	3278.80
413.39	3489.74
413.60	3493.83
413.81	3516.36
414.03	3493.83
414.24	3475.40
414.45	3682.25
414.66	3479.50
414.87	3657.67
415.08	3465.16
415.30	3575.75
415.51	3606.47
415.72	3448.78
415.93	3706.82
416.14	3629.00
416.35	3772.36
416.56	3645.38
416.78	3796.93
416.99	3723.21
417.20	3690.44
417.41	3844.04
417.62	3833.80
417.83	3747.78
418.04	3743.69
418.26	3944.39
418.47	3715.02
418.68	4054.98
418.89	3856.33
419.10	4097.99
419.31	3985.35
419.52	3903.43
419.73	3973.06
419.95	4038.59
420.16	3960.77
420.37	3962.82
420.58	4038.59
420.79	3796.93
421.00	3919.81
421.21	4091.84
421.42	4050.88
421.63	4163.52
421.85	4181.95
422.06	4081.60
422.27	4108.23
422.48	4065.22
422.69	4224.96
422.90	4159.42
423.11	4118.47
423.32	4280.25
423.53	4370.37
423.75	4362.17
423.96	4517.82
424.17	4341.69
424.38	4558.78
424.59	4370.37
424.80	4581.31
425.01	4411.32
425.22	4257.73
425.43	4431.80
425.64	4569.02
425.85	4669.37
426.06	4532.15
426.28	4474.81
426.49	4474.81
426.70	4544.44
426.91	4571.07
427.12	4612.03
427.33	4710.33
427.54	4689.85
427.75	4792.25
427.96	4857.78
428.17	4734.90
428.38	4779.96
428.59	4861.88
428.80	4655.03
429.01	4777.91
429.23	4886.45
429.44	4999.09
429.65	4896.69
429.86	4935.60
430.07	4919.22
430.28	4921.27
430.49	4988.85
430.70	5126.07
430.91	5048.24
431.12	5019.57
431.33	5150.64
431.54	5101.49
431.75	5277.62
431.96	5207.98
432.17	4970.42
432.38	5195.70
432.59	5306.29
432.80	5308.34
433.01	5226.42
433.22	5324.72
433.43	5416.88
433.64	5386.16
433.85	5339.05
434.06	5511.08
434.27	5328.81
434.49	5439.40
434.70	5574.57
434.91	5384.11
435.12	5527.47
435.33	5365.68
435.54	5447.60
435.75	5447.60
435.96	5437.36
436.17	5359.53
436.38	5613.48
436.59	5672.87
436.80	5646.25
437.01	5822.38
437.22	5805.99
437.43	5752.74
437.64	5570.48
437.85	5758.89
438.06	5822.38
438.27	5615.53
438.48	5824.42
438.69	5945.25
438.90	5887.91
439.11	5597.10
439.32	5945.25
439.53	5853.09
439.74	5961.64
439.95	5959.59
440.16	5812.14
440.37	5875.62
440.57	5865.38
440.78	5963.68
440.99	6029.22
441.20	6068.13
441.41	5963.68
441.62	6084.52
441.83	6023.08
442.04	6121.38
442.25	6197.15
442.46	6231.97
442.67	6268.83
442.88	6406.05
443.09	6143.91
443.30	6238.11
443.51	6352.80
443.72	6541.21
443.93	6213.54
444.14	6500.25
444.35	6238.11
444.56	6533.02
444.77	6352.80
444.98	6340.51
445.19	6387.61
445.40	6567.84
445.61	6379.42
445.81	6653.85
446.02	6600.60
446.23	6731.67
446.44	6467.49
446.65	6553.50
446.86	6633.37
447.07	6637.47
447.28	6803.35
447.49	6592.41
447.70	6551.45
447.91	6713.24
448.12	6774.68
448.33	6895.51
448.54	6756.25
448.74	6569.88
448.95	6903.70
449.16	6674.33
449.37	7102.36
449.58	6799.26
449.79	7221.14
450.00	7018.39
450.21	7149.46
450.42	7260.05
450.63	7071.64
450.84	7114.64
451.05	7075.73
451.25	7139.22
451.46	7067.54
451.67	7278.48
451.88	7260.05
452.09	7233.43
452.30	7241.62
452.51	7278.48
452.72	7554.96
452.93	7636.88
453.13	7163.79
453.34	7147.41
453.55	7395.22
453.76	7536.52
453.97	7688.07
454.18	7518.09
454.39	7694.22
454.60	7503.76
454.81	7665.55
455.01	7761.80
455.22	7524.24
455.43	7616.40
455.64	7939.97
455.85	7935.88
456.06	8179.59
456.27	8017.80
456.48	7819.14
456.68	8114.05
456.89	8023.94
457.10	8075.14
457.31	7970.69
457.52	8073.09
457.73	8157.06
457.94	8368.00
458.14	8183.68
458.35	8589.18
458.56	8273.79
458.77	8218.50
458.98	8451.97
459.19	8554.37
459.39	8537.98
459.60	8628.09
459.81	8339.33
460.02	8687.48
460.23	8675.20
460.44	8710.01
460.65	8796.03
460.85	8822.65
461.06	8775.55
461.27	8802.17
461.48	8863.61
461.69	9047.93
461.89	8726.39
462.10	9066.36
462.31	8867.70
462.52	8812.41
462.73	9133.94
462.94	9121.65
463.14	9193.33
463.35	9123.70
463.56	9650.03
463.77	9391.98
463.98	9260.91
464.18	9248.63
464.39	9412.46
464.60	9752.43
464.81	9731.95
465.02	9779.05
465.23	9930.60
465.43	9600.88
465.64	9963.37
465.85	9848.68
466.06	9695.08
466.27	10176.36
466.47	10053.48
466.68	10086.25
466.89	10198.88
467.10	10192.74
467.30	10084.20
467.51	10282.85
467.72	10643.29
467.93	10162.02
468.14	10360.67
468.34	10682.20
468.55	10631.01
468.76	10680.16
468.97	10346.34
469.17	10768.22
469.38	10743.64
469.59	10884.95
469.80	10757.98
470.01	10606.43
470.21	11120.47
470.42	11208.53
470.63	11485.01
470.84	11235.16
471.04	11378.51
471.25	11376.47
471.46	11351.89
471.67	11560.78
471.87	11609.93
472.08	11767.63
472.29	11970.38
472.50	11716.43
472.70	11663.18
472.91	12025.67
473.12	12283.72
473.33	11992.90
473.53	12402.50
473.74	12320.58
473.95	12447.55
474.16	12654.40
474.36	12519.23
474.57	12760.89
474.78	12916.54
474.99	12771.13
475.19	12783.42
475.40	12799.80
475.61	13006.65
475.81	13268.79
476.02	13446.96
476.23	13066.04
476.44	13354.80
476.64	13659.95
476.85	13639.47
477.06	13635.38
477.27	14102.31
477.47	14053.16
477.68	14051.11
477.89	14153.51
478.09	14159.66
478.30	14053.16
478.51	14341.93
478.71	14522.15
478.92	14516.00
479.13	14724.90
479.34	14679.84
479.54	14604.07
479.75	14743.33
479.96	14829.34
480.16	14952.22
480.37	15052.57
480.58	15298.33
480.78	15191.83
480.99	15306.52
481.20	15675.15
481.41	15720.21
481.61	16017.16
481.82	15720.21
482.03	15683.34
482.23	15949.58
482.44	16176.91
482.65	16084.75
482.85	16011.02
483.06	16453.38
483.27	16291.59
483.47	16240.39
483.68	16611.07
483.89	16948.99
484.09	16865.02
484.30	16758.53
484.51	16965.37
484.71	17114.87
484.92	17139.45
485.13	17350.39
485.33	17417.97
485.54	17166.07
485.75	17557.24
485.95	17694.45
486.16	17647.35
486.37	17864.43
486.57	17907.44
486.78	17667.83
486.98	17858.29
487.19	18056.94
487.40	18276.07
487.60	17911.53
487.81	18415.34
488.02	18409.19
488.22	18265.83
488.43	18808.54
488.64	18654.95
488.84	18798.31
489.05	19072.73
489.25	18765.54
489.46	19578.58
489.67	19166.94
489.87	19523.29
490.08	19400.41
490.29	19259.10
490.49	19693.27
490.70	19685.08
490.90	19719.89
491.11	19738.32
491.32	19746.51
491.52	20055.76
491.73	20084.43
491.94	20016.85
492.14	19896.02
492.35	20289.23
492.55	20246.22
492.76	20549.32
492.97	20811.46
493.17	20627.14
493.38	20829.89
493.58	21057.21
493.79	20797.12
494.00	20829.89
494.20	21128.89
494.41	21505.72
494.61	21219.00
494.82	21329.59
495.02	21270.20
495.23	21579.45
495.44	21542.58
495.64	21878.45
495.85	21843.63
496.05	22038.19
496.26	21796.53
496.47	21888.69
496.67	21847.73
496.88	22374.06
497.08	21796.53
497.29	22578.86
497.49	22501.03
497.70	22587.05
497.91	22390.44
498.11	22894.24
498.32	22517.42
498.52	23051.94
498.73	23201.44
498.93	22847.14
499.14	23244.45
499.34	23185.05
499.55	23436.95
499.76	23004.83
499.96	23418.52
500.17	23240.35
500.37	23244.45
500.58	23475.87
500.78	23588.50
500.99	23809.68
501.19	24006.29
501.40	23879.32
501.60	23819.92
501.81	23910.04
502.02	24315.53
502.22	23916.18
502.43	23996.05
502.63	24430.22
502.84	24213.13
503.04	24479.37
503.25	24303.25
503.45	24497.80
503.66	24368.78
503.86	24438.41
504.07	24780.42
504.27	24712.84
504.48	25108.10
504.68	25073.28
504.89	25384.57
505.09	25038.47
505.30	25071.23
505.50	25390.72
505.71	25298.56
505.91	25216.64
506.12	25527.93
506.32	25306.75
506.53	25503.35
506.73	25720.44
506.94	25742.97
507.14	25605.75
507.35	25755.26
507.55	25544.31
507.76	26050.16
507.96	25949.81
508.17	26236.53
508.37	26130.03
508.58	26273.39
508.78	26275.44
508.99	26146.42
509.19	26492.52
509.40	26418.80
509.60	26252.91
509.81	26642.03
510.01	26404.46
510.22	26676.84
510.42	26633.83
510.63	27049.57
510.83	26766.95
511.04	26852.97
511.24	27004.52
511.44	26840.68
511.65	26920.55
511.85	26840.68
512.06	26941.03
512.26	27158.11
512.47	27336.29
512.67	27717.21
512.88	27569.76
513.08	27311.71
513.29	27725.40
513.49	27360.86
513.69	27557.47
513.90	27512.41
514.10	28137.04
514.31	27776.60
514.51	27960.92
514.72	27549.28
514.92	27922.01
515.13	27833.94
515.33	28159.57
515.53	28005.97
515.74	28178.00
515.94	28530.25
516.15	28288.59
516.35	28008.02
516.56	28579.40
516.76	28264.02
516.96	28374.61
517.17	28425.81
517.37	28694.09
517.58	28466.77
517.78	28880.46
517.99	28653.13
518.19	29118.02
518.39	28821.06
518.60	29322.82
518.80	28900.94
519.01	29308.48
519.21	29306.43
519.41	29034.05
519.62	29095.49
519.82	29566.52
520.03	29599.29
520.23	29382.21
520.43	29470.27
520.64	29861.43
520.84	29972.02
521.05	29834.81
521.25	29974.07
521.45	30166.58
521.66	29912.63
521.86	29703.74
522.07	30295.60
522.27	30477.87
522.47	30193.20
522.68	30578.22
522.88	30275.12
523.08	30746.15
523.29	30264.88
523.49	30643.76
523.70	30740.01
523.90	30862.89
524.10	30535.21
524.31	31321.63
524.51	30715.44
524.71	31362.59
524.92	31286.82
525.12	31129.12
525.33	31434.27
525.53	31495.71
525.73	31927.83
525.94	31540.77
526.14	31989.27
526.34	31905.31
526.55	31886.87
526.75	32110.10
526.95	31807.00
527.16	32011.80
527.36	32144.92
527.56	32683.53
527.77	32626.19
527.97	32204.31
528.17	32372.24
528.38	32783.88
528.58	32536.08
528.78	33050.12
528.99	32775.69
529.19	32822.80
529.39	32896.52
529.60	33299.97
529.80	33134.09
530.00	32935.43
530.21	33490.43
530.41	33306.12
530.61	33566.21
530.82	33615.36
531.02	33443.33
531.22	33605.12
531.43	33682.94
531.63	33601.02
531.83	33998.33
532.04	34643.44
532.24	34027.00
532.44	34053.62
532.64	34727.41
532.85	34520.56
533.05	34192.89
533.25	34391.54
533.46	34739.69
533.66	34934.25
533.86	34407.92
534.07	35075.56
534.27	35272.17
534.47	35233.25
534.67	35157.48
534.88	35104.23
535.08	35419.62
535.28	35677.66
535.49	35665.38
535.69	35610.08
535.89	35874.27
536.09	35704.29
536.30	36107.74
536.50	35681.76
536.70	36361.69
536.91	35974.62
537.11	36296.15
537.31	36380.12
537.51	36255.19
537.72	36742.61
537.92	36951.50
538.12	36627.92
538.32	36638.16
538.53	37092.81
538.73	36867.53
538.93	36619.73
539.13	37094.86
539.34	37250.50
539.54	36957.64
539.74	37371.33
539.94	37684.67
540.15	37352.90
540.35	37793.22
540.55	37584.32
540.75	37578.18
540.96	37912.00
541.16	37926.33
541.36	38016.44
541.56	38075.84
541.77	38065.60
541.97	38233.53
542.17	38462.90
542.37	37967.29
542.58	38344.12
542.78	38012.35
542.98	38249.91
543.18	38499.76
543.38	38852.02
543.59	39316.90
543.79	38714.80
543.99	38364.60
544.19	39353.77
544.40	38825.39
544.60	39202.22
544.80	39062.96
545.00	39257.51
545.20	39241.13
545.41	38940.08
545.61	39144.87
545.81	39298.47
546.01	39701.92
546.21	39409.06
546.42	39437.73
546.62	39501.22
546.82	39478.69
547.02	40060.32
547.22	39947.68
547.43	40265.11
547.63	40015.26
547.83	40091.04
548.03	40021.41
548.23	40252.83
548.44	40555.93
548.64	39904.67
548.84	40424.86
549.04	40316.31
549.24	40390.04
549.45	40990.09
549.65	40650.13
549.85	40670.61
550.05	41133.45
550.25	40557.97
550.45	41555.33
550.66	41151.88
550.86	41014.67
551.06	41041.29
551.26	41203.08
551.46	41262.47
551.66	41285.00
551.87	41250.19
552.07	41467.27
552.27	41520.52
552.47	41502.09
552.67	42132.86
552.87	41506.18
553.07	41614.72
553.28	42055.04
553.48	41616.77
553.68	41608.58
553.88	41760.13
554.08	41997.70
554.28	41985.41
554.48	42075.52
554.69	42052.99
554.89	42509.69
555.09	41883.01
555.29	41915.78
555.49	42169.72
555.69	42534.26
555.89	42775.92
556.10	42419.58
556.30	42177.92
556.50	42786.16
556.70	42220.92
556.90	43023.73
557.10	42481.02
557.30	42771.83
557.50	42925.42
557.70	42763.64
557.91	43144.56
558.11	42861.94
558.31	43142.51
558.51	42788.21
558.71	42894.71
558.91	43650.41
559.11	43101.55
559.31	43359.59
559.51	43066.73
559.72	43242.86
559.92	43431.27
560.12	43040.11
560.32	43431.27
560.52	43150.70
560.72	43529.58
560.92	43562.34
561.12	43408.75
561.32	44209.50
561.52	43371.88
561.72	44131.68
561.93	43670.89
562.13	44172.64
562.33	43804.00
562.53	44178.78
562.73	43840.87
562.93	43806.05
563.13	43963.75
563.33	43898.21
563.53	44152.16
563.73	43818.34
563.93	44103.01
564.13	44606.81
564.33	44150.11
564.53	44156.25
564.74	44600.66
564.94	44094.82
565.14	44725.59
565.34	44275.04
565.54	44537.18
565.74	44359.00
565.94	44684.63
566.14	44313.95
566.34	44453.21
566.54	44873.04
566.74	44238.17
566.94	44741.97
567.14	45231.44
567.34	44539.22
567.54	44567.90
567.74	44797.27
567.94	44780.88
568.14	45176.14
568.34	45129.04
568.54	45176.14
568.74	45045.07
568.94	44834.13
569.14	45098.32
569.34	45014.35
569.54	45268.30
569.75	44787.03
569.95	45352.27
570.15	45778.25
570.35	45524.30
570.55	45149.52
570.75	45235.53
570.95	45421.90
571.15	45479.24
571.35	45481.29
571.55	45722.95
571.75	45626.70
571.95	45544.78
572.15	45589.83
572.35	45978.95
572.55	45401.42
572.75	45854.02
572.95	45962.56
573.15	45995.33
573.35	45919.56
573.55	45462.86
573.75	46067.01
573.95	46345.53
574.15	45847.88
574.35	46249.28
574.55	45946.18
574.75	45942.08
574.95	45874.50
575.15	46060.87
575.34	46439.74
575.54	46603.58
575.74	46701.88
575.94	46718.26
576.14	47007.03
576.34	46452.03
576.54	46562.62
576.74	46880.05
576.94	46748.98
577.14	46773.56
577.34	46638.39
577.54	46603.58
577.74	47023.41
577.94	46800.18
578.14	46800.18
578.34	46869.81
578.54	46740.79
578.74	47043.89
578.94	47691.05
579.14	46996.79
579.34	46880.05
579.54	46761.27
579.74	47408.43
579.94	47232.30
580.13	47461.68
580.33	47885.61
580.53	47396.14
580.73	47732.01
580.93	47385.90
581.13	47162.67
581.33	47574.31
581.53	47635.75
581.73	48049.44
581.93	48168.22
582.13	47846.69
582.33	47762.73
582.53	47830.31
582.73	47846.69
582.92	48057.63
583.12	48244.00
583.32	47809.83
583.52	47815.97
583.72	48203.04
583.92	48055.59
584.12	48108.83
584.32	48946.45
584.52	48252.19
584.72	47895.85
584.92	48481.56
585.11	48563.48
585.31	48338.21
585.51	48074.02
585.71	48817.43
585.91	49095.95
586.11	48747.80
586.31	48616.73
586.51	48624.92
586.71	49065.24
586.91	48821.53
587.10	49089.81
587.30	49200.40
587.50	49374.48
587.70	48950.55
587.90	49323.28
588.10	49286.42
588.30	48895.25
588.50	49497.36
