SpectraSuite Data File
++++++++++++++++++++++++++++++++++++
Date: Fri Jun 02 14:53:32 CEST 2017
User: INFO_000
Dark Spectrum Present: No
Reference Spectrum Present: No
Number of Sampled Component Spectra: 1
Spectrometers: USB4H00879
Integration Time (usec): 80000 (USB4H00879)
Spectra Averaged: 1 (USB4H00879)
Boxcar Smoothing: 0 (USB4H00879)
Correct for Electrical Dark: No (USB4H00879)
Strobe/Lamp Enabled: No (USB4H00879)
Correct for Detector Non-linearity: No (USB4H00879)
Correct for Stray Light: No (USB4H00879)
Number of Pixels in Processed Spectrum: 3648
>>>>>Begin Processed Spectral Data<<<<<
345.13	1234.93
345.34	1234.93
345.56	1234.93
345.78	1339.37
345.99	1269.74
346.21	1634.28
346.42	1746.92
346.64	1638.38
346.86	1773.54
347.07	1648.61
347.29	1701.86
347.50	1695.72
347.72	1648.61
347.94	1748.97
348.15	1605.61
348.37	1615.85
348.59	1732.58
348.80	1673.19
349.02	1751.01
349.23	1959.91
349.45	1796.07
349.67	1837.03
349.88	1834.98
350.10	1992.67
350.31	1845.22
350.53	1843.17
350.75	2045.92
350.96	1853.41
351.18	1865.70
351.39	1892.32
351.61	1851.36
351.82	1918.95
352.04	1943.52
352.26	1859.56
352.47	1861.60
352.69	1955.81
352.90	1785.83
353.12	1839.08
353.34	1867.75
353.55	1929.19
353.77	1871.84
353.98	1824.74
354.20	1849.32
354.41	1873.89
354.63	1830.88
354.85	2011.11
355.06	1914.85
355.28	1785.83
355.49	1894.37
355.71	1890.28
355.92	1845.22
356.14	1925.09
356.35	1861.60
356.57	1908.71
356.79	1972.19
357.00	1800.16
357.22	1968.10
357.43	1855.46
357.65	1982.43
357.86	1863.65
358.08	1978.34
358.29	1939.43
358.51	1982.43
358.72	1976.29
358.94	1937.38
359.16	1937.38
359.37	1953.76
359.59	1957.86
359.80	1990.63
360.02	1910.75
360.23	1898.47
360.45	2021.35
360.66	1986.53
360.88	1900.52
361.09	1900.52
361.31	2037.73
361.52	1990.63
361.74	2019.30
361.95	2062.30
362.17	1968.10
362.38	2035.68
362.60	2000.87
362.81	1953.76
363.03	1949.67
363.24	1980.39
363.46	2033.63
363.67	2084.83
363.89	2039.78
364.10	2056.16
364.32	1972.19
364.53	2076.64
364.75	1937.38
364.96	2023.39
365.18	2052.06
365.39	1949.67
365.61	1945.57
365.82	2123.74
366.04	1994.72
366.25	1966.05
366.47	2101.22
366.68	2152.42
366.90	1988.58
367.11	2146.27
367.33	2138.08
367.54	2084.83
367.76	2039.78
367.97	2131.94
368.19	1990.63
368.40	2025.44
368.62	1974.24
368.83	1976.29
369.05	2117.60
369.26	1996.77
369.48	1908.71
369.69	2047.97
369.91	2078.69
370.12	1947.62
370.33	2070.50
370.55	1978.34
370.76	1988.58
370.98	2158.56
371.19	2070.50
371.41	2115.55
371.62	2111.46
371.84	2017.25
372.05	2148.32
372.27	2004.96
372.48	2070.50
372.69	2109.41
372.91	2125.79
373.12	2254.81
373.34	2056.16
373.55	2203.61
373.77	2148.32
373.98	2084.83
374.20	2164.70
374.41	2275.29
374.62	2154.46
374.84	2174.94
375.05	2123.74
375.27	2115.55
375.48	2168.80
375.70	2142.18
375.91	2244.57
376.12	2222.05
376.34	2097.12
376.55	2187.23
376.77	2199.52
376.98	2142.18
377.19	2187.23
377.41	2176.99
377.62	2238.43
377.84	2215.90
378.05	2394.08
378.27	2168.80
378.48	2326.49
378.69	2318.30
378.91	2248.67
379.12	2258.91
379.34	2306.01
379.55	2277.34
379.76	2301.92
379.98	2269.15
380.19	2301.92
380.41	2230.24
380.62	2248.67
380.83	2271.20
381.05	2220.00
381.26	2377.69
381.47	2289.63
381.69	2306.01
381.90	2361.31
382.12	2287.58
382.33	2269.15
382.54	2355.16
382.76	2344.92
382.97	2342.88
383.19	2209.76
383.40	2416.60
383.61	2310.11
383.83	2308.06
384.04	2275.29
384.25	2396.12
384.47	2420.70
384.68	2332.64
384.89	2330.59
385.11	2318.30
385.32	2318.30
385.54	2430.94
385.75	2355.16
385.96	2377.69
386.18	2445.27
386.39	2426.84
386.60	2340.83
386.82	2531.29
387.03	2432.99
387.24	2406.36
387.46	2531.29
387.67	2506.71
387.88	2541.53
388.10	2562.01
388.31	2471.90
388.52	2588.63
388.74	2529.24
388.95	2459.61
389.16	2580.44
389.38	2519.00
389.59	2596.82
389.80	2584.54
390.02	2576.34
390.23	2635.74
390.44	2519.00
390.66	2555.86
390.87	2498.52
391.08	2559.96
391.30	2711.51
391.51	2584.54
391.72	2734.04
391.94	2631.64
392.15	2621.40
392.36	2650.07
392.58	2609.11
392.79	2652.12
393.00	2738.13
393.22	2707.41
393.43	2832.34
393.64	2779.09
393.85	2836.44
394.07	2701.27
394.28	2662.36
394.49	2758.61
394.71	2828.24
394.92	2785.24
395.13	2705.37
395.35	2789.33
395.56	2707.41
395.77	2744.28
395.98	2805.72
396.20	2861.01
396.41	2861.01
396.62	2797.53
396.84	2885.59
397.05	2822.10
397.26	2889.68
397.47	3037.14
397.69	2863.06
397.90	3037.14
398.11	2959.31
398.32	2830.29
398.54	2877.40
398.75	2928.60
398.96	2932.69
399.18	3143.63
399.39	2965.46
399.60	3035.09
399.81	2961.36
400.03	2908.12
400.24	3317.71
400.45	2967.51
400.66	3102.67
400.88	3055.57
401.09	3256.27
401.30	3184.59
401.51	3164.11
401.73	3194.83
401.94	3211.22
402.15	3123.15
402.36	3168.21
402.58	3186.64
402.79	3196.88
403.00	3205.07
403.21	3182.54
403.43	3280.85
403.64	3338.19
403.85	3096.53
404.06	3317.71
404.27	3227.60
404.49	3256.27
404.70	3104.72
404.91	3411.92
405.12	3286.99
405.34	3256.27
405.55	3459.02
405.76	3203.02
405.97	3346.38
406.19	3481.55
406.40	3133.39
406.61	3428.30
406.82	3295.18
407.03	3225.55
407.25	3385.29
407.46	3254.22
407.67	3422.16
407.88	3518.41
408.09	3354.57
408.31	3407.82
408.52	3483.59
408.73	3295.18
408.94	3403.72
409.15	3456.97
409.37	3508.17
409.58	3506.12
409.79	3557.32
410.00	3561.42
410.21	3403.72
410.43	3633.10
410.64	3389.39
410.85	3516.36
411.06	3579.85
411.27	3747.78
411.48	3678.15
411.70	3655.62
411.91	3712.97
412.12	3639.24
412.33	3618.76
412.54	3688.39
412.76	3637.19
412.97	3696.58
413.18	3502.03
413.39	3616.71
413.60	3635.14
413.81	3827.65
414.03	3657.67
414.24	3753.93
414.45	3798.98
414.66	3639.24
414.87	3727.30
415.08	3741.64
415.30	3702.73
415.51	3794.89
415.72	3680.20
415.93	3833.80
416.14	3782.60
416.35	3768.26
416.56	3715.02
416.78	3774.41
416.99	3876.80
417.20	3899.33
417.41	3981.25
417.62	3850.18
417.83	3975.11
418.04	3889.09
418.26	4038.59
418.47	3919.81
418.68	3960.77
418.89	4034.50
419.10	4134.85
419.31	3925.96
419.52	4171.71
419.73	4005.83
419.95	4196.29
420.16	4016.07
420.37	4100.03
420.58	3989.44
420.79	3948.48
421.00	4147.14
421.21	4202.43
421.42	4046.79
421.63	4286.40
421.85	4163.52
422.06	4071.36
422.27	4237.25
422.48	4192.19
422.69	4112.32
422.90	4337.60
423.11	4319.17
423.32	4280.25
423.53	4325.31
423.75	4341.69
423.96	4466.62
424.17	4294.59
424.38	4634.55
424.59	4480.96
424.80	4599.74
425.01	4521.92
425.22	4411.32
425.43	4472.76
425.64	4454.33
425.85	4763.58
426.06	4704.18
426.28	4548.54
426.49	4452.28
426.70	4636.60
426.91	4673.46
427.12	4749.24
427.33	4609.98
427.54	4687.80
427.75	4810.68
427.96	4763.58
428.17	4808.63
428.38	4878.26
428.59	4863.93
428.80	4718.52
429.01	4951.99
429.23	4786.10
429.44	4976.56
429.65	5017.52
429.86	4870.07
430.07	4917.17
430.28	5046.20
430.49	4947.89
430.70	5076.91
430.91	5193.65
431.12	4966.32
431.33	5164.98
431.54	5203.89
431.75	5253.04
431.96	5062.58
432.17	5119.92
432.38	5160.88
432.59	5369.77
432.80	5207.98
433.01	5343.15
433.22	5345.20
433.43	5402.54
433.64	5351.34
433.85	5289.90
434.06	5408.69
434.27	5377.97
434.49	5560.24
434.70	5517.23
434.91	5431.21
435.12	5709.74
435.33	5494.70
435.54	5527.47
435.75	5377.97
435.96	5463.98
436.17	5515.18
436.38	5691.31
436.59	5769.13
436.80	5674.92
437.01	5846.95
437.22	5863.33
437.43	5679.02
437.64	5443.50
437.85	5830.57
438.06	5826.47
438.27	5664.68
438.48	5805.99
438.69	5758.89
438.90	5738.41
439.11	5754.79
439.32	6041.51
439.53	5924.77
439.74	5853.09
439.95	5873.57
440.16	5994.40
440.37	5932.97
440.57	5879.72
440.78	6008.74
440.99	5973.92
441.20	6133.67
441.41	5959.59
441.62	6102.95
441.83	5988.26
442.04	6277.02
442.25	6037.41
442.46	6129.57
442.67	6338.46
442.88	6457.25
443.09	6061.99
443.30	6152.10
443.51	6250.40
443.72	6492.06
443.93	6203.30
444.14	6485.92
444.35	6229.92
444.56	6346.66
444.77	6299.55
444.98	6467.49
445.19	6500.25
445.40	6461.34
445.61	6363.04
445.81	6487.96
446.02	6614.94
446.23	6463.39
446.44	6387.61
446.65	6485.92
446.86	6657.95
447.07	6553.50
447.28	6928.28
447.49	6758.30
447.70	6623.13
447.91	6795.16
448.12	6852.50
448.33	7016.34
448.54	6875.03
448.74	6760.34
448.95	6952.85
449.16	6727.58
449.37	7049.11
449.58	6887.32
449.79	7018.39
450.00	6864.79
450.21	7051.16
450.42	7026.58
450.63	7131.03
450.84	7083.92
451.05	7137.17
451.25	7124.88
451.46	7106.45
451.67	7225.23
451.88	7360.40
452.09	7327.63
452.30	7120.79
452.51	7239.57
452.72	7440.27
452.93	7520.14
453.13	7290.77
453.34	7391.12
453.55	7368.59
453.76	7438.22
453.97	7819.14
454.18	7458.70
454.39	7620.49
454.60	7591.82
454.81	7589.77
455.01	7923.59
455.22	7536.52
455.43	7634.83
455.64	7874.44
455.85	7851.91
456.06	8099.72
456.27	7792.52
456.48	7970.69
456.68	8028.04
456.89	7985.03
457.10	8169.35
457.31	8036.23
457.52	8134.53
457.73	8056.71
457.94	8300.42
458.14	7966.60
458.35	8406.91
458.56	8202.11
458.77	8245.12
458.98	8398.72
459.19	8423.30
459.39	8398.72
459.60	8540.03
459.81	8392.58
460.02	8609.66
460.23	8564.61
460.44	8945.53
460.65	8923.00
460.85	8834.94
461.06	8906.62
461.27	8753.02
461.48	8986.49
461.69	9113.46
461.89	8787.83
462.10	9052.02
462.31	8671.10
462.52	8834.94
462.73	9140.08
462.94	9115.51
463.14	9125.75
463.35	8834.94
463.56	9561.97
463.77	9492.34
463.98	9385.84
464.18	9387.89
464.39	9580.40
464.60	9717.61
464.81	9768.81
465.02	9680.75
465.23	9875.31
465.43	9709.42
465.64	9949.03
465.85	9924.46
466.06	9807.72
466.27	10129.25
466.47	10086.25
466.68	10168.16
466.89	10157.92
467.10	10301.28
467.30	9899.88
467.51	10340.19
467.72	10600.29
467.93	10399.59
468.14	10358.63
468.34	10508.13
468.55	10522.46
468.76	10489.70
468.97	10444.64
469.17	10811.23
469.38	10909.53
469.59	11069.27
469.80	10938.20
470.01	10956.63
470.21	10751.84
470.42	11099.99
470.63	11372.37
470.84	11022.17
471.04	11231.06
471.25	11222.87
471.46	11368.27
471.67	11679.57
471.87	11343.70
472.08	11661.13
472.29	11718.48
472.50	11521.87
472.70	11812.68
472.91	11886.41
473.12	12218.18
473.33	12023.62
473.53	12255.04
473.74	12191.56
473.95	12222.28
474.16	12369.73
474.36	12429.12
474.57	12574.53
474.78	12762.94
474.99	12318.53
475.19	12556.10
475.40	12980.03
475.61	12908.35
475.81	13086.52
476.02	13098.81
476.23	12883.77
476.44	13379.38
476.64	13442.87
476.85	13637.42
477.06	13598.51
477.27	13608.75
477.47	13803.31
477.68	13817.65
477.89	14229.29
478.09	13778.73
478.30	14106.41
478.51	13987.63
478.71	14405.41
478.92	14505.76
479.13	14718.75
479.34	14544.67
479.54	14671.65
479.75	14806.81
479.96	14798.62
480.16	14935.84
480.37	15001.37
480.58	15107.87
480.78	15318.81
480.99	15263.51
481.20	15191.83
481.41	15570.71
481.61	15849.23
481.82	15922.96
482.03	15421.20
482.23	15634.19
482.44	15896.33
482.65	16209.67
482.85	16314.12
483.06	16154.38
483.27	16318.22
483.47	16367.37
483.68	16226.06
483.89	16738.05
484.09	16414.47
484.30	16865.02
484.51	16957.18
484.71	16957.18
484.92	16795.39
485.13	16932.61
485.33	17190.65
485.54	17239.80
485.75	17446.65
485.95	17555.19
486.16	17571.57
486.37	17725.17
486.57	17594.10
486.78	17788.66
486.98	17864.43
487.19	18185.96
487.40	18192.11
487.60	18038.51
487.81	18544.36
488.02	18302.70
488.22	18228.97
488.43	18511.59
488.64	18482.92
488.84	18706.15
489.05	18951.90
489.25	18933.47
489.46	19066.59
489.67	18943.71
489.87	19322.59
490.08	19064.54
490.29	19152.60
490.49	19648.21
490.70	19644.12
490.90	19838.67
491.11	19414.74
491.32	19343.06
491.52	19936.98
491.73	19793.62
491.94	20086.48
492.14	20121.29
492.35	20246.22
492.55	20143.82
492.76	20580.04
492.97	20623.05
493.17	20543.17
493.38	20686.53
493.58	20897.47
493.79	20983.49
494.00	21014.21
494.20	21057.21
494.41	21071.55
494.61	21167.80
494.82	21374.65
495.02	21434.04
495.23	21460.66
495.44	21546.68
495.64	21823.16
495.85	21538.49
496.05	21843.63
496.26	21780.15
496.47	21833.39
496.67	21935.79
496.88	22197.93
497.08	22030.00
497.29	22380.20
497.49	22267.56
497.70	22363.82
497.91	22726.31
498.11	22648.49
498.32	22679.21
498.52	22881.95
498.73	22976.16
498.93	22967.97
499.14	23203.49
499.34	23043.74
499.55	23207.58
499.76	22959.78
499.96	23254.69
500.17	23283.36
500.37	23400.09
500.58	23600.79
500.78	23441.05
500.99	23735.96
501.19	23811.73
501.40	23647.90
501.60	23762.58
501.81	23813.78
502.02	23957.14
502.22	23975.57
502.43	24106.64
502.63	24405.64
502.84	24266.38
503.04	24231.57
503.25	24532.62
503.45	24491.66
503.66	24739.46
503.86	24864.39
504.07	25032.32
504.27	24565.39
504.48	25173.63
504.68	24880.77
504.89	25312.89
505.09	25110.14
505.30	25112.19
505.50	25099.90
505.71	25257.60
505.91	25388.67
506.12	25392.76
506.32	25536.12
506.53	25175.68
506.73	25564.79
506.94	25507.45
507.14	25790.07
507.35	25751.16
507.55	25724.54
507.76	25908.85
507.96	25871.99
508.17	25812.60
508.37	25990.77
508.58	25939.57
508.78	26031.73
508.99	26556.01
509.19	26173.04
509.40	26674.79
509.60	26482.28
509.81	26244.72
510.01	26291.82
510.22	26269.30
510.42	26551.91
510.63	26744.42
510.83	26637.93
511.04	26723.94
511.24	26822.25
511.44	27102.82
511.65	26947.17
511.85	26996.32
512.06	26859.11
512.26	27172.45
512.47	27121.25
512.67	27129.44
512.88	27375.20
513.08	26728.04
513.29	27270.75
513.49	27082.34
513.69	27389.53
513.90	27633.24
514.10	27252.32
514.31	27952.73
514.51	27823.70
514.72	27670.11
514.92	27672.15
515.13	28030.55
515.33	27946.58
515.53	28032.60
515.74	28116.56
515.94	27989.59
516.15	27956.82
516.35	27803.22
516.56	28319.31
516.76	28366.42
516.96	28376.66
517.17	28350.03
517.37	28626.51
517.58	28171.86
517.78	28583.50
517.99	28571.21
518.19	28989.00
518.39	29023.81
518.60	28970.57
518.80	28798.54
519.01	28696.14
519.21	28827.21
519.41	29146.69
519.62	29105.73
519.82	29318.72
520.03	29292.10
520.23	29066.82
520.43	29482.56
520.64	29750.84
520.84	29603.39
521.05	29515.33
521.25	29924.92
521.45	29761.08
521.66	30008.89
521.86	29814.33
522.07	29752.89
522.27	30029.37
522.47	30203.44
522.68	30301.75
522.88	30250.55
523.08	30752.30
523.29	30359.09
523.49	30649.90
523.70	30539.31
523.90	30627.37
524.10	30737.96
524.31	31133.22
524.51	30565.93
524.71	31170.08
524.92	31098.41
525.12	31467.04
525.33	31264.29
525.53	31358.50
525.73	31417.89
525.94	31514.14
526.14	31620.64
526.34	31671.84
526.55	31571.49
526.75	31610.40
526.95	32280.08
527.16	31968.79
527.36	31829.53
527.56	31995.42
527.77	32169.49
527.97	32378.39
528.17	32413.20
528.38	32628.24
528.58	32536.08
528.78	32779.79
528.99	32486.93
529.19	33101.32
529.39	32687.63
529.60	32964.10
529.80	33277.44
530.00	32906.76
530.21	33263.11
530.41	33066.50
530.61	33357.32
530.82	33259.01
531.02	33496.58
531.22	33383.94
531.43	33719.81
531.63	33988.09
531.83	34024.95
532.04	34399.73
532.24	33629.69
532.44	34248.18
532.64	34430.45
532.85	34186.74
533.05	34336.24
533.25	34612.72
533.46	34469.36
533.66	35022.31
533.86	34764.27
534.07	34989.55
534.27	35157.48
534.47	35266.02
534.67	35239.40
534.88	35311.08
535.08	35225.06
535.28	35534.31
535.49	35550.69
535.69	36021.72
535.89	35694.05
536.09	35939.80
536.30	36212.18
536.50	36410.84
536.70	36394.45
536.91	36271.57
537.11	36343.25
537.31	36077.02
537.51	36345.30
537.72	36494.80
537.92	36754.90
538.12	37047.75
538.32	36449.75
538.53	37219.78
538.73	36677.07
538.93	36996.56
539.13	37027.28
539.34	37031.37
539.54	37162.44
539.74	37346.76
539.94	37301.70
540.15	37275.08
540.35	37944.76
540.55	37744.06
540.75	37696.96
540.96	37995.96
541.16	37955.00
541.36	37805.50
541.56	37807.55
541.77	38403.51
541.97	38008.25
542.17	38297.02
542.37	37950.91
542.58	38297.02
542.78	38190.52
542.98	38559.16
543.18	38843.82
543.38	38866.35
543.59	39030.19
543.79	38718.90
543.99	38645.17
544.19	39159.21
544.40	38843.82
544.60	39347.62
544.80	38942.13
545.00	38987.18
545.20	39886.24
545.41	39316.90
545.61	39167.40
545.81	39824.80
546.01	39714.21
546.21	39574.95
546.42	39652.77
546.62	39777.70
546.82	39679.39
547.02	39806.37
547.22	39925.15
547.43	39939.49
547.63	40052.12
547.83	40170.91
548.03	39847.33
548.23	40367.51
548.44	40113.56
548.64	40787.35
548.84	40732.05
549.04	40111.52
549.24	40435.10
549.45	40754.58
549.65	40351.13
549.85	40799.63
550.05	40936.85
550.25	40584.60
550.45	41235.85
550.66	40836.50
550.86	40885.65
551.06	41358.73
551.26	41059.73
551.46	40623.51
551.66	41168.27
551.87	40877.46
552.07	41297.29
552.27	41307.53
552.47	41629.06
552.67	41325.96
552.87	41653.64
553.07	41452.94
553.28	41983.36
553.48	42040.70
553.68	41332.11
553.88	41983.36
554.08	41956.74
554.28	41762.18
554.48	41751.94
554.69	42030.46
554.89	41792.90
555.09	42030.46
555.29	42120.57
555.49	42249.60
555.69	42239.36
555.89	42165.63
556.10	42280.31
556.30	42382.71
556.50	42634.61
556.70	42313.08
556.90	42587.51
557.10	42718.58
557.30	42261.88
557.50	42638.71
557.70	42579.32
557.91	42866.03
558.11	42607.99
558.31	42698.10
558.51	43015.54
558.71	42702.20
558.91	42839.41
559.11	42372.47
559.31	42954.10
559.51	42628.47
559.72	42798.45
559.92	42966.38
560.12	42993.01
560.32	42964.34
560.52	42786.16
560.72	43187.56
560.92	43115.89
561.12	43111.79
561.32	43525.48
561.52	43242.86
561.72	43560.30
561.93	43509.10
562.13	43369.83
562.33	43478.38
562.53	43881.83
562.73	43214.19
562.93	43496.81
563.13	43847.01
563.33	43611.49
563.53	43527.53
563.73	43646.31
563.93	43894.11
564.13	44377.43
564.33	43541.86
564.53	43461.99
564.74	44051.81
564.94	43853.15
565.14	44012.90
565.34	43986.27
565.54	43967.84
565.74	43941.22
565.94	44412.25
566.14	44045.66
566.34	44176.73
566.54	44666.20
566.74	44133.73
566.94	44328.28
567.14	44367.20
567.34	44299.61
567.54	44725.59
567.74	44510.55
567.94	44600.66
568.14	44705.11
568.34	44467.55
568.54	44379.48
568.74	44776.79
568.94	44496.22
569.14	45053.26
569.34	44830.04
569.54	44844.37
569.75	44500.31
569.95	44318.04
570.15	45059.41
570.35	45176.14
570.55	44651.86
570.75	45290.83
570.95	45036.88
571.15	45450.57
571.35	45161.81
571.55	45223.25
571.75	44987.73
571.95	45325.64
572.15	45440.33
572.35	45559.11
572.55	45137.23
572.75	45610.31
572.95	45673.80
573.15	45768.01
573.35	45731.14
573.55	45761.86
573.75	45747.53
573.95	45579.59
574.15	45686.09
574.35	45686.09
574.55	45755.72
574.75	45868.36
574.95	45509.96
575.15	46036.29
575.34	45933.89
575.54	45997.38
575.74	46138.69
575.94	46058.82
576.14	46126.40
576.34	46282.05
576.54	46419.26
576.74	46253.37
576.94	46576.95
577.14	46740.79
577.34	47052.08
577.54	46576.95
577.74	46431.55
577.94	46497.08
578.14	46716.22
578.34	46789.94
578.54	46234.94
578.74	47029.55
578.94	47117.62
579.14	46724.41
579.34	46669.11
579.54	46802.23
579.74	47166.77
579.94	46943.54
580.13	47695.14
580.33	47576.36
580.53	47428.91
580.73	47246.64
580.93	47160.62
581.13	47107.38
581.33	47639.85
581.53	47684.90
581.73	47650.09
581.93	47854.89
582.13	47766.82
582.33	47641.90
582.53	47992.10
582.73	47783.21
582.92	47961.38
583.12	48051.49
583.32	47930.66
583.52	47793.45
583.72	48104.74
583.92	48176.42
584.12	48440.60
584.32	48530.72
584.52	48420.13
584.72	48387.36
584.92	48504.09
585.11	49110.29
585.31	48399.65
585.51	48522.52
585.71	48553.24
585.91	49278.22
586.11	48686.36
586.31	48672.03
586.51	48661.79
586.71	48864.53
586.91	49222.93
587.10	48755.99
587.30	49052.95
587.50	49034.52
587.70	49423.63
587.90	49218.83
588.10	48985.36
588.30	49405.20
588.50	49392.91
