SpectraSuite Data File
++++++++++++++++++++++++++++++++++++
Date: Fri Jun 02 14:53:32 CEST 2017
User: INFO_000
Dark Spectrum Present: No
Reference Spectrum Present: No
Number of Sampled Component Spectra: 1
Spectrometers: USB4H00879
Integration Time (usec): 80000 (USB4H00879)
Spectra Averaged: 1 (USB4H00879)
Boxcar Smoothing: 0 (USB4H00879)
Correct for Electrical Dark: No (USB4H00879)
Strobe/Lamp Enabled: No (USB4H00879)
Correct for Detector Non-linearity: No (USB4H00879)
Correct for Stray Light: No (USB4H00879)
Number of Pixels in Processed Spectrum: 3648
>>>>>Begin Processed Spectral Data<<<<<
345.13	1282.03
345.34	1282.03
345.56	1282.03
345.78	1259.50
345.99	1349.61
346.21	1779.68
346.42	1736.68
346.64	1691.62
346.86	1832.93
347.07	1642.47
347.29	1728.49
347.50	1613.80
347.72	1626.09
347.94	1712.10
348.15	1644.52
348.37	1609.70
348.59	1685.48
348.80	1593.32
349.02	1822.69
349.23	1886.18
349.45	1861.60
349.67	1857.51
349.88	1918.95
350.10	1976.29
350.31	1898.47
350.53	1837.03
350.75	2031.58
350.96	1775.59
351.18	1884.13
351.39	1820.64
351.61	1757.16
351.82	1898.47
352.04	1925.09
352.26	1808.36
352.47	1933.28
352.69	1920.99
352.90	1773.54
353.12	1816.55
353.34	1834.98
353.55	1871.84
353.77	1857.51
353.98	1804.26
354.20	1812.45
354.41	1863.65
354.63	1937.38
354.85	2021.35
355.06	1949.67
355.28	1789.92
355.49	1894.37
355.71	1857.51
355.92	1865.70
356.14	1857.51
356.35	1888.23
356.57	1828.84
356.79	1880.04
357.00	1959.91
357.22	1953.76
357.43	1855.46
357.65	2002.91
357.86	1847.27
358.08	1841.12
358.29	1923.04
358.51	2037.73
358.72	2023.39
358.94	1912.80
359.16	1943.52
359.37	1978.34
359.59	2009.06
359.80	2064.35
360.02	1929.19
360.23	1933.28
360.45	2041.82
360.66	1882.08
360.88	1855.46
361.09	1941.47
361.31	1920.99
361.52	1900.52
361.74	1998.82
361.95	2127.84
362.17	1931.23
362.38	2058.21
362.60	2068.45
362.81	1976.29
363.03	1929.19
363.24	2050.02
363.46	2103.26
363.67	2019.30
363.89	1966.05
364.10	2078.69
364.32	2017.25
364.53	2050.02
364.75	1961.95
364.96	2015.20
365.18	2068.45
365.39	1984.48
365.61	1918.95
365.82	2250.72
366.04	2027.49
366.25	1957.86
366.47	2068.45
366.68	2000.87
366.90	1988.58
367.11	2117.60
367.33	2195.42
367.54	2101.22
367.76	1912.80
367.97	2080.74
368.19	1994.72
368.40	2093.02
368.62	1945.57
368.83	2041.82
369.05	2099.17
369.26	2072.54
369.48	1990.63
369.69	2054.11
369.91	2050.02
370.12	2002.91
370.33	2099.17
370.55	1951.71
370.76	2023.39
370.98	2199.52
371.19	2060.26
371.41	2090.98
371.62	2011.11
371.84	1998.82
372.05	2273.25
372.27	2019.30
372.48	2088.93
372.69	2060.26
372.91	2127.84
373.12	2111.46
373.34	2047.97
373.55	2191.33
373.77	2254.81
373.98	2070.50
374.20	2228.19
374.41	2287.58
374.62	2201.57
374.84	2162.66
375.05	2150.37
375.27	2133.98
375.48	2199.52
375.70	2222.05
375.91	2209.76
376.12	2273.25
376.34	2220.00
376.55	2113.50
376.77	2242.53
376.98	2140.13
377.19	2125.79
377.41	2131.94
377.62	2179.04
377.84	2281.44
378.05	2402.27
378.27	2211.81
378.48	2267.10
378.69	2359.26
378.91	2291.68
379.12	2226.14
379.34	2267.10
379.55	2306.01
379.76	2283.49
379.98	2281.44
380.19	2258.91
380.41	2301.92
380.62	2422.75
380.83	2263.01
381.05	2224.09
381.26	2484.19
381.47	2226.14
381.69	2195.42
381.90	2432.99
382.12	2328.54
382.33	2291.68
382.54	2277.34
382.76	2367.45
382.97	2289.63
383.19	2226.14
383.40	2379.74
383.61	2324.44
383.83	2199.52
384.04	2353.12
384.25	2398.17
384.47	2371.55
384.68	2396.12
384.89	2346.97
385.11	2303.96
385.32	2318.30
385.54	2312.16
385.75	2359.26
385.96	2467.80
386.18	2373.60
386.39	2381.79
386.60	2365.40
386.82	2396.12
387.03	2494.43
387.24	2531.29
387.46	2416.60
387.67	2574.30
387.88	2592.73
388.10	2492.38
388.31	2375.64
388.52	2547.67
388.74	2447.32
388.95	2547.67
389.16	2453.47
389.38	2533.34
389.59	2588.63
389.80	2576.34
390.02	2598.87
390.23	2633.69
390.44	2609.11
390.66	2568.15
390.87	2519.00
391.08	2568.15
391.30	2709.46
391.51	2697.17
391.72	2660.31
391.94	2678.74
392.15	2623.45
392.36	2699.22
392.58	2547.67
392.79	2738.13
393.00	2650.07
393.22	2783.19
393.43	2738.13
393.64	2760.66
393.85	2848.72
394.07	2691.03
394.28	2674.65
394.49	2822.10
394.71	2801.62
394.92	2846.68
395.13	2639.83
395.35	2592.73
395.56	2727.89
395.77	2815.96
395.98	2834.39
396.20	2940.88
396.41	2904.02
396.62	2848.72
396.84	2877.40
397.05	2895.83
397.26	2881.49
397.47	2992.08
397.69	2906.07
397.90	2998.23
398.11	2926.55
398.32	2838.48
398.54	2914.26
398.75	2861.01
398.96	2965.46
399.18	3057.62
399.39	2953.17
399.60	3092.43
399.81	2957.27
400.03	2940.88
400.24	3209.17
400.45	2959.31
400.66	3076.05
400.88	3088.34
401.09	3215.31
401.30	3155.92
401.51	3139.54
401.73	3119.06
401.94	3205.07
402.15	3229.65
402.36	3141.58
402.58	3188.69
402.79	3246.03
403.00	3272.65
403.21	3266.51
403.43	3194.83
403.64	3289.04
403.85	3225.55
404.06	3145.68
404.27	3057.62
404.49	3100.62
404.70	3215.31
404.91	3334.09
405.12	3432.40
405.34	3317.71
405.55	3434.44
405.76	3196.88
405.97	3297.23
406.19	3387.34
406.40	3321.81
406.61	3313.61
406.82	3399.63
407.03	3217.36
407.25	3262.41
407.46	3354.57
407.67	3416.01
407.88	3508.17
408.09	3432.40
408.31	3342.28
408.52	3520.46
408.73	3393.48
408.94	3305.42
409.15	3450.83
409.37	3504.07
409.58	3631.05
409.79	3573.71
410.00	3581.90
410.21	3444.68
410.43	3530.70
410.64	3508.17
410.85	3520.46
411.06	3547.08
411.27	3667.91
411.48	3633.10
411.70	3524.55
411.91	3682.25
412.12	3770.31
412.33	3581.90
412.54	3540.94
412.76	3669.96
412.97	3710.92
413.18	3579.85
413.39	3647.43
413.60	3856.33
413.81	3782.60
414.03	3755.97
414.24	3727.30
414.45	3829.70
414.66	3604.42
414.87	3753.93
415.08	3717.06
415.30	3725.26
415.51	3805.13
415.72	3835.85
415.93	3858.37
416.14	3880.90
416.35	3930.05
416.56	3807.17
416.78	3878.85
416.99	3893.19
417.20	3966.92
417.41	3891.14
417.62	3911.62
417.83	3911.62
418.04	3852.23
418.26	3960.77
418.47	3919.81
418.68	3975.11
418.89	4018.11
419.10	4110.27
419.31	4011.97
419.52	4011.97
419.73	3987.40
419.95	3958.72
420.16	3960.77
420.37	4132.80
420.58	4110.27
420.79	4003.78
421.00	4032.45
421.21	4167.62
421.42	4052.93
421.63	4149.18
421.85	4059.07
422.06	4116.42
422.27	4218.82
422.48	4151.23
422.69	4118.47
422.90	4267.97
423.11	4288.45
423.32	4444.09
423.53	4366.27
423.75	4304.83
423.96	4442.04
424.17	4353.98
424.38	4517.82
424.59	4349.89
424.80	4591.55
425.01	4450.24
425.22	4632.51
425.43	4454.33
425.64	4806.58
425.85	4739.00
426.06	4571.07
426.28	4695.99
426.49	4384.70
426.70	4626.36
426.91	4489.15
427.12	4544.44
427.33	4753.34
427.54	4755.38
427.75	4607.93
427.96	4892.60
428.17	4853.69
428.38	4845.49
428.59	4911.03
428.80	4726.71
429.01	4681.66
429.23	4741.05
429.44	5066.67
429.65	4931.51
429.86	4984.76
430.07	4884.41
430.28	4929.46
430.49	5068.72
430.70	5068.72
430.91	5019.57
431.12	4939.70
431.33	5296.05
431.54	5115.83
431.75	5066.67
431.96	5048.24
432.17	5078.96
432.38	5097.39
432.59	5506.99
432.80	5345.20
433.01	5265.33
433.22	5357.49
433.43	5273.52
433.64	5273.52
433.85	5287.86
434.06	5404.59
434.27	5201.84
434.49	5369.77
434.70	5451.69
434.91	5466.03
435.12	5377.97
435.33	5414.83
435.54	5525.42
435.75	5388.21
435.96	5441.45
436.17	5408.69
436.38	5713.83
436.59	5517.23
436.80	5623.72
437.01	5711.78
437.22	5709.74
437.43	5615.53
437.64	5478.32
437.85	5900.20
438.06	5797.80
438.27	5633.96
438.48	5617.58
438.69	5904.29
438.90	5844.90
439.11	5726.12
439.32	5816.23
439.53	5820.33
439.74	5939.11
439.95	6102.95
440.16	5984.16
440.37	5836.71
440.57	5822.38
440.78	6074.28
440.99	6154.15
441.20	6035.36
441.41	5971.88
441.62	5887.91
441.83	6008.74
442.04	6127.52
442.25	6092.71
442.46	6021.03
442.67	6143.91
442.88	6479.77
443.09	6104.99
443.30	6133.67
443.51	6102.95
443.72	6406.05
443.93	6248.35
444.14	6401.95
444.35	6266.78
444.56	6436.77
444.77	6369.18
444.98	6322.08
445.19	6492.06
445.40	6401.95
445.61	6373.28
445.81	6600.60
446.02	6528.92
446.23	6481.82
446.44	6477.73
446.65	6455.20
446.86	6492.06
447.07	6598.56
447.28	6819.74
447.49	6746.01
447.70	6512.54
447.91	6778.78
448.12	6797.21
448.33	6903.70
448.54	6809.50
448.74	6754.20
448.95	6786.97
449.16	6786.97
449.37	7047.06
449.58	6899.61
449.79	7092.12
450.00	6746.01
450.21	6959.00
450.42	7051.16
450.63	7137.17
450.84	7073.68
451.05	7161.75
451.25	6944.66
451.46	7051.16
451.67	7096.21
451.88	7317.39
452.09	7337.87
452.30	7047.06
452.51	7307.15
452.72	7360.40
452.93	7772.04
453.13	7245.71
453.34	7301.01
453.55	7436.17
453.76	7464.85
453.97	7645.07
454.18	7532.43
454.39	7651.21
454.60	7518.09
454.81	7753.61
455.01	7776.14
455.22	7536.52
455.43	7671.69
455.64	8015.75
455.85	7907.21
456.06	7952.26
456.27	7772.04
456.48	7835.53
456.68	7952.26
456.89	7933.83
457.10	8099.72
457.31	8089.48
457.52	8103.81
457.73	8150.92
457.94	8259.46
458.14	8157.06
458.35	8615.80
458.56	8361.86
458.77	8345.47
458.98	8370.05
459.19	8505.21
459.39	8560.51
459.60	8503.17
459.81	8370.05
460.02	8816.51
460.23	8775.55
460.44	8916.86
460.65	8865.66
460.85	9002.87
461.06	8730.49
461.27	8638.33
461.48	9088.89
461.69	9156.47
461.89	8667.00
462.10	9203.57
462.31	9078.65
462.52	8961.91
462.73	9086.84
462.94	9410.42
463.14	9267.06
463.35	9279.35
463.56	9650.03
463.77	9533.29
463.98	9340.79
464.18	9459.57
464.39	9750.38
464.60	9787.24
464.81	9809.77
465.02	9686.89
465.23	9852.78
465.43	9744.24
465.64	10086.25
465.85	9895.78
466.06	9791.34
466.27	10190.69
466.47	10180.45
466.68	10297.19
466.89	10168.16
467.10	10332.00
467.30	9973.61
467.51	10467.17
467.72	10583.90
467.93	10125.16
468.14	10469.22
468.34	10706.78
468.55	10659.68
468.76	10753.88
468.97	10540.90
469.17	10862.43
469.38	10985.30
469.59	11122.52
469.80	10946.39
470.01	10809.18
470.21	11298.64
470.42	11200.34
470.63	11298.64
470.84	11257.68
471.04	11779.92
471.25	11372.37
471.46	11251.54
471.67	11546.45
471.87	11380.56
472.08	11673.42
472.29	11870.03
472.50	11636.56
472.70	11671.37
472.91	11872.07
473.12	12123.98
473.33	12076.87
473.53	12560.19
473.74	12107.59
473.95	12470.08
474.16	12517.18
474.36	12379.97
474.57	12508.99
474.78	12771.13
474.99	12748.61
475.19	12642.11
475.40	12910.40
475.61	12988.22
475.81	13143.86
476.02	13438.77
476.23	13115.19
476.44	13377.33
476.64	13770.54
476.85	13713.20
477.06	13596.46
477.27	13821.74
477.47	13662.00
477.68	13821.74
477.89	14094.12
478.09	14108.46
478.30	14042.92
478.51	14073.64
478.71	14329.64
478.92	14356.26
479.13	14233.38
479.34	14858.01
479.54	14491.43
479.75	14798.62
479.96	14634.78
480.16	14864.16
480.37	14962.46
480.58	14935.84
480.78	15312.66
480.99	15177.50
481.20	15515.41
481.41	15478.55
481.61	15566.61
481.82	15662.86
482.03	15552.27
482.23	15648.53
482.44	15935.24
482.65	16013.07
482.85	16094.99
483.06	16078.60
483.27	16068.36
483.47	16260.87
483.68	16107.27
483.89	16877.31
484.09	16463.62
484.30	16543.49
484.51	16731.90
484.71	16957.18
484.92	16930.56
485.13	17227.51
485.33	17151.74
485.54	16830.21
485.75	17358.58
485.95	17346.30
486.16	17430.26
486.37	17512.18
486.57	17413.88
486.78	17628.92
486.98	17878.77
487.19	17680.11
487.40	18007.79
487.60	17975.02
487.81	18081.52
488.02	18190.06
488.22	17958.64
488.43	18480.87
488.64	18448.10
488.84	18730.72
489.05	18562.79
489.25	18673.38
489.46	18984.67
489.67	18839.26
489.87	19072.73
490.08	19154.65
490.29	19189.47
490.49	19500.76
490.70	19191.52
490.90	19773.14
491.11	19355.35
491.32	19717.84
491.52	19324.63
491.73	19836.63
491.94	20129.48
492.14	19756.75
492.35	19830.48
492.55	20184.78
492.76	20258.51
492.97	20244.17
493.17	20561.61
493.38	20747.97
493.58	20876.99
493.79	20833.99
494.00	20815.55
494.20	20676.29
494.41	20940.48
494.61	21176.00
494.82	20858.56
495.02	20979.39
495.23	21128.89
495.44	21200.57
495.64	21485.24
495.85	21663.41
496.05	21501.62
496.26	21534.39
496.47	22091.44
496.67	21728.95
496.88	22159.02
497.08	21776.05
497.29	22175.41
497.49	22038.19
497.70	22056.62
497.91	22541.99
498.11	22286.00
498.32	22537.90
498.52	22331.05
498.73	23150.24
498.93	22787.75
499.14	22908.58
499.34	22734.50
499.55	22814.37
499.76	22789.80
499.96	23201.44
500.17	22857.38
500.37	23201.44
500.58	23109.28
500.78	23281.31
500.99	23402.14
501.19	23590.55
501.40	23537.30
501.60	23551.64
501.81	23695.00
502.02	23994.00
502.22	23994.00
502.43	23967.38
502.63	24247.95
502.84	24194.70
503.04	24352.40
503.25	24241.81
503.45	23994.00
503.66	24592.01
503.86	24293.01
504.07	24733.32
504.27	24587.91
504.48	24669.83
504.68	24845.96
504.89	25124.48
505.09	24962.69
505.30	24776.33
505.50	24850.05
505.71	25038.47
505.91	25241.21
506.12	25730.68
506.32	25280.13
506.53	25376.38
506.73	25415.29
506.94	25538.17
507.14	25626.23
507.35	25603.71
507.55	25753.21
507.76	25722.49
507.96	25826.93
508.17	25865.85
508.37	26140.27
508.58	26130.03
508.78	25898.61
508.99	26140.27
509.19	26445.42
509.40	26383.98
509.60	26240.62
509.81	26576.49
510.01	26515.05
510.22	26486.38
510.42	26383.98
510.63	26775.14
510.83	26652.27
511.04	26783.34
511.24	26957.41
511.44	26981.99
511.65	26918.50
511.85	26969.70
512.06	27154.02
512.26	27403.87
512.47	27594.33
512.67	27336.29
512.88	27252.32
513.08	27235.94
513.29	27647.58
513.49	27168.35
513.69	27473.50
513.90	27446.88
514.10	27645.53
514.31	27772.50
514.51	27840.09
514.72	27653.72
514.92	28026.45
515.13	28012.12
515.33	27911.77
515.53	28114.52
515.74	28178.00
515.94	28075.60
516.15	27987.54
516.35	28112.47
516.56	28356.18
516.76	28452.43
516.96	28089.94
517.17	28622.41
517.37	28452.43
517.58	28626.51
517.78	28927.56
517.99	28862.02
518.19	29093.44
518.39	29091.40
518.60	29152.84
518.80	29185.60
519.01	29244.99
519.21	29185.60
519.41	29183.55
519.62	29326.91
519.82	29619.77
520.03	29484.61
520.23	29777.47
520.43	29304.38
520.64	29736.51
520.84	29943.35
521.05	29816.38
521.25	30133.81
521.45	30520.88
521.66	30248.50
521.86	29910.58
522.07	30484.01
522.27	30631.47
522.47	30445.10
522.68	30666.28
522.88	30613.04
523.08	31143.46
523.29	30475.82
523.49	30651.95
523.70	30463.54
523.90	31409.70
524.10	30877.22
524.31	31245.86
524.51	30680.62
524.71	31405.60
524.92	31579.68
525.12	31198.76
525.33	31190.56
525.53	32063.00
525.73	31692.32
525.94	31657.50
526.14	31710.75
526.34	31983.13
526.55	31882.78
526.75	31604.25
526.95	32314.90
527.16	32196.12
527.36	32042.52
527.56	32323.09
527.77	32540.18
527.97	32517.65
528.17	32427.54
528.38	32945.67
528.58	32669.20
528.78	32656.91
528.99	32810.51
529.19	32919.05
529.39	32855.56
529.60	33279.49
529.80	33078.79
530.00	33304.07
530.21	33408.51
530.41	33582.59
530.61	33811.96
530.82	34018.81
531.02	33797.63
531.22	33957.37
531.43	33828.35
531.63	34090.49
531.83	34244.09
532.04	34532.85
532.24	34221.56
532.44	34741.74
532.64	34915.82
532.85	34698.73
533.05	34817.52
533.25	34989.55
533.46	34641.39
533.66	35155.43
533.86	35177.96
534.07	35636.70
534.27	35335.65
534.47	35640.80
534.67	35368.42
534.88	35536.35
535.08	35360.23
535.28	35845.60
535.49	35679.71
535.69	36040.15
535.89	36167.13
536.09	36206.04
536.30	36478.42
536.50	36132.31
536.70	36638.16
536.91	36570.58
537.11	36634.06
537.31	36687.31
537.51	36984.27
537.72	36965.84
537.92	37268.94
538.12	37299.65
538.32	36904.40
538.53	37379.53
538.73	36971.98
538.93	37164.49
539.13	37428.68
539.34	37397.96
539.54	37236.17
539.74	37989.82
539.94	37408.20
540.15	37514.69
540.35	37940.67
540.55	38049.21
540.75	37971.39
540.96	38065.60
541.16	37924.29
541.36	38116.79
541.56	38254.01
541.77	38467.00
541.97	38432.18
542.17	38647.22
542.37	38456.76
542.58	38428.09
542.78	38393.27
542.98	38671.79
543.18	38499.76
543.38	39288.23
543.59	38843.82
543.79	38753.71
543.99	38921.65
544.19	38952.37
544.40	39185.83
544.60	39640.48
544.80	39314.86
545.00	39343.53
545.20	39601.57
545.41	38968.75
545.61	39642.53
545.81	39538.08
546.01	39900.58
546.21	39556.52
546.42	39663.01
546.62	40197.53
546.82	39820.70
547.02	40162.72
547.22	39933.34
547.43	39384.49
547.63	40179.10
547.83	40201.63
548.03	40228.25
548.23	40138.14
548.44	40670.61
548.64	40519.06
548.84	40641.94
549.04	40312.22
549.24	40359.32
549.45	40951.18
549.65	40461.72
549.85	40658.32
550.05	40773.01
550.25	40498.58
550.45	41547.14
550.66	40594.84
550.86	40584.60
551.06	41024.91
551.26	40883.60
551.46	41604.49
551.66	40988.05
551.87	41065.87
552.07	41229.71
552.27	41278.86
552.47	41598.34
552.67	41119.12
552.87	41448.84
553.07	41514.37
553.28	41584.01
553.48	41774.47
553.68	41444.74
553.88	41856.39
554.08	41579.91
554.28	41557.38
554.48	41629.06
554.69	41954.69
554.89	41710.98
555.09	41393.54
555.29	41612.68
555.49	41885.06
555.69	41997.70
555.89	42141.05
556.10	42030.46
556.30	41764.23
556.50	42360.19
556.70	41909.63
556.90	42401.14
557.10	42354.04
557.30	42007.94
557.50	42493.30
557.70	42411.38
557.91	42577.27
558.11	42687.86
558.31	42542.45
558.51	42407.29
558.71	42603.89
558.91	42706.29
559.11	42358.14
559.31	42763.64
559.51	42175.87
559.72	42788.21
559.92	42616.18
560.12	42573.17
560.32	43226.48
560.52	42270.08
560.72	42866.03
560.92	42866.03
561.12	42782.07
561.32	43160.94
561.52	42835.31
561.72	43582.82
561.93	42855.79
562.13	43222.38
562.33	43040.11
562.53	43451.75
562.73	42726.77
562.93	43185.52
563.13	43421.03
563.33	43199.85
563.53	43318.64
563.73	42927.47
563.93	43552.10
564.13	43713.89
564.33	43337.07
564.53	43304.30
564.74	43816.29
564.94	43378.03
565.14	43824.48
565.34	43392.36
565.54	43488.62
565.74	44186.97
565.94	44072.29
566.14	43885.92
566.34	43890.02
566.54	44115.29
566.74	43904.35
566.94	44016.99
567.14	44373.34
567.34	43517.29
567.54	44201.31
567.74	43840.87
567.94	44201.31
568.14	44068.19
568.34	44371.29
568.54	44313.95
568.74	44801.36
568.94	44219.74
569.14	44594.52
569.34	44168.54
569.54	44096.86
569.75	44248.41
569.95	44375.39
570.15	44703.06
570.35	44338.52
570.55	44260.70
570.75	44393.82
570.95	44744.02
571.15	44522.84
571.35	44619.10
571.55	45241.68
571.75	45153.62
571.95	45098.32
572.15	45004.11
572.35	44979.54
572.55	44860.76
572.75	44995.92
572.95	45268.30
573.15	45253.97
573.35	45034.83
573.55	45090.13
573.75	45233.49
573.95	45454.67
574.15	45245.77
574.35	45264.21
574.55	45122.90
574.75	45165.90
574.95	45741.38
575.15	45325.64
575.34	45634.89
575.54	45626.70
575.74	45571.40
575.94	45675.85
576.14	46114.11
576.34	46159.17
576.54	45985.09
576.74	45978.95
576.94	45888.84
577.14	45581.64
577.34	46560.57
577.54	45991.23
577.74	46159.17
577.94	46390.59
578.14	46646.58
578.34	46898.48
578.54	46093.63
578.74	46114.11
578.94	46626.10
579.14	46505.27
579.34	46394.68
579.54	46710.07
579.74	46998.83
579.94	46861.62
580.13	46497.08
580.33	47123.76
580.53	46886.20
580.73	47324.46
580.93	47220.02
581.13	46980.40
581.33	47375.66
581.53	47746.34
581.73	47453.48
581.93	47252.78
582.13	47725.86
582.33	47689.00
582.53	47484.20
582.73	47801.64
582.92	47920.42
583.12	47945.00
583.32	47650.09
583.52	47719.72
583.72	47951.14
583.92	47942.95
584.12	47977.76
584.32	48520.48
584.52	48192.80
584.72	48221.47
584.92	48323.87
585.11	48608.54
585.31	48184.61
585.51	48612.63
585.71	48203.04
585.91	48573.72
586.11	48291.10
586.31	48563.48
586.51	47961.38
586.71	48698.65
586.91	48788.76
587.10	48903.45
587.30	48610.59
587.50	48794.90
587.70	48817.43
587.90	48919.83
588.10	49141.01
588.30	49063.19
588.50	49245.46
