SpectraSuite Data File
++++++++++++++++++++++++++++++++++++
Date: Fri Jun 02 14:53:31 CEST 2017
User: INFO_000
Dark Spectrum Present: No
Reference Spectrum Present: No
Number of Sampled Component Spectra: 1
Spectrometers: USB4H00879
Integration Time (usec): 80000 (USB4H00879)
Spectra Averaged: 1 (USB4H00879)
Boxcar Smoothing: 0 (USB4H00879)
Correct for Electrical Dark: No (USB4H00879)
Strobe/Lamp Enabled: No (USB4H00879)
Correct for Detector Non-linearity: No (USB4H00879)
Correct for Stray Light: No (USB4H00879)
Number of Pixels in Processed Spectrum: 3648
>>>>>Begin Processed Spectral Data<<<<<
345.13	1302.51
345.34	1302.51
345.56	1302.51
345.78	1271.79
345.99	1269.74
346.21	1665.00
346.42	1712.10
346.64	1587.18
346.86	1699.81
347.07	1679.33
347.29	1658.85
347.50	1705.96
347.72	1613.80
347.94	1703.91
348.15	1556.46
348.37	1652.71
348.59	1683.43
348.80	1654.76
349.02	1845.22
349.23	1961.95
349.45	1738.73
349.67	1855.46
349.88	1847.27
350.10	1980.39
350.31	1808.36
350.53	1826.79
350.75	1955.81
350.96	1806.31
351.18	1865.70
351.39	1904.61
351.61	1763.30
351.82	1927.14
352.04	1964.00
352.26	1814.50
352.47	1871.84
352.69	1908.71
352.90	1718.25
353.12	1900.52
353.34	1875.94
353.55	2004.96
353.77	1869.80
353.98	1871.84
354.20	1877.99
354.41	1855.46
354.63	1933.28
354.85	2025.44
355.06	1896.42
355.28	1847.27
355.49	1931.23
355.71	1961.95
355.92	1904.61
356.14	1986.53
356.35	1806.31
356.57	1953.76
356.79	1863.65
357.00	1871.84
357.22	1988.58
357.43	1822.69
357.65	1947.62
357.86	1824.74
358.08	1959.91
358.29	1933.28
358.51	2004.96
358.72	1955.81
358.94	1910.75
359.16	1892.32
359.37	1951.71
359.59	1937.38
359.80	2035.68
360.02	1972.19
360.23	1961.95
360.45	2033.63
360.66	1941.47
360.88	1773.54
361.09	1890.28
361.31	2004.96
361.52	1976.29
361.74	1998.82
361.95	2103.26
362.17	1929.19
362.38	2037.73
362.60	2039.78
362.81	1947.62
363.03	1898.47
363.24	1986.53
363.46	2113.50
363.67	2093.02
363.89	2029.54
364.10	1920.99
364.32	1957.86
364.53	2088.93
364.75	1927.14
364.96	2047.97
365.18	2066.40
365.39	1988.58
365.61	2078.69
365.82	2174.94
366.04	1978.34
366.25	1961.95
366.47	2041.82
366.68	2119.65
366.90	1970.15
367.11	2127.84
367.33	2068.45
367.54	2099.17
367.76	2052.06
367.97	2156.51
368.19	2074.59
368.40	2109.41
368.62	1968.10
368.83	2019.30
369.05	2101.22
369.26	2035.68
369.48	1923.04
369.69	2000.87
369.91	2064.35
370.12	2088.93
370.33	2191.33
370.55	1986.53
370.76	2009.06
370.98	2176.99
371.19	2064.35
371.41	2045.92
371.62	2084.83
371.84	2023.39
372.05	2154.46
372.27	2090.98
372.48	2146.27
372.69	2113.50
372.91	2138.08
373.12	2197.47
373.34	2150.37
373.55	2191.33
373.77	2215.90
373.98	2099.17
374.20	2121.70
374.41	2246.62
374.62	2140.13
374.84	2127.84
375.05	2232.29
375.27	2220.00
375.48	2211.81
375.70	2191.33
375.91	2224.09
376.12	2258.91
376.34	2203.61
376.55	2215.90
376.77	2220.00
376.98	2148.32
377.19	2162.66
377.41	2146.27
377.62	2283.49
377.84	2242.53
378.05	2359.26
378.27	2199.52
378.48	2328.54
378.69	2414.56
378.91	2289.63
379.12	2273.25
379.34	2256.86
379.55	2342.88
379.76	2408.41
379.98	2238.43
380.19	2185.18
380.41	2246.62
380.62	2385.88
380.83	2322.40
381.05	2254.81
381.26	2412.51
381.47	2217.95
381.69	2340.83
381.90	2430.94
382.12	2312.16
382.33	2295.77
382.54	2332.64
382.76	2244.57
382.97	2252.77
383.19	2242.53
383.40	2392.03
383.61	2287.58
383.83	2256.86
384.04	2428.89
384.25	2387.93
384.47	2324.44
384.68	2351.07
384.89	2281.44
385.11	2385.88
385.32	2353.12
385.54	2357.21
385.75	2281.44
385.96	2490.33
386.18	2369.50
386.39	2428.89
386.60	2435.03
386.82	2432.99
387.03	2437.08
387.24	2473.95
387.46	2572.25
387.67	2539.48
387.88	2523.10
388.10	2498.52
388.31	2459.61
388.52	2547.67
388.74	2494.43
388.95	2475.99
389.16	2600.92
389.38	2521.05
389.59	2572.25
389.80	2625.50
390.02	2478.04
390.23	2633.69
390.44	2643.93
390.66	2609.11
390.87	2559.96
391.08	2607.06
391.30	2674.65
391.51	2637.78
391.72	2617.30
391.94	2635.74
392.15	2670.55
392.36	2688.98
392.58	2592.73
392.79	2664.41
393.00	2625.50
393.22	2688.98
393.43	2736.09
393.64	2797.53
393.85	2736.09
394.07	2662.36
394.28	2803.67
394.49	2770.90
394.71	2756.57
394.92	2822.10
395.13	2742.23
395.35	2793.43
395.56	2803.67
395.77	2854.87
395.98	2793.43
396.20	2869.20
396.41	2865.11
396.62	2932.69
396.84	2834.39
397.05	2818.00
397.26	2881.49
397.47	2996.18
397.69	2942.93
397.90	3030.99
398.11	2906.07
398.32	2928.60
398.54	2871.25
398.75	2916.31
398.96	3016.66
399.18	3137.49
399.39	3006.42
399.60	3047.38
399.81	3037.14
400.03	2983.89
400.24	3274.70
400.45	2928.60
400.66	3117.01
400.88	2973.65
401.09	3110.86
401.30	2992.08
401.51	3205.07
401.73	3020.75
401.94	3160.02
402.15	3254.22
402.36	3235.79
402.58	3127.25
402.79	3182.54
403.00	3074.00
403.21	3186.64
403.43	3211.22
403.64	3319.76
403.85	3110.86
404.06	3205.07
404.27	3145.68
404.49	3143.63
404.70	3078.10
404.91	3309.52
405.12	3387.34
405.34	3299.28
405.55	3444.68
405.76	3172.30
405.97	3270.61
406.19	3383.24
406.40	3299.28
406.61	3420.11
406.82	3334.09
407.03	3307.47
407.25	3364.81
407.46	3561.42
407.67	3530.70
407.88	3485.64
408.09	3358.67
408.31	3442.64
408.52	3422.16
408.73	3317.71
408.94	3508.17
409.15	3454.92
409.37	3481.55
409.58	3504.07
409.79	3450.83
410.00	3598.28
410.21	3452.88
410.43	3467.21
410.64	3442.64
410.85	3626.95
411.06	3647.43
411.27	3653.58
411.48	3745.73
411.70	3502.03
411.91	3649.48
412.12	3747.78
412.33	3583.95
412.54	3629.00
412.76	3719.11
412.97	3723.21
413.18	3563.47
413.39	3717.06
413.60	3739.59
413.81	3745.73
414.03	3751.88
414.24	3694.54
414.45	3841.99
414.66	3602.38
414.87	3841.99
415.08	3655.62
415.30	3827.65
415.51	3794.89
415.72	3925.96
415.93	3895.24
416.14	3850.18
416.35	3764.17
416.56	3903.43
416.78	3755.97
416.99	3893.19
417.20	3938.24
417.41	3991.49
417.62	3966.92
417.83	3979.20
418.04	3977.16
418.26	4007.87
418.47	3934.15
418.68	4014.02
418.89	3991.49
419.10	4310.97
419.31	3944.39
419.52	4181.95
419.73	4016.07
419.95	4181.95
420.16	4003.78
420.37	4100.03
420.58	4052.93
420.79	3999.68
421.00	4163.52
421.21	4247.49
421.42	4100.03
421.63	4278.21
421.85	4063.17
422.06	4257.73
422.27	4278.21
422.48	4261.82
422.69	4184.00
422.90	4261.82
423.11	4413.37
423.32	4237.25
423.53	4509.63
423.75	4347.84
423.96	4593.59
424.17	4399.04
424.38	4657.08
424.59	4540.35
424.80	4599.74
425.01	4556.73
425.22	4536.25
425.43	4501.44
425.64	4650.94
425.85	4775.86
426.06	4655.03
426.28	4603.83
426.49	4618.17
426.70	4726.71
426.91	4648.89
427.12	4720.57
427.33	4691.90
427.54	4620.22
427.75	4792.25
427.96	4853.69
428.17	4884.41
428.38	4769.72
428.59	4835.25
428.80	4911.03
429.01	4919.22
429.23	4736.95
429.44	5027.76
429.65	5058.48
429.86	5056.43
430.07	4810.68
430.28	4890.55
430.49	5091.25
430.70	5285.81
430.91	5152.69
431.12	4980.66
431.33	5142.45
431.54	5074.87
431.75	5259.18
431.96	5171.12
432.17	5197.74
432.38	5132.21
432.59	5517.23
432.80	5246.90
433.01	5314.48
433.22	5484.46
433.43	5386.16
433.64	5367.73
433.85	5220.27
434.06	5302.19
434.27	5267.38
434.49	5605.29
434.70	5627.82
434.91	5363.63
435.12	5353.39
435.33	5357.49
435.54	5644.20
435.75	5377.97
435.96	5474.22
436.17	5500.84
436.38	5597.10
436.59	5656.49
436.80	5640.11
437.01	5975.97
437.22	5777.32
437.43	5664.68
437.64	5535.66
437.85	5636.01
438.06	5732.26
438.27	5603.24
438.48	5638.06
438.69	5773.22
438.90	5668.78
439.11	5769.13
439.32	5914.53
439.53	5951.40
439.74	6004.64
439.95	5990.31
440.16	5906.34
440.37	5898.15
440.57	5857.19
440.78	5986.21
440.99	6100.90
441.20	5988.26
441.41	5961.64
441.62	5984.16
441.83	5969.83
442.04	6061.99
442.25	6070.18
442.46	6012.84
442.67	6346.66
442.88	6676.38
443.09	5965.73
443.30	6193.06
443.51	6356.90
443.72	6467.49
443.93	6072.23
444.14	6520.73
444.35	6236.06
444.56	6260.64
444.77	6215.59
444.98	6234.02
445.19	6287.26
445.40	6469.53
445.61	6229.92
445.81	6518.68
446.02	6487.96
446.23	6434.72
446.44	6414.24
446.65	6600.60
446.86	6596.51
447.07	6598.56
447.28	6659.99
447.49	6811.54
447.70	6694.81
447.91	6647.71
448.12	6684.57
448.33	6641.56
448.54	6756.25
448.74	6623.13
448.95	6797.21
449.16	6690.71
449.37	7083.92
449.58	6905.75
449.79	7092.12
450.00	6786.97
450.21	6985.62
450.42	7008.15
450.63	6887.32
450.84	6997.91
451.05	7026.58
451.25	7079.83
451.46	7030.68
451.67	7073.68
451.88	7348.11
452.09	7131.03
452.30	7171.99
452.51	7108.50
452.72	7217.04
452.93	7505.81
453.13	7133.08
453.34	7292.82
453.55	7370.64
453.76	7536.52
453.97	7618.44
454.18	7391.12
454.39	7483.28
454.60	7464.85
454.81	7579.53
455.01	7796.62
455.22	7339.92
455.43	7464.85
455.64	7827.34
455.85	7817.10
456.06	8089.48
456.27	7853.96
456.48	7776.14
456.68	7974.79
456.89	7982.98
457.10	8140.68
457.31	8036.23
457.52	7997.32
457.73	8085.38
457.94	8341.38
458.14	8097.67
458.35	8507.26
458.56	8220.55
458.77	8318.85
458.98	8376.19
459.19	8224.64
459.39	8558.46
459.60	8501.12
459.81	8429.44
460.02	8757.11
460.23	8628.09
460.44	8781.69
460.65	8724.35
460.85	8806.27
461.06	8767.35
461.27	8548.22
461.48	8984.44
461.69	8992.63
461.89	8814.46
462.10	9117.56
462.31	8773.50
462.52	9017.21
462.73	9226.10
462.94	9336.69
463.14	9277.30
463.35	9152.37
463.56	9490.29
463.77	9516.91
463.98	9170.80
464.18	9330.55
464.39	9613.17
464.60	9707.37
464.81	9633.64
465.02	9553.77
465.23	9973.61
465.43	9666.41
465.64	10131.30
465.85	9985.90
466.06	9889.64
466.27	10166.12
466.47	10145.64
466.68	10170.21
466.89	10295.14
467.10	10237.80
467.30	9998.18
467.51	10301.28
467.72	10567.52
467.93	10178.40
468.14	10448.74
468.34	10602.33
468.55	10768.22
468.76	10651.49
468.97	10581.85
469.17	10852.19
469.38	10917.72
469.59	11102.04
469.80	10821.47
470.01	10952.54
470.21	11071.32
470.42	11337.56
470.63	11394.90
470.84	11323.22
471.04	11358.03
471.25	11503.44
471.46	11597.65
471.67	11831.12
471.87	11597.65
472.08	11605.84
472.29	11755.34
472.50	11741.00
472.70	11923.27
472.91	12056.39
473.12	12253.00
473.33	12121.93
473.53	12377.92
473.74	12293.96
473.95	12455.75
474.16	12719.93
474.36	12406.59
474.57	12754.75
474.78	12953.40
474.99	12871.48
475.19	12803.90
475.40	12945.21
475.61	13104.95
475.81	13279.03
476.02	13381.43
476.23	13190.97
476.44	13543.22
476.64	13709.10
476.85	13866.80
477.06	13784.88
477.27	13776.69
477.47	14362.40
477.68	13780.78
477.89	14364.45
478.09	14210.86
478.30	14219.05
478.51	14374.69
478.71	14731.04
478.92	14753.57
479.13	14565.15
479.34	14776.09
479.54	14937.88
479.75	14864.16
479.96	14757.66
480.16	14833.44
480.37	15167.26
480.58	15300.37
480.78	15458.07
480.99	15402.77
481.20	15703.82
481.41	15877.90
481.61	15683.34
481.82	15757.07
482.03	15884.05
482.23	15984.40
482.44	16316.17
482.65	16494.34
482.85	16332.55
483.06	16439.05
483.27	16420.61
483.47	16480.00
483.68	16555.78
483.89	16578.31
484.09	16660.23
484.30	17069.82
484.51	17063.68
484.71	17319.67
484.92	17247.99
485.13	17493.75
485.33	17649.39
485.54	17481.46
485.75	17809.14
485.95	17587.96
486.16	17782.51
486.37	18116.33
486.57	17706.74
486.78	17915.63
486.98	17901.29
487.19	18177.77
487.40	18368.23
487.60	18296.55
487.81	18296.55
488.02	18257.64
488.22	18521.83
488.43	18747.11
488.64	18876.13
488.84	18818.78
489.05	18910.94
489.25	18892.51
489.46	19242.71
489.67	19054.30
489.87	19414.74
490.08	19422.94
490.29	19289.82
490.49	19539.67
490.70	19828.43
490.90	20180.68
491.11	19785.43
491.32	20012.75
491.52	20033.23
491.73	20235.98
491.94	20373.19
492.14	20350.67
492.35	20309.71
492.55	20596.42
492.76	20586.18
492.97	20481.74
493.17	20489.93
493.38	20981.44
493.58	20891.33
493.79	20866.75
494.00	21229.24
494.20	21026.50
494.41	21182.14
494.61	21274.30
494.82	21235.39
495.02	21419.71
495.23	21380.79
495.44	21579.45
495.64	21718.71
495.85	21851.83
496.05	21868.21
496.26	21900.98
496.47	22066.86
496.67	21886.64
496.88	22355.63
497.08	21804.72
497.29	22517.42
497.49	22466.22
497.70	22402.73
497.91	22636.20
498.11	22726.31
498.32	22779.56
498.52	22908.58
498.73	22984.35
498.93	22804.13
499.14	22793.89
499.34	23199.39
499.55	23422.62
499.76	22933.15
499.96	23455.39
500.17	23277.21
500.37	23049.89
500.58	23332.51
500.78	23379.61
500.99	23611.03
501.19	23842.45
501.40	23570.07
501.60	23832.21
501.81	23738.01
502.02	24168.08
502.22	23606.94
502.43	24415.88
502.63	24135.31
502.84	24274.57
503.04	24221.33
503.25	24385.16
503.45	24411.79
503.66	24422.03
503.86	24358.54
504.07	24954.50
504.27	24426.12
504.48	24845.96
504.68	24731.27
504.89	25194.11
505.09	25052.80
505.30	24942.21
505.50	24798.85
505.71	24981.12
505.91	25138.82
506.12	25278.08
506.32	25089.67
506.53	25126.53
506.73	25372.28
506.94	25409.15
507.14	25597.56
507.35	25380.48
507.55	25650.81
507.76	25544.31
507.96	25702.01
508.17	25603.71
508.37	25990.77
508.58	25816.69
508.78	26027.63
508.99	26019.44
509.19	26158.70
509.40	26248.82
509.60	25941.62
509.81	26435.18
510.01	25988.72
510.22	26218.10
510.42	26347.12
510.63	26340.97
510.83	26371.69
511.04	26236.53
511.24	26699.37
511.44	26635.88
511.65	26513.00
511.85	26691.18
512.06	26420.84
512.26	26973.80
512.47	26984.04
512.67	27131.49
512.88	27131.49
513.08	26689.13
513.29	27256.42
513.49	27276.90
513.69	27000.42
513.90	27197.02
514.10	27303.52
514.31	27278.94
514.51	27231.84
514.72	27108.96
514.92	27317.86
515.13	27600.47
515.33	27604.57
515.53	27573.85
515.74	27625.05
515.94	27885.14
516.15	27842.14
516.35	27872.85
516.56	28407.37
516.76	27799.13
516.96	27825.75
517.17	28186.19
517.37	27989.59
517.58	28196.43
517.78	28347.98
517.99	28204.63
518.19	28331.60
518.39	28477.01
518.60	28460.62
518.80	28608.08
519.01	28935.75
519.21	28880.46
519.41	28591.69
519.62	29103.68
519.82	29103.68
520.03	29152.84
520.23	29128.26
520.43	29099.59
520.64	29277.76
520.84	29570.62
521.05	29267.52
521.25	29673.02
521.45	29845.05
521.66	29601.34
521.86	29675.07
522.07	29652.54
522.27	29908.54
522.47	29824.57
522.68	30232.11
522.88	29732.41
523.08	30258.74
523.29	30105.14
523.49	30209.59
523.70	30434.86
523.90	30561.84
524.10	30492.21
524.31	30357.04
524.51	30524.97
524.71	30926.38
524.92	30772.78
525.12	30973.48
525.33	31120.93
525.53	30928.42
525.73	31276.58
525.94	31335.97
526.14	31454.75
526.34	31450.66
526.55	31473.18
526.75	31669.79
526.95	31845.91
527.16	31682.08
527.36	31663.64
527.56	32126.49
527.77	32130.58
527.97	32298.52
528.17	31755.80
528.38	32226.84
528.58	32302.61
528.78	32505.36
528.99	32427.54
529.19	32757.26
529.39	32691.73
529.60	32765.45
529.80	33160.71
530.00	32667.15
530.21	33043.98
530.41	33347.08
530.61	32917.00
530.82	33588.74
531.02	33515.01
531.22	33517.06
531.43	33527.30
531.63	33912.31
531.83	34045.43
532.04	34289.14
532.24	34205.17
532.44	34541.04
532.64	34346.48
532.85	34481.65
533.05	34432.50
533.25	34606.58
533.46	34455.03
533.66	35112.42
533.86	34792.94
534.07	35263.97
534.27	35325.41
534.47	35270.12
534.67	35530.21
534.88	35081.70
535.08	35605.98
535.28	35677.66
535.49	35806.69
535.69	35825.12
535.89	35401.19
536.09	36099.55
536.30	35937.76
536.50	36550.10
536.70	36261.33
536.91	36484.56
537.11	36261.33
537.31	36459.99
537.51	36672.98
537.72	36865.49
537.92	37211.59
538.12	37031.37
538.32	36705.74
538.53	37092.81
538.73	36996.56
538.93	37256.65
539.13	37443.01
539.34	37549.51
539.54	37502.40
539.74	37711.30
539.94	37699.01
540.15	37647.81
540.35	38053.31
540.55	37934.53
540.75	37703.10
540.96	38231.48
541.16	38288.82
541.36	38352.31
541.56	38450.61
541.77	38921.65
541.97	38391.22
542.17	38942.13
542.37	38720.95
542.58	38999.47
542.78	38766.00
542.98	38806.96
543.18	39097.77
543.38	39378.34
543.59	39210.41
543.79	39271.85
543.99	39228.84
544.19	39271.85
544.40	39351.72
544.60	39685.54
544.80	39364.01
545.00	39771.55
545.20	40070.56
545.41	39794.08
545.61	39835.04
545.81	40041.88
546.01	40248.73
546.21	40101.28
546.42	40050.08
546.62	40324.50
546.82	39951.77
547.02	40220.06
547.22	40605.08
547.43	40304.02
547.63	40701.33
547.83	40799.63
548.03	40326.55
548.23	40828.30
548.44	40574.36
548.64	40899.98
548.84	40773.01
549.04	40844.69
549.24	40838.54
549.45	41360.78
549.65	41078.16
549.85	41594.25
550.05	41485.70
550.25	41293.19
550.45	41674.12
550.66	41633.16
550.86	41559.43
551.06	41883.01
551.26	41706.88
551.46	41897.34
551.66	42030.46
551.87	41577.86
552.07	42126.72
552.27	41618.82
552.47	41956.74
552.67	42759.54
552.87	42302.84
553.07	42130.81
553.28	42524.02
553.48	42487.16
553.68	42552.69
553.88	42804.59
554.08	42724.72
554.28	42294.65
554.48	42220.92
554.69	42536.31
554.89	42284.41
555.09	42171.77
555.29	42157.44
555.49	42958.19
555.69	42726.77
555.89	42675.57
556.10	43146.61
556.30	42800.50
556.50	42925.42
556.70	43025.78
556.90	43103.60
557.10	43246.96
557.30	42859.89
557.50	43283.82
557.70	43066.73
557.91	43353.45
558.11	43355.50
558.31	43591.01
558.51	43259.24
558.71	43341.16
558.91	43492.71
559.11	43130.22
559.31	43283.82
559.51	43433.32
559.72	43795.81
559.92	43388.27
560.12	43734.37
560.32	44051.81
560.52	43160.94
560.72	43920.74
560.92	43978.08
561.12	43955.55
561.32	44172.64
561.52	44178.78
561.72	44129.63
561.93	43797.86
562.13	44211.55
562.33	43677.03
562.53	44879.19
562.73	43998.56
562.93	44221.79
563.13	44094.82
563.33	44082.53
563.53	44328.28
563.73	44082.53
563.93	44291.42
564.13	44117.34
564.33	44234.08
564.53	44078.43
564.74	44668.25
564.94	43754.85
565.14	44512.60
565.34	44578.14
565.54	45079.89
565.74	44610.90
565.94	45102.42
566.14	45057.36
566.34	44299.61
566.54	45040.98
566.74	44561.75
566.94	44404.06
567.14	44924.24
567.34	44684.63
567.54	45270.35
567.74	44940.63
567.94	44817.75
568.14	45073.74
568.34	45120.85
568.54	45081.94
568.74	45170.00
568.94	45186.38
569.14	45538.63
569.34	45522.25
569.54	45428.04
569.75	45225.29
569.95	44963.15
570.15	45978.95
570.35	45716.81
570.55	45114.70
570.75	45538.63
570.95	45376.84
571.15	45733.19
571.35	45473.10
571.55	45698.37
571.75	45104.46
571.95	45575.50
572.15	45659.46
572.35	45794.63
572.55	45708.61
572.75	45690.18
572.95	45745.48
573.15	46036.29
573.35	46085.44
573.55	45774.15
573.75	45962.56
573.95	46019.91
574.15	45589.83
574.35	46191.94
574.55	46036.29
574.75	46329.15
574.95	46325.05
575.15	45708.61
575.34	46572.86
575.54	46173.50
575.74	46402.88
575.94	46609.72
576.14	46464.32
576.34	46693.69
576.54	46994.74
576.74	46630.20
576.94	46083.39
577.14	46861.62
577.34	47090.99
577.54	46634.30
577.74	46789.94
577.94	46611.77
578.14	47068.47
578.34	47002.93
578.54	46810.42
578.74	46945.59
578.94	47050.03
579.14	46488.89
579.34	46871.86
579.54	46933.30
579.74	47111.47
579.94	46867.76
580.13	47267.12
580.33	47076.66
580.53	47260.97
580.73	47256.88
580.93	47369.52
581.13	47650.09
581.33	47715.62
581.53	47785.25
581.73	47748.39
581.93	47879.46
582.13	47801.64
582.33	48026.92
582.53	47791.40
582.73	47361.33
582.92	47899.94
583.12	48397.60
583.32	48233.76
583.52	47527.21
583.72	48049.44
583.92	47983.91
584.12	48289.06
584.32	48522.52
584.52	48129.31
584.72	48350.49
584.92	48545.05
585.11	48473.37
585.31	48248.10
585.51	48747.80
585.71	48432.41
585.91	48938.26
586.11	48428.32
586.31	48665.88
586.51	48260.38
586.71	49098.00
586.91	49157.39
587.10	48850.20
587.30	48915.73
587.50	48694.55
587.70	48928.02
587.90	49186.07
588.10	48878.87
588.30	49130.77
588.50	49442.06
