SpectraSuite Data File
++++++++++++++++++++++++++++++++++++
Date: Fri Jun 02 14:53:30 CEST 2017
User: INFO_000
Dark Spectrum Present: No
Reference Spectrum Present: No
Number of Sampled Component Spectra: 1
Spectrometers: USB4H00879
Integration Time (usec): 80000 (USB4H00879)
Spectra Averaged: 1 (USB4H00879)
Boxcar Smoothing: 0 (USB4H00879)
Correct for Electrical Dark: No (USB4H00879)
Strobe/Lamp Enabled: No (USB4H00879)
Correct for Detector Non-linearity: No (USB4H00879)
Correct for Stray Light: No (USB4H00879)
Number of Pixels in Processed Spectrum: 3648
>>>>>Begin Processed Spectral Data<<<<<
345.13	1302.51
345.34	1302.51
345.56	1302.51
345.78	1277.93
345.99	1327.08
346.21	1689.57
346.42	1681.38
346.64	1695.72
346.86	1791.97
347.07	1734.63
347.29	1691.62
347.50	1630.18
347.72	1685.48
347.94	1726.44
348.15	1605.61
348.37	1628.14
348.59	1714.15
348.80	1742.82
349.02	1773.54
349.23	1896.42
349.45	1818.60
349.67	1906.66
349.88	1824.74
350.10	1894.37
350.31	1834.98
350.53	1789.92
350.75	1947.62
350.96	1761.25
351.18	1955.81
351.39	1808.36
351.61	1804.26
351.82	1904.61
352.04	1990.63
352.26	1828.84
352.47	1896.42
352.69	1890.28
352.90	1742.82
353.12	1810.40
353.34	1910.75
353.55	1923.04
353.77	1873.89
353.98	1935.33
354.20	1865.70
354.41	1978.34
354.63	1902.56
354.85	2045.92
355.06	2000.87
355.28	1814.50
355.49	1916.90
355.71	1902.56
355.92	1896.42
356.14	1953.76
356.35	1875.94
356.57	1880.04
356.79	1927.14
357.00	1794.02
357.22	1982.43
357.43	1802.21
357.65	1847.27
357.86	1939.43
358.08	1900.52
358.29	1939.43
358.51	2007.01
358.72	1957.86
358.94	1886.18
359.16	1871.84
359.37	2002.91
359.59	1896.42
359.80	1976.29
360.02	1994.72
360.23	1955.81
360.45	1986.53
360.66	1990.63
360.88	1847.27
361.09	1931.23
361.31	1972.19
361.52	1976.29
361.74	2097.12
361.95	2056.16
362.17	1972.19
362.38	2082.78
362.60	2015.20
362.81	1892.32
363.03	1953.76
363.24	1927.14
363.46	2035.68
363.67	2056.16
363.89	1929.19
364.10	2060.26
364.32	1882.08
364.53	2052.06
364.75	1949.67
364.96	1992.67
365.18	2039.78
365.39	2031.58
365.61	1966.05
365.82	2080.74
366.04	1986.53
366.25	1988.58
366.47	2097.12
366.68	2058.21
366.90	1972.19
367.11	2078.69
367.33	2117.60
367.54	2207.71
367.76	2021.35
367.97	2080.74
368.19	2117.60
368.40	2058.21
368.62	1994.72
368.83	2021.35
369.05	2066.40
369.26	1968.10
369.48	1994.72
369.69	2068.45
369.91	2011.11
370.12	2033.63
370.33	2166.75
370.55	2013.15
370.76	2080.74
370.98	2105.31
371.19	2068.45
371.41	2000.87
371.62	2062.30
371.84	2039.78
372.05	2179.04
372.27	2068.45
372.48	2054.11
372.69	2066.40
372.91	2267.10
373.12	2125.79
373.34	2107.36
373.55	2041.82
373.77	2203.61
373.98	2045.92
374.20	2176.99
374.41	2228.19
374.62	2164.70
374.84	2242.53
375.05	2176.99
375.27	2140.13
375.48	2144.22
375.70	2187.23
375.91	2197.47
376.12	2289.63
376.34	2222.05
376.55	2125.79
376.77	2224.09
376.98	2152.42
377.19	2176.99
377.41	2125.79
377.62	2248.67
377.84	2342.88
378.05	2344.92
378.27	2193.37
378.48	2334.68
378.69	2357.21
378.91	2295.77
379.12	2308.06
379.34	2195.42
379.55	2324.44
379.76	2312.16
379.98	2236.38
380.19	2197.47
380.41	2287.58
380.62	2301.92
380.83	2381.79
381.05	2242.53
381.26	2369.50
381.47	2293.72
381.69	2324.44
381.90	2510.81
382.12	2336.73
382.33	2359.26
382.54	2287.58
382.76	2342.88
382.97	2316.25
383.19	2271.20
383.40	2349.02
383.61	2330.59
383.83	2240.48
384.04	2371.55
384.25	2363.36
384.47	2502.62
384.68	2355.16
384.89	2330.59
385.11	2389.98
385.32	2367.45
385.54	2220.00
385.75	2435.03
385.96	2475.99
386.18	2375.64
386.39	2465.75
386.60	2334.68
386.82	2490.33
387.03	2533.34
387.24	2498.52
387.46	2424.80
387.67	2523.10
387.88	2574.30
388.10	2482.14
388.31	2508.76
388.52	2506.71
388.74	2596.82
388.95	2580.44
389.16	2576.34
389.38	2525.15
389.59	2572.25
389.80	2691.03
390.02	2555.86
390.23	2738.13
390.44	2578.39
390.66	2531.29
390.87	2533.34
391.08	2596.82
391.30	2641.88
391.51	2668.50
391.72	2758.61
391.94	2719.70
392.15	2658.26
392.36	2641.88
392.58	2547.67
392.79	2680.79
393.00	2756.57
393.22	2783.19
393.43	2736.09
393.64	2854.87
393.85	2764.76
394.07	2725.85
394.28	2672.60
394.49	2785.24
394.71	2799.57
394.92	2727.89
395.13	2705.37
395.35	2803.67
395.56	2764.76
395.77	2873.30
395.98	2858.96
396.20	2879.44
396.41	2791.38
396.62	2899.92
396.84	2867.16
397.05	2770.90
397.26	2938.84
397.47	2985.94
397.69	2813.91
397.90	3014.61
398.11	3047.38
398.32	2887.64
398.54	2828.24
398.75	2871.25
398.96	2920.40
399.18	3059.67
399.39	3033.04
399.60	3043.28
399.81	3022.80
400.03	2871.25
400.24	3409.87
400.45	3012.56
400.66	3178.45
400.88	3071.95
401.09	3254.22
401.30	2979.79
401.51	3141.58
401.73	3123.15
401.94	3182.54
402.15	3065.81
402.36	3059.67
402.58	3160.02
402.79	3151.82
403.00	3182.54
403.21	3157.97
403.43	3270.61
403.64	3311.57
403.85	3117.01
404.06	3270.61
404.27	3129.30
404.49	3200.98
404.70	3129.30
404.91	3233.74
405.12	3330.00
405.34	3248.08
405.55	3405.77
405.76	3137.49
405.97	3272.65
406.19	3356.62
406.40	3213.26
406.61	3319.76
406.82	3391.44
407.03	3354.57
407.25	3270.61
407.46	3352.52
407.67	3461.07
407.88	3575.75
408.09	3309.52
408.31	3315.66
408.52	3467.21
408.73	3336.14
408.94	3307.47
409.15	3461.07
409.37	3485.64
409.58	3448.78
409.79	3479.50
410.00	3551.18
410.21	3366.86
410.43	3571.66
410.64	3420.11
410.85	3487.69
411.06	3485.64
411.27	3571.66
411.48	3612.62
411.70	3426.25
411.91	3631.05
412.12	3616.71
412.33	3629.00
412.54	3637.19
412.76	3573.71
412.97	3665.86
413.18	3588.04
413.39	3737.54
413.60	3739.59
413.81	3680.20
414.03	3743.69
414.24	3645.38
414.45	3811.27
414.66	3567.56
414.87	3766.21
415.08	3743.69
415.30	3624.90
415.51	3682.25
415.72	3790.79
415.93	3758.02
416.14	3854.28
416.35	3907.52
416.56	3882.95
416.78	3899.33
416.99	3841.99
417.20	3852.23
417.41	4018.11
417.62	3915.72
417.83	4061.12
418.04	3780.55
418.26	3942.34
418.47	3880.90
418.68	4034.50
418.89	3997.64
419.10	4097.99
419.31	4009.92
419.52	3999.68
419.73	4085.70
419.95	4206.53
420.16	3968.96
420.37	4048.83
420.58	4093.89
420.79	4032.45
421.00	4009.92
421.21	4169.66
421.42	4075.46
421.63	4100.03
421.85	4216.77
422.06	4335.55
422.27	4263.87
422.48	4118.47
422.69	4239.30
422.90	4403.13
423.11	4315.07
423.32	4372.41
423.53	4423.61
423.75	4358.08
423.96	4636.60
424.17	4521.92
424.38	4589.50
424.59	4497.34
424.80	4624.31
425.01	4540.35
425.22	4550.59
425.43	4489.15
425.64	4714.42
425.85	4782.01
426.06	4706.23
426.28	4624.31
426.49	4478.91
426.70	4698.04
426.91	4612.03
427.12	4749.24
427.33	4755.38
427.54	4673.46
427.75	4773.82
427.96	4919.22
428.17	4765.62
428.38	4964.28
428.59	4890.55
428.80	4790.20
429.01	4999.09
429.23	4876.21
429.44	5140.40
429.65	5160.88
429.86	5111.73
430.07	4947.89
430.28	4878.26
430.49	5160.88
430.70	5078.96
430.91	5212.08
431.12	5066.67
431.33	5193.65
431.54	5302.19
431.75	5238.70
431.96	5197.74
432.17	5183.41
432.38	5294.00
432.59	5457.84
432.80	5347.25
433.01	5425.07
433.22	5402.54
433.43	5304.24
433.64	5541.80
433.85	5316.53
434.06	5459.88
434.27	5326.77
434.49	5547.95
434.70	5545.90
434.91	5629.87
435.12	5590.95
435.33	5611.43
435.54	5627.82
435.75	5515.18
435.96	5476.27
436.17	5527.47
436.38	5719.98
436.59	5838.76
436.80	5701.54
437.01	5967.78
437.22	5879.72
437.43	5771.18
437.64	5719.98
437.85	5853.09
438.06	5881.77
438.27	5793.70
438.48	5844.90
438.69	5920.68
438.90	5851.05
439.11	5973.92
439.32	6008.74
439.53	5988.26
439.74	6004.64
439.95	5883.81
440.16	5822.38
440.37	5967.78
440.57	5775.27
440.78	6045.60
440.99	6061.99
441.20	6145.95
441.41	6096.80
441.62	6078.37
441.83	6068.13
442.04	6154.15
442.25	6107.04
442.46	6135.71
442.67	6408.09
442.88	6723.48
443.09	6025.12
443.30	6135.71
443.51	6223.78
443.72	6487.96
443.93	6121.38
444.14	6567.84
444.35	6326.18
444.56	6313.89
444.77	6326.18
444.98	6365.09
445.19	6516.64
445.40	6520.73
445.61	6363.04
445.81	6520.73
446.02	6494.11
446.23	6504.35
446.44	6262.69
446.65	6522.78
446.86	6598.56
447.07	6649.75
447.28	6754.20
447.49	6746.01
447.70	6694.81
447.91	6850.46
448.12	6727.58
448.33	6682.52
448.54	6875.03
448.74	6981.53
448.95	6756.25
449.16	6612.89
449.37	7038.87
449.58	6725.53
449.79	6969.24
450.00	6739.87
450.21	6754.20
450.42	7045.01
450.63	6954.90
450.84	6909.85
451.05	6918.04
451.25	7016.34
451.46	6883.22
451.67	7266.19
451.88	7192.47
452.09	7214.99
452.30	7100.31
452.51	7188.37
452.72	7243.67
452.93	7606.16
453.13	7010.20
453.34	7165.84
453.55	7468.94
453.76	7233.43
453.97	7557.00
454.18	7387.02
454.39	7501.71
454.60	7335.82
454.81	7358.35
455.01	7647.12
455.22	7313.30
455.43	7407.50
455.64	7841.67
455.85	7698.31
456.06	7995.27
456.27	7765.90
456.48	7724.94
456.68	7835.53
456.89	7724.94
457.10	7829.38
457.31	7917.45
457.52	7880.58
457.73	7978.89
457.94	8206.21
458.14	7886.73
458.35	8392.58
458.56	7942.02
458.77	8140.68
458.98	8390.53
459.19	8179.59
459.39	8281.99
459.60	8380.29
459.81	8208.26
460.02	8507.26
460.23	8519.55
460.44	8607.61
460.65	8472.45
460.85	8755.07
461.06	8730.49
461.27	8396.67
461.48	8957.82
461.69	8982.39
461.89	8589.18
462.10	8687.48
462.31	8765.31
462.52	8818.55
462.73	8916.86
462.94	9103.22
463.14	8996.73
463.35	8957.82
463.56	9424.75
463.77	9367.41
463.98	8941.43
464.18	9160.56
464.39	9447.28
464.60	9598.83
464.81	9615.21
465.02	9506.67
465.23	9701.23
465.43	9527.15
465.64	9770.86
465.85	9715.56
466.06	9693.04
466.27	10047.33
466.47	10002.28
466.68	9928.55
466.89	9910.12
467.10	10174.31
467.30	10080.10
467.51	10166.12
467.72	10350.43
467.93	10073.96
468.14	10278.76
468.34	10684.25
468.55	10624.86
468.76	10692.44
468.97	10626.91
469.17	10633.05
469.38	10923.87
469.59	10903.39
469.80	10686.30
470.01	10864.47
470.21	10964.82
470.42	11044.70
470.63	11216.72
470.84	10827.61
471.04	11202.39
471.25	11075.42
471.46	11419.47
471.67	11738.96
471.87	11564.88
472.08	11839.31
472.29	11929.42
472.50	11542.35
472.70	11609.93
472.91	11630.41
473.12	12152.65
473.33	11978.57
473.53	12316.48
473.74	12072.78
473.95	12216.13
474.16	12388.16
474.36	12498.75
474.57	12851.00
474.78	12904.25
474.99	12937.02
475.19	12894.01
475.40	12967.74
475.61	13012.79
475.81	13080.38
476.02	13332.28
476.23	13465.39
476.44	13561.65
476.64	13684.53
476.85	13766.45
477.06	13754.16
477.27	13829.93
477.47	14059.31
477.68	13928.24
477.89	14288.68
478.09	14399.27
478.30	14229.29
478.51	14597.92
478.71	14485.28
478.92	14526.24
479.13	14630.69
479.34	14548.77
479.54	14821.15
479.75	14964.51
479.96	14913.31
480.16	15191.83
480.37	15202.07
480.58	15154.97
480.78	15503.12
480.99	15648.53
481.20	15849.23
481.41	15857.42
481.61	15968.01
481.82	15961.87
482.03	15836.94
482.23	15912.72
482.44	16295.69
482.65	16539.40
482.85	16344.84
483.06	16369.41
483.27	16295.69
483.47	16561.92
483.68	16701.19
483.89	17035.00
484.09	16799.49
484.30	17192.70
484.51	17354.49
484.71	17336.06
484.92	17446.65
485.13	17499.89
485.33	17716.98
485.54	17667.83
485.75	17884.91
485.95	17800.94
486.16	18108.14
486.37	18280.17
486.57	18028.27
486.78	18122.48
486.98	18417.38
487.19	18411.24
487.40	18722.53
487.60	18689.76
487.81	18874.08
488.02	18753.25
488.22	19085.02
488.43	19093.21
488.64	18904.80
488.84	19177.18
489.05	19181.28
489.25	19275.48
489.46	19558.10
489.67	19556.05
489.87	19926.74
490.08	19613.40
490.29	20037.33
490.49	20299.47
490.70	20143.82
490.90	20319.95
491.11	20129.48
491.32	20340.43
491.52	20405.96
491.73	20575.94
491.94	20278.99
492.14	20565.70
492.35	20983.49
492.55	20811.46
492.76	20946.62
492.97	20948.67
493.17	21092.03
493.38	21546.68
493.58	21456.57
493.79	21354.17
494.00	21591.73
494.20	21542.58
494.41	21948.08
494.61	21624.50
494.82	21743.28
495.02	21763.76
495.23	21745.33
495.44	21933.75
495.64	22202.03
495.85	21790.39
496.05	22527.66
496.26	22130.35
496.47	22265.52
496.67	22488.74
496.88	22492.84
497.08	22249.13
497.29	22804.13
497.49	22662.82
497.70	22566.57
497.91	22828.71
498.11	23131.81
498.32	22945.44
498.52	23185.05
498.73	23443.10
498.93	23283.36
499.14	23506.59
499.34	23629.46
499.55	23342.75
499.76	23234.21
499.96	23525.02
500.17	23928.47
500.37	23969.43
500.58	23705.24
500.78	23961.23
500.99	23996.05
501.19	24383.12
501.40	24159.89
501.60	24147.60
501.81	23922.32
502.02	24333.96
502.22	23924.37
502.43	24278.67
502.63	24534.67
502.84	24583.82
503.04	24110.74
503.25	24446.60
503.45	24934.02
503.66	24757.89
503.86	24690.31
504.07	24813.19
504.27	24805.00
504.48	25101.95
504.68	24774.28
504.89	25521.79
505.09	24903.30
505.30	24981.12
505.50	25134.72
505.71	25316.99
505.91	25239.17
506.12	25529.98
506.32	25421.44
506.53	25450.11
506.73	25415.29
506.94	25755.26
507.14	25548.41
507.35	25595.51
507.55	25714.30
507.76	25908.85
507.96	25679.48
508.17	26039.92
508.37	25765.49
508.58	25785.97
508.78	26031.73
508.99	25960.05
509.19	26056.31
509.40	26513.00
509.60	26326.64
509.81	26236.53
510.01	26398.32
510.22	26439.28
510.42	26369.65
510.63	26596.97
510.83	26410.60
511.04	26574.44
511.24	26453.61
511.44	26564.20
511.65	26578.54
511.85	26777.19
512.06	26744.42
512.26	26748.52
512.47	26869.35
512.67	26906.21
512.88	27111.01
513.08	26682.98
513.29	27084.39
513.49	27061.86
513.69	27115.11
513.90	27172.45
514.10	27504.22
514.31	27166.31
514.51	27250.27
514.72	27399.77
514.92	27246.18
515.13	26883.69
515.33	27369.05
515.53	27362.91
515.74	27721.30
515.94	27547.23
516.15	27688.54
516.35	27571.80
516.56	27973.21
516.76	27686.49
516.96	27897.43
517.17	27866.71
517.37	27829.85
517.58	27706.97
517.78	27946.58
517.99	27788.89
518.19	28200.53
518.39	28032.60
518.60	28405.33
518.80	28124.75
519.01	28388.94
519.21	28380.75
519.41	28608.08
519.62	28304.98
519.82	28577.36
520.03	28943.94
520.23	28681.80
520.43	28782.15
520.64	29267.52
520.84	29165.12
521.05	28694.09
521.25	28952.13
521.45	29249.09
521.66	29281.86
521.86	29322.82
522.07	29345.34
522.27	29341.25
522.47	29535.81
522.68	29427.26
522.88	29337.15
523.08	30062.13
523.29	29603.39
523.49	29466.17
523.70	29865.53
523.90	29802.04
524.10	30135.86
524.31	30105.14
524.51	29863.48
524.71	30379.57
524.92	30111.28
525.12	30240.31
525.33	30221.87
525.53	30230.07
525.73	30819.88
525.94	30592.56
526.14	30823.98
526.34	30918.18
526.55	31182.37
526.75	31120.93
526.95	31254.05
527.16	30819.88
527.36	31366.69
527.56	31399.46
527.77	31587.87
527.97	31286.82
528.17	31618.59
528.38	31895.07
528.58	31608.35
528.78	31893.02
528.99	31858.20
529.19	32048.66
529.39	31718.94
529.60	32415.25
529.80	32132.63
530.00	32224.79
530.21	32638.48
530.41	32798.22
530.61	32480.78
530.82	32804.36
531.02	33084.94
531.22	32962.06
531.43	32988.68
531.63	33297.92
531.83	33353.22
532.04	33580.54
532.24	33127.94
532.44	33312.26
532.64	33750.52
532.85	33824.25
533.05	33615.36
533.25	33533.44
533.46	33715.71
533.66	34053.62
533.86	33932.79
534.07	34080.25
534.27	34393.59
534.47	34457.07
534.67	34733.55
534.88	34586.10
535.08	34735.60
535.28	35128.81
535.49	35687.90
535.69	35419.62
535.89	35210.73
536.09	35425.76
536.30	35534.31
536.50	35411.43
536.70	35665.38
536.91	35419.62
537.11	36193.75
537.31	35837.41
537.51	35835.36
537.72	36005.34
537.92	36275.67
538.12	36488.66
538.32	35999.19
538.53	36668.88
538.73	36457.94
538.93	36607.44
539.13	36482.52
539.34	36744.66
539.54	36773.33
539.74	37600.71
539.94	36926.92
540.15	37342.66
540.35	37383.62
540.55	37152.20
540.75	37330.37
540.96	37789.12
541.16	37651.91
541.36	37639.62
541.56	37821.89
541.77	37909.95
541.97	37809.60
542.17	38159.80
542.37	38211.00
542.58	38200.76
542.78	38292.92
542.98	38047.16
543.18	38790.58
543.38	38729.14
543.59	39155.11
543.79	38829.49
543.99	38679.99
544.19	38991.28
544.40	38991.28
544.60	39194.03
544.80	39069.10
545.00	39196.07
545.20	39523.75
545.41	39411.11
545.61	39404.97
545.81	39624.10
546.01	39826.85
546.21	39617.96
546.42	39466.41
546.62	40035.74
546.82	39585.19
547.02	39855.52
547.22	40220.06
547.43	39746.98
547.63	40607.12
547.83	40498.58
548.03	39820.70
548.23	40721.81
548.44	40596.88
548.64	40439.19
548.84	40553.88
549.04	40418.71
549.24	40904.08
549.45	41129.36
549.65	40693.14
549.85	41074.06
550.05	41430.41
550.25	41184.65
550.45	41817.47
550.66	41178.51
550.86	41178.51
551.06	41809.28
551.26	41377.16
551.46	41854.34
551.66	42147.20
551.87	41667.97
552.07	41786.75
552.27	42034.56
552.47	42392.95
552.67	42087.81
552.87	42179.96
553.07	42487.16
553.28	42020.22
553.48	42370.43
553.68	42526.07
553.88	42524.02
554.08	42208.64
554.28	42390.91
554.48	42403.19
554.69	43003.25
554.89	42780.02
555.09	43036.02
555.29	42335.61
555.49	42710.39
555.69	42816.88
555.89	43406.70
556.10	43113.84
556.30	42898.80
556.50	42990.96
556.70	43302.25
556.90	43298.16
557.10	43488.62
557.30	42986.86
557.50	43568.49
557.70	43537.77
557.91	43507.05
558.11	43425.13
558.31	43834.72
558.51	43711.84
558.71	43804.00
558.91	44057.95
559.11	43793.76
559.31	44084.58
559.51	43885.92
559.72	43914.59
559.92	43859.30
560.12	44025.18
560.32	44113.25
560.52	44053.86
560.72	44438.87
560.92	44211.55
561.12	44090.72
561.32	44432.73
561.52	43941.22
561.72	44782.93
561.93	44471.64
562.13	44449.11
562.33	43984.22
562.53	45061.46
562.73	44387.67
562.93	44815.70
563.13	44850.52
563.33	44627.29
563.53	44883.28
563.73	44692.82
563.93	44815.70
564.13	45331.79
564.33	44571.99
564.53	44891.48
564.74	45501.77
564.94	45040.98
565.14	45542.73
565.34	44940.63
565.54	45299.02
565.74	45061.46
565.94	45692.23
566.14	45096.27
566.34	45036.88
566.54	45626.70
566.74	45217.10
566.94	45446.47
567.14	45667.66
567.34	45370.70
567.54	46087.49
567.74	45659.46
567.94	45546.82
568.14	46067.01
568.34	46144.83
568.54	45958.47
568.74	45880.64
568.94	45679.94
569.14	46085.44
569.34	45995.33
569.54	46077.25
569.75	45925.70
569.95	46028.10
570.15	46648.63
570.35	46126.40
570.55	45942.08
570.75	46314.81
570.95	46404.92
571.15	46437.69
571.35	46312.77
571.55	46941.49
571.75	46650.68
571.95	46552.38
572.15	46667.06
572.35	46378.30
572.55	46107.97
572.75	46548.28
572.95	46755.13
573.15	46726.46
573.35	46824.76
573.55	46185.79
573.75	46755.13
573.95	46929.20
574.15	46400.83
574.35	47072.56
574.55	46998.83
574.75	46728.50
574.95	46619.96
575.15	46579.00
575.34	47062.32
575.54	47314.22
575.74	47306.03
575.94	47045.94
576.14	46798.13
576.34	47306.03
576.54	47594.79
576.74	47414.57
576.94	47420.72
577.14	47516.97
577.34	48340.25
577.54	47547.69
577.74	47531.31
577.94	47703.34
578.14	47752.49
578.34	48067.87
578.54	47678.76
578.74	47887.65
578.94	48151.84
579.14	47838.50
579.34	47820.07
579.54	47686.95
579.74	48121.12
579.94	48020.77
580.13	48149.79
580.33	48373.02
580.53	48389.41
580.73	48203.04
580.93	48284.96
581.13	48252.19
581.33	48633.11
581.53	48422.17
581.73	48588.06
581.93	48882.97
582.13	48356.64
582.33	48454.94
582.53	48596.25
582.73	49050.90
582.92	48405.79
583.12	48846.10
583.32	48801.05
583.52	48215.33
583.72	49026.32
583.92	48610.59
584.12	48702.74
584.32	49673.48
584.52	48907.54
584.72	49288.46
584.92	48960.79
585.11	49380.62
585.31	49141.01
585.51	49329.42
585.71	49079.57
585.91	49272.08
586.11	49100.05
586.31	49063.19
586.51	49122.58
586.71	49517.84
586.91	49403.15
587.10	49315.09
587.30	49147.15
587.50	49704.20
587.70	49698.06
587.90	50035.97
588.10	49902.85
588.30	49753.35
588.50	49476.88
