SpectraSuite Data File
++++++++++++++++++++++++++++++++++++
Date: Fri Jun 02 14:53:33 CEST 2017
User: INFO_000
Dark Spectrum Present: No
Reference Spectrum Present: No
Number of Sampled Component Spectra: 1
Spectrometers: USB4H00879
Integration Time (usec): 80000 (USB4H00879)
Spectra Averaged: 1 (USB4H00879)
Boxcar Smoothing: 0 (USB4H00879)
Correct for Electrical Dark: No (USB4H00879)
Strobe/Lamp Enabled: No (USB4H00879)
Correct for Detector Non-linearity: No (USB4H00879)
Correct for Stray Light: No (USB4H00879)
Number of Pixels in Processed Spectrum: 3648
>>>>>Begin Processed Spectral Data<<<<<
345.13	1234.93
345.34	1234.93
345.56	1234.93
345.78	1271.79
345.99	1368.04
346.21	1671.14
346.42	1658.85
346.64	1609.70
346.86	1728.49
347.07	1669.09
347.29	1759.21
347.50	1554.41
347.72	1644.52
347.94	1716.20
348.15	1642.47
348.37	1699.81
348.59	1720.29
348.80	1683.43
349.02	1742.82
349.23	1839.08
349.45	1832.93
349.67	1925.09
349.88	1839.08
350.10	1994.72
350.31	1898.47
350.53	1769.44
350.75	1925.09
350.96	1837.03
351.18	1910.75
351.39	1777.64
351.61	1751.01
351.82	1902.56
352.04	1853.41
352.26	1843.17
352.47	1912.80
352.69	2015.20
352.90	1777.64
353.12	1847.27
353.34	1937.38
353.55	1937.38
353.77	1855.46
353.98	1812.45
354.20	1859.56
354.41	1906.66
354.63	1902.56
354.85	2027.49
355.06	1855.46
355.28	1853.41
355.49	1812.45
355.71	1877.99
355.92	1847.27
356.14	1935.33
356.35	1812.45
356.57	1785.83
356.79	1974.24
357.00	1830.88
357.22	2002.91
357.43	1779.68
357.65	2029.54
357.86	1822.69
358.08	1966.05
358.29	1949.67
358.51	1986.53
358.72	1910.75
358.94	1949.67
359.16	1953.76
359.37	1943.52
359.59	1920.99
359.80	1982.43
360.02	1945.57
360.23	1937.38
360.45	1955.81
360.66	1953.76
360.88	1904.61
361.09	1949.67
361.31	2037.73
361.52	1953.76
361.74	2017.25
361.95	2095.07
362.17	1939.43
362.38	2072.54
362.60	2029.54
362.81	1970.15
363.03	1980.39
363.24	1925.09
363.46	2144.22
363.67	2007.01
363.89	1972.19
364.10	2009.06
364.32	1925.09
364.53	1976.29
364.75	1953.76
364.96	2041.82
365.18	2011.11
365.39	1996.77
365.61	1925.09
365.82	2183.13
366.04	1992.67
366.25	2019.30
366.47	2099.17
366.68	2064.35
366.90	1945.57
367.11	2117.60
367.33	2062.30
367.54	1972.19
367.76	2017.25
367.97	2203.61
368.19	2080.74
368.40	2125.79
368.62	1957.86
368.83	1941.47
369.05	2101.22
369.26	1970.15
369.48	2035.68
369.69	1998.82
369.91	2033.63
370.12	2099.17
370.33	2111.46
370.55	2013.15
370.76	2023.39
370.98	2054.11
371.19	2037.73
371.41	1959.91
371.62	2150.37
371.84	2047.97
372.05	2113.50
372.27	2074.59
372.48	2117.60
372.69	2047.97
372.91	2101.22
373.12	2203.61
373.34	2142.18
373.55	2125.79
373.77	2162.66
373.98	2043.87
374.20	2156.51
374.41	2271.20
374.62	2080.74
374.84	2127.84
375.05	2301.92
375.27	2131.94
375.48	2142.18
375.70	2230.24
375.91	2193.37
376.12	2314.20
376.34	2228.19
376.55	2183.13
376.77	2220.00
376.98	2113.50
377.19	2146.27
377.41	2242.53
377.62	2224.09
377.84	2256.86
378.05	2316.25
378.27	2174.94
378.48	2277.34
378.69	2389.98
378.91	2283.49
379.12	2230.24
379.34	2222.05
379.55	2336.73
379.76	2273.25
379.98	2228.19
380.19	2271.20
380.41	2269.15
380.62	2346.97
380.83	2250.72
381.05	2222.05
381.26	2416.60
381.47	2306.01
381.69	2289.63
381.90	2486.23
382.12	2340.83
382.33	2314.20
382.54	2355.16
382.76	2256.86
382.97	2209.76
383.19	2285.53
383.40	2357.21
383.61	2320.35
383.83	2232.29
384.04	2287.58
384.25	2371.55
384.47	2367.45
384.68	2258.91
384.89	2449.37
385.11	2314.20
385.32	2314.20
385.54	2385.88
385.75	2381.79
385.96	2430.94
386.18	2414.56
386.39	2473.95
386.60	2365.40
386.82	2441.18
387.03	2418.65
387.24	2478.04
387.46	2437.08
387.67	2428.89
387.88	2533.34
388.10	2437.08
388.31	2437.08
388.52	2516.95
388.74	2457.56
388.95	2527.19
389.16	2519.00
389.38	2529.24
389.59	2566.10
389.80	2699.22
390.02	2539.48
390.23	2631.64
390.44	2473.95
390.66	2504.67
390.87	2480.09
391.08	2621.40
391.30	2764.76
391.51	2648.02
391.72	2674.65
391.94	2607.06
392.15	2598.87
392.36	2566.10
392.58	2596.82
392.79	2719.70
393.00	2590.68
393.22	2680.79
393.43	2742.23
393.64	2744.28
393.85	2768.85
394.07	2580.44
394.28	2838.48
394.49	2820.05
394.71	2754.52
394.92	2877.40
395.13	2633.69
395.35	2658.26
395.56	2723.80
395.77	2727.89
395.98	2840.53
396.20	2996.18
396.41	2779.09
396.62	2920.40
396.84	2787.29
397.05	2809.81
397.26	3012.56
397.47	2893.78
397.69	2846.68
397.90	3028.95
398.11	2977.75
398.32	2826.20
398.54	2959.31
398.75	2824.15
398.96	2906.07
399.18	2992.08
399.39	2934.74
399.60	2963.41
399.81	2895.83
400.03	2912.21
400.24	3229.65
400.45	2955.22
400.66	2977.75
400.88	3000.27
401.09	3137.49
401.30	3030.99
401.51	3184.59
401.73	3078.10
401.94	3100.62
402.15	3145.68
402.36	3168.21
402.58	3084.24
402.79	3198.93
403.00	3104.72
403.21	3254.22
403.43	3252.17
403.64	3280.85
403.85	3153.87
404.06	3256.27
404.27	3135.44
404.49	3166.16
404.70	3074.00
404.91	3305.42
405.12	3344.33
405.34	3305.42
405.55	3409.87
405.76	3166.16
405.97	3223.50
406.19	3321.81
406.40	3313.61
406.61	3301.33
406.82	3295.18
407.03	3311.57
407.25	3301.33
407.46	3459.02
407.67	3407.82
407.88	3583.95
408.09	3370.96
408.31	3368.91
408.52	3532.75
408.73	3317.71
408.94	3432.40
409.15	3465.16
409.37	3520.46
409.58	3475.40
409.79	3526.60
410.00	3616.71
410.21	3499.98
410.43	3504.07
410.64	3510.22
410.85	3618.76
411.06	3583.95
411.27	3663.82
411.48	3667.91
411.70	3477.45
411.91	3690.44
412.12	3715.02
412.33	3706.82
412.54	3680.20
412.76	3719.11
412.97	3667.91
413.18	3649.48
413.39	3651.53
413.60	3786.69
413.81	3747.78
414.03	3729.35
414.24	3651.53
414.45	3880.90
414.66	3534.79
414.87	3719.11
415.08	3770.31
415.30	3653.58
415.51	3839.94
415.72	3831.75
415.93	3846.09
416.14	3782.60
416.35	3915.72
416.56	3874.76
416.78	3764.17
416.99	4022.21
417.20	3921.86
417.41	4050.88
417.62	4054.98
417.83	3964.87
418.04	3985.35
418.26	4102.08
418.47	3973.06
418.68	4120.51
418.89	4034.50
419.10	4280.25
419.31	4052.93
419.52	4171.71
419.73	4108.23
419.95	4075.46
420.16	3954.63
420.37	4126.66
420.58	4104.13
420.79	3989.44
421.00	4202.43
421.21	4108.23
421.42	4138.94
421.63	4270.01
421.85	4153.28
422.06	4290.49
422.27	4378.56
422.48	4175.81
422.69	4321.21
422.90	4196.29
423.11	4403.13
423.32	4319.17
423.53	4448.19
423.75	4460.48
423.96	4497.34
424.17	4521.92
424.38	4523.96
424.59	4560.83
424.80	4675.51
425.01	4437.95
425.22	4562.87
425.43	4526.01
425.64	4640.70
425.85	4655.03
426.06	4784.06
426.28	4720.57
426.49	4642.75
426.70	4673.46
426.91	4550.59
427.12	4759.48
427.33	4755.38
427.54	4753.34
427.75	4695.99
427.96	4831.16
428.17	4741.05
428.38	4886.45
428.59	4886.45
428.80	4749.24
429.01	4884.41
429.23	4818.87
429.44	4990.90
429.65	5078.96
429.86	5132.21
430.07	4868.02
430.28	4788.15
430.49	5005.24
430.70	5146.55
430.91	5218.22
431.12	4931.51
431.33	5124.02
431.54	5224.37
431.75	5134.26
431.96	5101.49
432.17	5269.42
432.38	5234.61
432.59	5431.21
432.80	5273.52
433.01	5316.53
433.22	5386.16
433.43	5418.93
433.64	5126.07
433.85	5265.33
434.06	5351.34
434.27	5289.90
434.49	5390.25
434.70	5488.56
434.91	5414.83
435.12	5472.17
435.33	5457.84
435.54	5359.53
435.75	5228.46
435.96	5527.47
436.17	5453.74
436.38	5636.01
436.59	5709.74
436.80	5574.57
437.01	5767.08
437.22	5816.23
437.43	5605.29
437.64	5511.08
437.85	5787.56
438.06	5693.35
438.27	5693.35
438.48	5650.35
438.69	5765.03
438.90	5742.50
439.11	5574.57
439.32	5900.20
439.53	5824.42
439.74	5808.04
439.95	5869.48
440.16	5881.77
440.37	5855.14
440.57	5705.64
440.78	5863.33
440.99	6039.46
441.20	5930.92
441.41	5912.49
441.62	5949.35
441.83	5894.05
442.04	6100.90
442.25	6035.36
442.46	5861.29
442.67	6064.04
442.88	6496.16
443.09	6027.17
443.30	5955.49
443.51	6092.71
443.72	6555.55
443.93	5998.50
444.14	6295.46
444.35	6025.12
444.56	6336.42
444.77	6326.18
444.98	6410.14
445.19	6348.70
445.40	6414.24
445.61	6354.85
445.81	6475.68
446.02	6469.53
446.23	6260.64
446.44	6315.94
446.65	6381.47
446.86	6590.36
447.07	6664.09
447.28	6672.28
447.49	6690.71
447.70	6514.59
447.91	6600.60
448.12	6651.80
448.33	6614.94
448.54	6688.67
448.74	6530.97
448.95	6756.25
449.16	6563.74
449.37	7012.24
449.58	6676.38
449.79	6887.32
450.00	6774.68
450.21	6809.50
450.42	7020.44
450.63	7073.68
450.84	6852.50
451.05	7040.92
451.25	7026.58
451.46	6948.76
451.67	7194.51
451.88	6961.05
452.09	7247.76
452.30	7073.68
452.51	7133.08
452.72	7280.53
452.93	7489.42
453.13	7145.36
453.34	7200.66
453.55	7427.98
453.76	7301.01
453.97	7720.84
454.18	7507.85
454.39	7434.13
454.60	7561.10
454.81	7395.22
455.01	7753.61
455.22	7413.65
455.43	7614.35
455.64	7921.54
455.85	7800.71
456.06	7960.45
456.27	7724.94
456.48	7874.44
456.68	7761.80
456.89	7774.09
457.10	7892.87
457.31	8175.49
457.52	7948.17
457.73	8089.48
457.94	8400.77
458.14	8079.24
458.35	8499.07
458.56	8189.83
458.77	8251.27
458.98	8329.09
459.19	8337.28
459.39	8488.83
459.60	8527.74
459.81	8671.10
460.02	8632.19
460.23	8667.00
460.44	8767.35
460.65	8736.63
460.85	8730.49
461.06	8955.77
461.27	8521.60
461.48	9049.97
461.69	9088.89
461.89	8683.39
462.10	9109.36
462.31	8660.86
462.52	9066.36
462.73	9338.74
462.94	9305.97
463.14	9242.48
463.35	9213.81
463.56	9609.07
463.77	9398.13
463.98	9432.94
464.18	9521.01
464.39	9715.56
464.60	9801.58
464.81	9658.22
465.02	9774.95
465.23	9840.49
465.43	9686.89
465.64	9953.13
465.85	10184.55
466.06	9953.13
466.27	10104.68
466.47	10162.02
466.68	10317.67
466.89	10059.62
467.10	10315.62
467.30	10141.54
467.51	10336.10
467.72	10743.64
467.93	10319.71
468.14	10526.56
468.34	10807.13
468.55	10833.75
468.76	10653.53
468.97	10624.86
469.17	10897.24
469.38	10934.11
469.59	11272.02
469.80	10956.63
470.01	10911.58
470.21	11190.10
470.42	11515.73
470.63	11411.28
470.84	11386.71
471.04	11689.81
471.25	11632.46
471.46	11382.61
471.67	11745.10
471.87	12001.10
472.08	11898.70
472.29	12044.10
472.50	11693.90
472.70	12181.32
472.91	12040.01
473.12	12341.06
473.33	12117.83
473.53	12629.82
473.74	12283.72
473.95	12470.08
474.16	12683.07
474.36	12670.78
474.57	12808.00
474.78	12900.16
474.99	12889.92
475.19	12881.72
475.40	13147.96
475.61	13256.50
475.81	13432.63
476.02	13606.70
476.23	13424.44
476.44	13633.33
476.64	13928.24
476.85	13762.35
477.06	13969.19
477.27	14075.69
477.47	14141.22
477.68	14208.81
477.89	14257.96
478.09	14321.45
478.30	14573.35
478.51	14329.64
478.71	14321.45
478.92	14786.33
479.13	14741.28
479.34	14935.84
479.54	14909.21
479.75	14839.58
479.96	14997.28
480.16	15079.19
480.37	15050.52
480.58	15447.83
480.78	15929.10
480.99	15521.56
481.20	15779.60
481.41	15701.78
481.61	15738.64
481.82	15716.11
482.03	15752.98
482.23	16015.12
482.44	16373.51
482.65	16482.05
482.85	16541.44
483.06	16561.92
483.27	16328.45
483.47	16539.40
483.68	16742.14
483.89	16707.33
484.09	16895.74
484.30	17047.29
484.51	17319.67
484.71	17020.67
484.92	17172.22
485.13	17514.23
485.33	17166.07
485.54	17123.07
485.75	17913.58
485.95	17819.38
486.16	17626.87
486.37	17942.25
486.57	17878.77
486.78	17893.10
486.98	18163.43
487.19	18185.96
487.40	18374.38
487.60	18169.58
487.81	18458.34
488.02	18396.90
488.22	18439.91
488.43	18822.88
488.64	18947.81
488.84	18902.75
489.05	18990.81
489.25	19074.78
489.46	19148.51
489.67	19162.84
489.87	19080.92
490.08	19281.63
490.29	19396.31
490.49	19463.90
490.70	19736.27
490.90	19947.22
491.11	19674.84
491.32	20061.90
491.52	19627.73
491.73	19998.41
491.94	19902.16
492.14	19914.45
492.35	20346.57
492.55	20410.06
492.76	20639.43
492.97	20702.92
493.17	20516.55
493.38	20668.10
493.58	20887.23
493.79	20946.62
494.00	20788.93
494.20	20770.50
494.41	21171.90
494.61	21198.52
494.82	21081.79
495.02	20963.01
495.23	21456.57
495.44	21399.23
495.64	21427.90
495.85	21610.17
496.05	22054.58
496.26	21622.45
496.47	21876.40
496.67	21540.54
496.88	22236.84
497.08	21882.55
497.29	22113.97
497.49	22234.80
497.70	22228.65
497.91	22314.67
498.11	22558.38
498.32	22361.77
498.52	22695.59
498.73	22838.95
498.93	22535.85
499.14	22656.68
499.34	22857.38
499.55	23023.26
499.76	22718.12
499.96	22845.09
500.17	23131.81
500.37	23101.09
500.58	22875.81
500.78	23363.23
500.99	23301.79
501.19	23430.81
501.40	23422.62
501.60	23498.39
501.81	23207.58
502.02	23826.07
502.22	23035.55
502.43	23633.56
502.63	23889.56
502.84	24098.45
503.04	24043.15
503.25	24368.78
503.45	23873.17
503.66	24274.57
503.86	23934.61
504.07	24596.10
504.27	23977.62
504.48	24622.73
504.68	24581.77
504.89	25022.08
505.09	24501.90
505.30	24481.42
505.50	24534.67
505.71	24718.98
505.91	24665.74
506.12	24761.99
506.32	25095.81
506.53	24913.54
506.73	25128.58
506.94	25241.21
507.14	25087.62
507.35	25024.13
507.55	25357.95
507.76	25454.20
507.96	25187.97
508.17	25302.65
508.37	25568.89
508.58	25620.09
508.78	25601.66
508.99	25615.99
509.19	25659.00
509.40	25720.44
509.60	25613.95
509.81	25935.48
510.01	25745.02
510.22	25824.89
510.42	25876.09
510.63	26091.12
510.83	25970.29
511.04	26197.62
511.24	26343.02
511.44	26381.93
511.65	26254.96
511.85	26144.37
512.06	26089.07
512.26	26435.18
512.47	26588.78
512.67	26390.13
512.88	26308.21
513.08	26404.46
513.29	26844.77
513.49	26541.68
513.69	26859.11
513.90	26850.92
514.10	27045.48
514.31	27096.67
514.51	27190.88
514.72	27074.15
514.92	26992.23
515.13	26873.45
515.33	27084.39
515.53	27442.78
515.74	27334.24
515.94	27614.81
516.15	27334.24
516.35	27364.96
516.56	27840.09
516.76	27309.66
516.96	27620.95
517.17	27942.49
517.37	28001.88
517.58	27876.95
517.78	27743.83
517.99	27694.68
518.19	28075.60
518.39	28237.39
518.60	28298.83
518.80	28403.28
519.01	28204.63
519.21	28495.44
519.41	28812.87
519.62	28837.45
519.82	28749.39
520.03	28700.23
520.23	28821.06
520.43	28757.58
520.64	29130.31
520.84	29306.43
521.05	29044.29
521.25	29275.71
521.45	29337.15
521.66	29670.97
521.86	29533.76
522.07	29572.67
522.27	29480.51
522.47	29699.64
522.68	29947.45
522.88	29623.87
523.08	30078.52
523.29	30045.75
523.49	29953.59
523.70	29980.21
523.90	30352.94
524.10	30373.42
524.31	30658.09
524.51	29763.13
524.71	30991.91
524.92	30807.59
525.12	30926.38
525.33	30991.91
525.53	30641.71
525.73	31282.72
525.94	31127.08
526.14	31057.45
526.34	31385.12
526.55	31460.90
526.75	31481.38
526.95	32022.04
527.16	31643.17
527.36	31741.47
527.56	31907.35
527.77	31897.11
527.97	32019.99
528.17	32228.88
528.38	32296.47
528.58	32495.12
528.78	32441.87
528.99	31841.82
529.19	32708.11
529.39	32656.91
529.60	33009.16
529.80	32728.59
530.00	32908.81
530.21	33633.79
530.41	33248.77
530.61	33246.72
530.82	33310.21
531.02	33338.88
531.22	33502.72
531.43	33863.16
531.63	34022.90
531.83	34006.52
532.04	34276.85
532.24	34428.40
532.44	34622.96
532.64	34391.54
532.85	34446.83
533.05	34450.93
533.25	34944.49
533.46	34735.60
533.66	35137.00
533.86	34805.23
534.07	35429.86
534.27	35349.99
534.47	35565.03
534.67	35575.27
534.88	35696.10
535.08	35501.54
535.28	35968.48
535.49	35876.32
535.69	36263.38
535.89	36074.97
536.09	36220.38
536.30	36390.36
536.50	36546.00
536.70	36261.33
536.91	36427.22
537.11	36310.49
537.31	36971.98
537.51	36830.67
537.72	37262.79
537.92	37408.20
538.12	37500.36
538.32	37135.82
538.53	37471.68
538.73	37264.84
538.93	37539.27
539.13	37563.84
539.34	37662.15
539.54	37647.81
539.74	37995.96
539.94	37885.37
540.15	37889.47
540.35	38333.88
540.55	38049.21
540.75	38477.24
540.96	38376.89
541.16	38442.42
541.36	38479.28
541.56	38565.30
541.77	39065.00
541.97	38694.32
542.17	39241.13
542.37	39015.85
542.58	38843.82
542.78	39060.91
542.98	39163.31
543.18	39208.36
543.38	39564.71
543.59	39951.77
543.79	39337.38
543.99	39484.84
544.19	39554.47
544.40	39634.34
544.60	39970.21
544.80	39921.05
545.00	40129.95
545.20	40320.41
545.41	40408.47
545.61	40283.55
545.81	40519.06
546.01	40744.34
546.21	40666.52
546.42	40465.81
546.62	40781.20
546.82	40666.52
547.02	40912.27
547.22	40750.48
547.43	40623.51
547.63	40869.26
547.83	41315.72
548.03	40760.72
548.23	41207.18
548.44	41162.12
548.64	41194.89
548.84	41405.83
549.04	41088.40
549.24	41459.08
549.45	41878.91
549.65	41405.83
549.85	41526.66
550.05	41788.80
550.25	41403.78
550.45	42157.44
550.66	41784.71
550.86	41774.47
551.06	42081.66
551.26	42245.50
551.46	42136.96
551.66	42331.51
551.87	42052.99
552.07	42323.32
552.27	42216.83
552.47	42589.56
552.67	42382.71
552.87	42542.45
553.07	42397.05
553.28	42818.93
553.48	42628.47
553.68	42626.42
553.88	42886.51
554.08	42927.47
554.28	42544.50
554.48	42818.93
554.69	42915.19
554.89	43058.54
555.09	43052.40
555.29	42911.09
555.49	42808.69
555.69	42868.08
555.89	43062.64
556.10	43210.09
556.30	42845.55
556.50	43537.77
556.70	43152.75
556.90	43316.59
557.10	43586.92
557.30	43259.24
557.50	43609.45
557.70	43566.44
557.91	43652.45
558.11	43588.97
558.31	43752.80
558.51	43720.04
558.71	43922.79
558.91	43853.15
559.11	43816.29
559.31	43949.41
559.51	43689.32
559.72	43844.96
559.92	43638.12
560.12	44103.01
560.32	43930.98
560.52	43779.43
560.72	44232.03
560.92	44193.12
561.12	44180.83
561.32	44424.54
561.52	44344.67
561.72	44451.16
561.93	44174.69
562.13	43928.93
562.33	43777.38
562.53	44344.67
562.73	44172.64
562.93	44342.62
563.13	44426.59
563.33	44291.42
563.53	44582.23
563.73	43875.68
563.93	44416.35
564.13	45147.47
564.33	44559.70
564.53	45061.46
564.74	44320.09
564.94	44146.01
565.14	44776.79
565.34	44418.39
565.54	44520.79
565.74	45083.98
565.94	45110.61
566.14	44473.69
566.34	44608.86
566.54	44901.71
566.74	44422.49
566.94	44981.59
567.14	44713.30
567.34	44633.43
567.54	45299.02
567.74	45059.41
567.94	45151.57
568.14	45339.98
568.34	45380.94
568.54	45094.22
568.74	45137.23
568.94	44791.12
569.14	45374.80
569.34	45716.81
569.54	45116.75
569.75	44993.87
569.95	45122.90
570.15	46085.44
570.35	45339.98
570.55	45032.78
570.75	45348.17
570.95	45610.31
571.15	45425.99
571.35	45233.49
571.55	45520.20
571.75	45501.77
571.95	45671.75
572.15	45397.32
572.35	45221.20
572.55	45665.61
572.75	45880.64
572.95	45745.48
573.15	45833.54
573.35	45479.24
573.55	45526.35
573.75	45585.74
573.95	45878.60
574.15	45725.00
574.35	45940.04
574.55	45602.12
574.75	45577.54
574.95	45886.79
575.15	46021.95
575.34	45784.39
575.54	45774.15
575.74	46343.48
575.94	46327.10
576.14	45999.43
576.34	46277.95
576.54	46601.53
576.74	46177.60
576.94	45978.95
577.14	46642.49
577.34	46732.60
577.54	46142.78
577.74	46517.56
577.94	46523.71
578.14	46445.88
578.34	46705.98
578.54	46275.90
578.74	46587.19
578.94	47095.09
579.14	47025.46
579.34	46699.83
579.54	46368.06
579.74	46656.82
579.94	46990.64
580.13	47113.52
580.33	47228.21
580.53	46538.04
580.73	46822.71
580.93	46908.72
581.13	46978.36
581.33	47303.98
581.53	47064.37
581.73	47596.84
581.93	47310.13
582.13	47058.23
582.33	47326.51
582.53	47234.35
582.73	47289.65
582.92	47621.42
583.12	47478.06
583.32	47205.68
583.52	47398.19
583.72	47660.33
583.92	47627.56
584.12	47328.56
584.32	48069.92
584.52	47691.05
584.72	47783.21
584.92	47369.52
585.11	48022.82
585.31	48074.02
585.51	48538.91
585.71	47967.52
585.91	48164.13
586.11	48041.25
586.31	47658.28
586.51	48020.77
586.71	48080.16
586.91	48379.17
587.10	48137.51
587.30	48311.58
587.50	48332.06
587.70	48430.36
587.90	48334.11
588.10	48407.84
588.30	48266.53
588.50	48805.14
