SpectraSuite Data File
++++++++++++++++++++++++++++++++++++
Date: Fri Jun 02 14:53:35 CEST 2017
User: INFO_000
Dark Spectrum Present: No
Reference Spectrum Present: No
Number of Sampled Component Spectra: 1
Spectrometers: USB4H00879
Integration Time (usec): 80000 (USB4H00879)
Spectra Averaged: 1 (USB4H00879)
Boxcar Smoothing: 0 (USB4H00879)
Correct for Electrical Dark: No (USB4H00879)
Strobe/Lamp Enabled: No (USB4H00879)
Correct for Detector Non-linearity: No (USB4H00879)
Correct for Stray Light: No (USB4H00879)
Number of Pixels in Processed Spectrum: 3648
>>>>>Begin Processed Spectral Data<<<<<
345.13	1222.64
345.34	1222.64
345.56	1222.64
345.78	1294.32
345.99	1282.03
346.21	1722.34
346.42	1734.63
346.64	1640.42
346.86	1753.06
347.07	1683.43
347.29	1665.00
347.50	1593.32
347.72	1650.66
347.94	1677.29
348.15	1626.09
348.37	1640.42
348.59	1746.92
348.80	1710.05
349.02	1834.98
349.23	1873.89
349.45	1781.73
349.67	1906.66
349.88	1789.92
350.10	1906.66
350.31	1853.41
350.53	1849.32
350.75	2035.68
350.96	1789.92
351.18	1839.08
351.39	1888.23
351.61	1783.78
351.82	1873.89
352.04	1861.60
352.26	1871.84
352.47	1929.19
352.69	1961.95
352.90	1796.07
353.12	1804.26
353.34	1880.04
353.55	1927.14
353.77	1867.75
353.98	1882.08
354.20	1892.32
354.41	1935.33
354.63	1957.86
354.85	2043.87
355.06	1953.76
355.28	1820.64
355.49	1896.42
355.71	1834.98
355.92	1877.99
356.14	1935.33
356.35	1925.09
356.57	1857.51
356.79	1964.00
357.00	1794.02
357.22	1935.33
357.43	1869.80
357.65	2004.96
357.86	1923.04
358.08	1902.56
358.29	1943.52
358.51	1966.05
358.72	1976.29
358.94	1906.66
359.16	1959.91
359.37	1910.75
359.59	1937.38
359.80	1951.71
360.02	1994.72
360.23	1914.85
360.45	1943.52
360.66	1943.52
360.88	1832.93
361.09	1972.19
361.31	2007.01
361.52	1935.33
361.74	2021.35
361.95	2009.06
362.17	1972.19
362.38	2115.55
362.60	2074.59
362.81	1982.43
363.03	1894.37
363.24	1914.85
363.46	1988.58
363.67	2011.11
363.89	2041.82
364.10	2064.35
364.32	1992.67
364.53	2015.20
364.75	1896.42
364.96	2039.78
365.18	1968.10
365.39	2064.35
365.61	1931.23
365.82	2136.03
366.04	1970.15
366.25	2025.44
366.47	2068.45
366.68	2142.18
366.90	1996.77
367.11	2047.97
367.33	2127.84
367.54	2002.91
367.76	2002.91
367.97	2131.94
368.19	2070.50
368.40	2058.21
368.62	1929.19
368.83	2027.49
369.05	2037.73
369.26	2043.87
369.48	1925.09
369.69	1961.95
369.91	2144.22
370.12	2052.06
370.33	2050.02
370.55	1953.76
370.76	2086.88
370.98	2072.54
371.19	2060.26
371.41	2125.79
371.62	2070.50
371.84	1933.28
372.05	2058.21
372.27	1964.00
372.48	2052.06
372.69	2068.45
372.91	2133.98
373.12	2195.42
373.34	2136.03
373.55	2156.51
373.77	2228.19
373.98	2121.70
374.20	2160.61
374.41	2236.38
374.62	2084.83
374.84	2213.85
375.05	2226.14
375.27	2170.85
375.48	2205.66
375.70	2189.28
375.91	2279.39
376.12	2289.63
376.34	2168.80
376.55	2107.36
376.77	2238.43
376.98	2119.65
377.19	2123.74
377.41	2154.46
377.62	2273.25
377.84	2277.34
378.05	2346.97
378.27	2199.52
378.48	2322.40
378.69	2424.80
378.91	2250.72
379.12	2318.30
379.34	2252.77
379.55	2230.24
379.76	2271.20
379.98	2140.13
380.19	2215.90
380.41	2248.67
380.62	2338.78
380.83	2277.34
381.05	2295.77
381.26	2428.89
381.47	2234.33
381.69	2181.09
381.90	2404.32
382.12	2254.81
382.33	2318.30
382.54	2277.34
382.76	2338.78
382.97	2355.16
383.19	2203.61
383.40	2430.94
383.61	2275.29
383.83	2248.67
384.04	2285.53
384.25	2359.26
384.47	2387.93
384.68	2420.70
384.89	2359.26
385.11	2310.11
385.32	2387.93
385.54	2355.16
385.75	2363.36
385.96	2439.13
386.18	2435.03
386.39	2424.80
386.60	2322.40
386.82	2418.65
387.03	2498.52
387.24	2496.47
387.46	2463.71
387.67	2422.75
387.88	2508.76
388.10	2475.99
388.31	2605.02
388.52	2574.30
388.74	2566.10
388.95	2480.09
389.16	2500.57
389.38	2500.57
389.59	2607.06
389.80	2678.74
390.02	2592.73
390.23	2639.83
390.44	2600.92
390.66	2564.06
390.87	2592.73
391.08	2633.69
391.30	2631.64
391.51	2662.36
391.72	2740.18
391.94	2770.90
392.15	2641.88
392.36	2727.89
392.58	2619.35
392.79	2742.23
393.00	2715.61
393.22	2666.46
393.43	2789.33
393.64	2777.05
393.85	2797.53
394.07	2658.26
394.28	2760.66
394.49	2731.99
394.71	2856.92
394.92	2889.68
395.13	2703.32
395.35	2723.80
395.56	2705.37
395.77	2754.52
395.98	2869.20
396.20	2918.36
396.41	2953.17
396.62	2826.20
396.84	2928.60
397.05	2887.64
397.26	2877.40
397.47	2926.55
397.69	2789.33
397.90	2926.55
398.11	2930.64
398.32	2838.48
398.54	2904.02
398.75	2936.79
398.96	2975.70
399.18	3080.14
399.39	2891.73
399.60	2940.88
399.81	2940.88
400.03	2985.94
400.24	3239.89
400.45	2949.08
400.66	3082.19
400.88	2953.17
401.09	3143.63
401.30	3041.23
401.51	3295.18
401.73	3145.68
401.94	3125.20
402.15	3190.74
402.36	3139.54
402.58	3063.76
402.79	3182.54
403.00	3184.59
403.21	3256.27
403.43	3239.89
403.64	3221.45
403.85	3223.50
404.06	3280.85
404.27	3127.25
404.49	3147.73
404.70	3268.56
404.91	3401.68
405.12	3231.69
405.34	3276.75
405.55	3383.24
405.76	3119.06
405.97	3211.22
406.19	3393.48
406.40	3192.78
406.61	3399.63
406.82	3358.67
407.03	3401.68
407.25	3280.85
407.46	3471.31
407.67	3479.50
407.88	3475.40
408.09	3381.20
408.31	3418.06
408.52	3397.58
408.73	3434.44
408.94	3344.33
409.15	3502.03
409.37	3577.80
409.58	3467.21
409.79	3430.35
410.00	3561.42
410.21	3413.96
410.43	3526.60
410.64	3436.49
410.85	3631.05
411.06	3583.95
411.27	3510.22
411.48	3655.62
411.70	3594.19
411.91	3606.47
412.12	3635.14
412.33	3747.78
412.54	3651.53
412.76	3700.68
412.97	3721.16
413.18	3542.99
413.39	3629.00
413.60	3768.26
413.81	3585.99
414.03	3629.00
414.24	3655.62
414.45	3839.94
414.66	3567.56
414.87	3811.27
415.08	3688.39
415.30	3715.02
415.51	3784.65
415.72	3827.65
415.93	3772.36
416.14	3807.17
416.35	3866.56
416.56	3891.14
416.78	3917.76
416.99	3917.76
417.20	3688.39
417.41	3952.58
417.62	3885.00
417.83	4003.78
418.04	3911.62
418.26	3958.72
418.47	3895.24
418.68	4128.70
418.89	4022.21
419.10	4186.05
419.31	3962.82
419.52	4175.81
419.73	3995.59
419.95	4028.35
420.16	4083.65
420.37	4059.07
420.58	4198.34
420.79	4032.45
421.00	4100.03
421.21	4255.68
421.42	4108.23
421.63	4143.04
421.85	4108.23
422.06	4198.34
422.27	4237.25
422.48	4169.66
422.69	4265.92
422.90	4358.08
423.11	4239.30
423.32	4333.50
423.53	4456.38
423.75	4341.69
423.96	4460.48
424.17	4405.18
424.38	4607.93
424.59	4448.19
424.80	4448.19
425.01	4489.15
425.22	4478.91
425.43	4464.57
425.64	4773.82
425.85	4736.95
426.06	4618.17
426.28	4646.84
426.49	4478.91
426.70	4564.92
426.91	4622.27
427.12	4788.15
427.33	4657.08
427.54	4679.61
427.75	4786.10
427.96	4949.94
428.17	4743.10
428.38	4859.83
428.59	4925.36
428.80	4865.97
429.01	4929.46
429.23	4902.84
429.44	5033.91
429.65	5029.81
429.86	5054.39
430.07	5046.20
430.28	4884.41
430.49	5173.17
430.70	5181.36
430.91	5111.73
431.12	5074.87
431.33	5334.96
431.54	5205.94
431.75	5113.78
431.96	5173.17
432.17	5234.61
432.38	5255.09
432.59	5423.02
432.80	5453.74
433.01	5326.77
433.22	5320.62
433.43	5375.92
433.64	5457.84
433.85	5220.27
434.06	5402.54
434.27	5390.25
434.49	5324.72
434.70	5527.47
434.91	5509.04
435.12	5601.19
435.33	5463.98
435.54	5615.53
435.75	5271.47
435.96	5556.14
436.17	5427.12
436.38	5719.98
436.59	5676.97
436.80	5500.84
437.01	5726.12
437.22	5760.94
437.43	5740.46
437.64	5527.47
437.85	5799.85
438.06	5871.53
438.27	5722.02
438.48	5638.06
438.69	5918.63
438.90	5758.89
439.11	5752.74
439.32	6045.60
439.53	6000.55
439.74	6041.51
439.95	6000.55
440.16	5814.18
440.37	5971.88
440.57	5965.73
440.78	6008.74
440.99	5928.87
441.20	6053.80
441.41	5943.21
441.62	6170.53
441.83	6004.64
442.04	6016.93
442.25	6236.06
442.46	6041.51
442.67	6274.98
442.88	6561.69
443.09	6102.95
443.30	6174.63
443.51	6217.63
443.72	6336.42
443.93	6201.25
444.14	6530.97
444.35	6209.44
444.56	6307.74
444.77	6289.31
444.98	6340.51
445.19	6502.30
445.40	6391.71
445.61	6412.19
445.81	6496.16
446.02	6528.92
446.23	6350.75
446.44	6500.25
446.65	6524.83
446.86	6582.17
447.07	6604.70
447.28	6639.51
447.49	6680.47
447.70	6594.46
447.91	6909.85
448.12	6748.06
448.33	6598.56
448.54	6780.82
448.74	6754.20
448.95	6801.30
449.16	6713.24
449.37	7090.07
449.58	6791.06
449.79	7028.63
450.00	6784.92
450.21	7077.78
450.42	6973.33
450.63	7182.23
450.84	7102.36
451.05	7151.51
451.25	7028.63
451.46	7116.69
451.67	7311.25
451.88	7352.21
452.09	7083.92
452.30	7016.34
452.51	7126.93
452.72	7247.76
452.93	7563.15
453.13	7239.57
453.34	7225.23
453.55	7507.85
453.76	7397.26
453.97	7630.73
454.18	7403.41
454.39	7589.77
454.60	7501.71
454.81	7389.07
455.01	7778.19
455.22	7374.74
455.43	7626.64
455.64	7724.94
455.85	7833.48
456.06	7800.71
456.27	7831.43
456.48	7858.06
456.68	7909.26
456.89	7927.69
457.10	8058.76
457.31	7823.24
457.52	7964.55
457.73	8120.20
457.94	8087.43
458.14	7870.34
458.35	8411.01
458.56	8292.23
458.77	8177.54
458.98	8304.51
459.19	8310.66
459.39	8519.55
459.60	8576.89
459.81	8408.96
460.02	8603.52
460.23	8603.52
460.44	8816.51
460.65	8624.00
460.85	8576.89
461.06	8746.87
461.27	8722.30
461.48	9021.30
461.69	9103.22
461.89	8710.01
462.10	8939.38
462.31	8654.72
462.52	8785.79
462.73	9080.69
462.94	9379.70
463.14	9277.30
463.35	9097.08
463.56	9555.82
463.77	9414.51
463.98	9248.63
464.18	9498.48
464.39	9465.71
464.60	9553.77
464.81	9625.45
465.02	9531.25
465.23	9684.84
465.43	9654.12
465.64	9893.74
465.85	9801.58
466.06	9891.69
466.27	10131.30
466.47	10121.06
466.68	10022.76
466.89	10233.70
467.10	10266.47
467.30	10037.09
467.51	10149.73
467.72	10530.66
467.93	10114.92
468.14	10501.98
468.34	10743.64
468.55	10645.34
468.76	10702.68
468.97	10534.75
469.17	10995.54
469.38	10800.99
469.59	11143.00
469.80	10782.56
470.01	10999.64
470.21	10817.37
470.42	11145.05
470.63	11458.39
470.84	11167.57
471.04	11519.82
471.25	11523.92
471.46	11476.82
471.67	11568.98
471.87	11589.46
472.08	11726.67
472.29	11810.64
472.50	11497.30
472.70	11845.45
472.91	11898.70
473.12	12074.82
473.33	11999.05
473.53	12171.08
473.74	12285.76
473.95	12394.31
474.16	12511.04
474.36	12361.54
474.57	12502.85
474.78	12779.32
474.99	12738.37
475.19	12889.92
475.40	12898.11
475.61	13166.39
475.81	12937.02
476.02	13467.44
476.23	13365.04
476.44	13412.15
476.64	13897.52
476.85	13870.89
477.06	13565.74
477.27	13825.84
477.47	13705.01
477.68	14022.44
477.89	14053.16
478.09	14288.68
478.30	14116.65
478.51	14217.00
478.71	14389.03
478.92	14389.03
479.13	14679.84
479.34	14751.52
479.54	14782.24
479.75	14659.36
479.96	15017.75
480.16	14843.68
480.37	15146.78
480.58	15204.12
480.78	15288.09
480.99	15460.12
481.20	15707.92
481.41	15734.54
481.61	15896.33
481.82	15814.41
482.03	15746.83
482.23	15961.87
482.44	16125.71
482.65	16307.98
482.85	16600.83
483.06	16322.31
483.27	16367.37
483.47	16572.16
483.68	16652.03
483.89	16797.44
484.09	16742.14
484.30	16951.04
484.51	17071.87
484.71	17413.88
484.92	17000.19
485.13	17174.27
485.33	17551.09
485.54	17430.26
485.75	17762.03
485.95	17862.38
486.16	17886.96
486.37	17886.96
486.57	17815.28
486.78	17901.29
486.98	18024.17
487.19	17954.54
487.40	18226.92
487.60	18296.55
487.81	18743.01
488.02	18618.08
488.22	18673.38
488.43	18683.62
488.64	18806.50
488.84	18894.56
489.05	18994.91
489.25	18951.90
489.46	19433.18
489.67	19242.71
489.87	19576.53
490.08	19644.12
490.29	19341.02
490.49	19861.20
490.70	19769.04
490.90	20004.56
491.11	20074.19
491.32	20111.05
491.52	19949.26
491.73	20119.24
491.94	20387.53
492.14	20408.01
492.35	20455.11
492.55	20831.94
492.76	20784.83
492.97	20981.44
493.17	20766.40
493.38	20719.30
493.58	21241.53
493.79	20948.67
494.00	20797.12
494.20	21309.11
494.41	21188.28
494.61	21626.55
494.82	21509.82
495.02	21597.88
495.23	21782.20
495.44	21823.16
495.64	21806.77
495.85	21862.07
496.05	22021.81
496.26	22058.67
496.47	22138.54
496.67	21989.04
496.88	22400.68
497.08	22175.41
497.29	22535.85
497.49	22648.49
497.70	22701.73
497.91	22855.33
498.11	22920.87
498.32	22816.42
498.52	22920.87
498.73	23035.55
498.93	22896.29
499.14	23002.78
499.34	22841.00
499.55	23303.84
499.76	23291.55
499.96	23309.98
500.17	23223.97
500.37	23461.53
500.58	23547.54
500.78	23654.04
500.99	23783.06
501.19	23830.16
501.40	23862.93
501.60	23781.01
501.81	24045.20
502.02	24110.74
502.22	24131.22
502.43	24254.09
502.63	24428.17
502.84	24452.75
503.04	24452.75
503.25	24589.96
503.45	24299.15
503.66	24454.79
503.86	24743.56
504.07	24954.50
504.27	24606.34
504.48	25097.86
504.68	25122.43
504.89	25169.54
505.09	24940.16
505.30	25288.32
505.50	25343.61
505.71	25118.34
505.91	25237.12
506.12	25624.18
506.32	25474.68
506.53	25472.64
506.73	25693.82
506.94	25728.63
507.14	25394.81
507.35	25878.13
507.55	26056.31
507.76	26019.44
507.96	25992.82
508.17	26097.27
508.37	25900.66
508.58	25558.65
508.78	26154.61
508.99	26574.44
509.19	26283.63
509.40	26158.70
509.60	26291.82
509.81	26244.72
510.01	26351.21
510.22	26562.15
510.42	26424.94
510.63	26472.04
510.83	26351.21
511.04	26576.49
511.24	26488.43
511.44	26975.84
511.65	26703.46
511.85	26807.91
512.06	27237.98
512.26	26764.90
512.47	27104.87
512.67	27106.91
512.88	27002.47
513.08	26883.69
513.29	27352.67
513.49	27291.23
513.69	27141.73
513.90	27352.67
514.10	27305.57
514.31	27407.97
514.51	27573.85
514.72	27450.97
514.92	27610.71
515.13	27641.43
515.33	27764.31
515.53	27960.92
515.74	27643.48
515.94	27932.25
516.15	28036.69
516.35	27524.70
516.56	28063.32
516.76	27915.86
516.96	27915.86
517.17	28225.11
517.37	28126.80
517.58	28055.12
517.78	28239.44
517.99	28603.98
518.19	28698.19
518.39	28642.89
518.60	28886.60
518.80	28622.41
519.01	28425.81
519.21	28874.31
519.41	28730.95
519.62	28466.77
519.82	28778.06
520.03	29228.61
520.23	29038.15
520.43	29107.78
520.64	29503.04
520.84	29425.22
521.05	29040.20
521.25	29523.52
521.45	29668.92
521.66	29683.26
521.86	29337.15
522.07	29611.58
522.27	29642.30
522.47	29429.31
522.68	30119.48
522.88	30158.39
523.08	30492.21
523.29	30012.98
523.49	30443.06
523.70	30293.55
523.90	30604.84
524.10	30363.18
524.31	30570.03
524.51	30348.85
524.71	31116.84
524.92	30991.91
525.12	30942.76
525.33	30905.90
525.53	30971.43
525.73	31188.52
525.94	31491.62
526.14	30735.92
526.34	31225.38
526.55	31235.62
526.75	31415.84
526.95	31751.71
527.16	31610.40
527.36	31770.14
527.56	31856.15
527.77	32241.17
527.97	31677.98
528.17	31938.07
528.38	32251.41
528.58	32130.58
528.78	32079.38
528.99	32243.22
529.19	32318.99
529.39	32247.32
529.60	32566.80
529.80	32648.72
530.00	32704.01
530.21	32828.94
530.41	33189.38
530.61	32847.37
530.82	33648.13
531.02	32843.27
531.22	33388.03
531.43	33347.08
531.63	33547.78
531.83	33730.05
532.04	34258.42
532.24	33633.79
532.44	33996.28
532.64	34110.97
532.85	34395.64
533.05	34180.60
533.25	34332.15
533.46	34407.92
533.66	34805.23
533.86	34559.47
534.07	34665.97
534.27	35061.22
534.47	35083.75
534.67	35284.45
534.88	34907.63
535.08	35128.81
535.28	35560.93
535.49	35614.18
535.69	35349.99
535.89	35663.33
536.09	35976.67
536.30	35728.86
536.50	35909.08
536.70	35950.04
536.91	35823.07
537.11	36359.64
537.31	36294.10
537.51	36457.94
537.72	36597.20
537.92	36947.40
538.12	36980.17
538.32	36650.45
538.53	37080.52
538.73	36949.45
538.93	36652.50
539.13	36836.81
539.34	37154.25
539.54	36902.35
539.74	37488.07
539.94	37072.33
540.15	37019.08
540.35	37199.30
540.55	37662.15
540.75	37877.18
540.96	37457.35
541.16	37889.47
541.36	37676.48
541.56	38305.21
541.77	38321.59
541.97	38329.78
542.17	38102.46
542.37	38139.32
542.58	38421.94
542.78	38145.47
542.98	38376.89
543.18	39017.90
543.38	39093.68
543.59	38567.35
543.79	38655.41
543.99	38714.80
544.19	39097.77
544.40	39200.17
544.60	39859.62
544.80	39146.92
545.00	39380.39
545.20	39394.73
545.41	39536.04
545.61	39173.55
545.81	39773.60
546.01	39951.77
546.21	39577.00
546.42	39466.41
546.62	40078.75
546.82	39742.88
547.02	39753.12
547.22	40277.40
547.43	40027.55
547.63	40011.17
547.83	40324.50
548.03	39937.44
548.23	40230.30
548.44	40431.00
548.64	40199.58
548.84	40719.76
549.04	40738.19
549.24	40662.42
549.45	41332.11
549.65	40861.07
549.85	40781.20
550.05	40963.47
550.25	40838.54
550.45	41561.48
550.66	41162.12
550.86	40926.61
551.06	41244.04
551.26	41190.80
551.46	41481.61
551.66	41375.11
551.87	41495.94
552.07	41608.58
552.27	41555.33
552.47	41739.65
552.67	41753.99
552.87	41837.95
553.07	41985.41
553.28	41936.26
553.48	41704.84
553.68	42175.87
553.88	42775.92
554.08	42186.11
554.28	42173.82
554.48	41856.39
554.69	42507.64
554.89	42382.71
555.09	42126.72
555.29	42186.11
555.49	42538.36
555.69	42290.55
555.89	42374.52
556.10	42771.83
556.30	42511.74
556.50	42935.66
556.70	42888.56
556.90	42900.85
557.10	42665.33
557.30	42079.61
557.50	43005.30
557.70	42970.48
557.91	43283.82
558.11	43214.19
558.31	43316.59
558.51	42845.55
558.71	43513.19
558.91	43316.59
559.11	42900.85
559.31	43050.35
559.51	43066.73
559.72	43529.58
559.92	43367.79
560.12	43193.71
560.32	43402.60
560.52	43257.20
560.72	43652.45
560.92	44143.97
561.12	44019.04
561.32	44492.12
561.52	43838.82
561.72	44408.15
561.93	43820.39
562.13	43978.08
562.33	43928.93
562.53	44488.03
562.73	43881.83
562.93	44256.60
563.13	44461.40
563.33	44041.57
563.53	44412.25
563.73	43900.26
563.93	44537.18
564.13	44631.38
564.33	44494.17
564.53	44402.01
564.74	44608.86
564.94	44309.85
565.14	44459.35
565.34	44127.58
565.54	44539.22
565.74	44623.19
565.94	45022.54
566.14	44694.87
566.34	44719.45
566.54	45380.94
566.74	44823.89
566.94	44965.20
567.14	45065.55
567.34	44840.28
567.54	44983.63
567.74	44815.70
567.94	44930.39
568.14	45190.48
568.34	45186.38
568.54	45272.40
568.74	45397.32
568.94	45022.54
569.14	45772.10
569.34	45458.76
569.54	45167.95
569.75	45274.45
569.95	45352.27
570.15	45745.48
570.35	45372.75
570.55	45315.40
570.75	45729.09
570.95	45659.46
571.15	45718.85
571.35	45505.87
571.55	45753.67
571.75	45575.50
571.95	46116.16
572.15	45858.12
572.35	45897.03
572.55	45876.55
572.75	45503.82
572.95	45999.43
573.15	46429.50
573.35	46009.67
573.55	46017.86
573.75	46216.51
573.95	46261.57
574.15	46044.48
574.35	46638.39
574.55	45964.61
574.75	45913.41
574.95	46415.16
575.15	46282.05
575.34	46435.64
575.54	46916.92
575.74	46730.55
575.94	46585.15
576.14	46593.34
576.34	46816.57
576.54	46835.00
576.74	46646.58
576.94	46869.81
577.14	47193.39
577.34	47383.85
577.54	46583.10
577.74	47412.52
577.94	46746.93
578.14	46953.78
578.34	47068.47
578.54	47052.08
578.74	47174.96
578.94	47420.72
579.14	47129.90
579.34	47404.33
579.54	47547.69
579.74	47723.82
579.94	47633.71
580.13	48022.82
580.33	47129.90
580.53	47664.42
580.73	48190.75
580.93	47983.91
581.13	47562.03
581.33	48047.39
581.53	47764.78
581.73	48137.51
581.93	48182.56
582.13	48051.49
582.33	48299.30
582.53	48153.89
582.73	48168.22
582.92	48409.89
583.12	48698.65
583.32	48438.56
583.52	48352.54
583.72	48405.79
583.92	48377.12
584.12	48469.28
584.32	48999.70
584.52	48749.85
584.72	49083.67
584.92	48799.00
585.11	49265.94
585.31	48493.85
585.51	49040.66
585.71	48706.84
585.91	49038.61
586.11	48823.58
586.31	48799.00
586.51	48725.27
586.71	49194.26
586.91	49585.42
587.10	49358.09
587.30	49362.19
587.50	49626.38
587.70	49593.61
587.90	49538.32
588.10	49179.92
588.30	49616.14
588.50	49806.60
