SpectraSuite Data File
++++++++++++++++++++++++++++++++++++
Date: Fri Jun 02 14:53:30 CEST 2017
User: INFO_000
Dark Spectrum Present: No
Reference Spectrum Present: No
Number of Sampled Component Spectra: 1
Spectrometers: USB4H00879
Integration Time (usec): 80000 (USB4H00879)
Spectra Averaged: 1 (USB4H00879)
Boxcar Smoothing: 0 (USB4H00879)
Correct for Electrical Dark: No (USB4H00879)
Strobe/Lamp Enabled: No (USB4H00879)
Correct for Detector Non-linearity: No (USB4H00879)
Correct for Stray Light: No (USB4H00879)
Number of Pixels in Processed Spectrum: 3648
>>>>>Begin Processed Spectral Data<<<<<
345.13	1296.36
345.34	1296.36
345.56	1296.36
345.78	1279.98
345.99	1226.73
346.21	1693.67
346.42	1626.09
346.64	1583.08
346.86	1726.44
347.07	1617.90
347.29	1703.91
347.50	1642.47
347.72	1667.05
347.94	1767.40
348.15	1583.08
348.37	1574.89
348.59	1689.57
348.80	1632.23
349.02	1826.79
349.23	1865.70
349.45	1902.56
349.67	1896.42
349.88	1826.79
350.10	2052.06
350.31	1783.78
350.53	1802.21
350.75	1925.09
350.96	1787.88
351.18	1884.13
351.39	1804.26
351.61	1740.77
351.82	1910.75
352.04	1933.28
352.26	1775.59
352.47	1861.60
352.69	1892.32
352.90	1791.97
353.12	1882.08
353.34	1853.41
353.55	1957.86
353.77	1898.47
353.98	1914.85
354.20	1736.68
354.41	1914.85
354.63	1990.63
354.85	2027.49
355.06	1935.33
355.28	1802.21
355.49	1886.18
355.71	1783.78
355.92	1925.09
356.14	1984.48
356.35	1824.74
356.57	1908.71
356.79	1964.00
357.00	1912.80
357.22	1984.48
357.43	1869.80
357.65	1964.00
357.86	1789.92
358.08	1943.52
358.29	1918.95
358.51	1984.48
358.72	1980.39
358.94	1918.95
359.16	1904.61
359.37	2039.78
359.59	1861.60
359.80	2101.22
360.02	1843.17
360.23	1912.80
360.45	2050.02
360.66	1951.71
360.88	1929.19
361.09	1955.81
361.31	2041.82
361.52	1888.23
361.74	2029.54
361.95	2125.79
362.17	1986.53
362.38	2041.82
362.60	1996.77
362.81	2045.92
363.03	1986.53
363.24	1986.53
363.46	2035.68
363.67	2043.87
363.89	1898.47
364.10	2060.26
364.32	2000.87
364.53	2146.27
364.75	1978.34
364.96	2084.83
365.18	2054.11
365.39	2078.69
365.61	1990.63
365.82	2090.98
366.04	1953.76
366.25	1998.82
366.47	1972.19
366.68	2017.25
366.90	2029.54
367.11	2054.11
367.33	2045.92
367.54	2013.15
367.76	1992.67
367.97	2029.54
368.19	2086.88
368.40	2111.46
368.62	1902.56
368.83	2064.35
369.05	2045.92
369.26	2004.96
369.48	2007.01
369.69	1945.57
369.91	2082.78
370.12	2045.92
370.33	2119.65
370.55	1886.18
370.76	2072.54
370.98	2125.79
371.19	2054.11
371.41	2115.55
371.62	2031.58
371.84	2033.63
372.05	2240.48
372.27	2045.92
372.48	2099.17
372.69	2076.64
372.91	2162.66
373.12	2203.61
373.34	2162.66
373.55	2074.59
373.77	2138.08
373.98	2101.22
374.20	2158.56
374.41	2308.06
374.62	2093.02
374.84	2158.56
375.05	2125.79
375.27	2205.66
375.48	2107.36
375.70	2086.88
375.91	2283.49
376.12	2265.05
376.34	2160.61
376.55	2207.71
376.77	2308.06
376.98	2199.52
377.19	2062.30
377.41	2170.85
377.62	2193.37
377.84	2254.81
378.05	2283.49
378.27	2217.95
378.48	2353.12
378.69	2312.16
378.91	2289.63
379.12	2297.82
379.34	2189.28
379.55	2293.72
379.76	2338.78
379.98	2263.01
380.19	2250.72
380.41	2279.39
380.62	2303.96
380.83	2273.25
381.05	2172.89
381.26	2418.65
381.47	2228.19
381.69	2263.01
381.90	2312.16
382.12	2306.01
382.33	2254.81
382.54	2254.81
382.76	2328.54
382.97	2312.16
383.19	2324.44
383.40	2346.97
383.61	2314.20
383.83	2310.11
384.04	2357.21
384.25	2404.32
384.47	2422.75
384.68	2402.27
384.89	2353.12
385.11	2287.58
385.32	2297.82
385.54	2379.74
385.75	2449.37
385.96	2387.93
386.18	2340.83
386.39	2412.51
386.60	2353.12
386.82	2453.47
387.03	2467.80
387.24	2488.28
387.46	2486.23
387.67	2510.81
387.88	2543.58
388.10	2498.52
388.31	2465.75
388.52	2500.57
388.74	2547.67
388.95	2445.27
389.16	2482.14
389.38	2672.60
389.59	2633.69
389.80	2719.70
390.02	2621.40
390.23	2592.73
390.44	2525.15
390.66	2648.02
390.87	2457.56
391.08	2613.21
391.30	2795.48
391.51	2625.50
391.72	2715.61
391.94	2658.26
392.15	2590.68
392.36	2654.17
392.58	2613.21
392.79	2699.22
393.00	2664.41
393.22	2811.86
393.43	2766.81
393.64	2795.48
393.85	2803.67
394.07	2666.46
394.28	2770.90
394.49	2836.44
394.71	2756.57
394.92	2944.98
395.13	2729.94
395.35	2736.09
395.56	2781.14
395.77	2879.44
395.98	2893.78
396.20	2891.73
396.41	2914.26
396.62	2838.48
396.84	2881.49
397.05	2844.63
397.26	2885.59
397.47	2904.02
397.69	2813.91
397.90	3012.56
398.11	3014.61
398.32	2850.77
398.54	2863.06
398.75	2861.01
398.96	3008.47
399.18	3145.68
399.39	2955.22
399.60	3051.47
399.81	2985.94
400.03	2961.36
400.24	3336.14
400.45	3061.71
400.66	3030.99
400.88	3037.14
401.09	3233.74
401.30	3086.29
401.51	3160.02
401.73	3133.39
401.94	3133.39
402.15	3114.96
402.36	3100.62
402.58	3174.35
402.79	3155.92
403.00	3168.21
403.21	3162.06
403.43	3227.60
403.64	3252.17
403.85	3176.40
404.06	3172.30
404.27	3104.72
404.49	3149.78
404.70	3186.64
404.91	3307.47
405.12	3313.61
405.34	3160.02
405.55	3387.34
405.76	3200.98
405.97	3377.10
406.19	3434.44
406.40	3313.61
406.61	3370.96
406.82	3364.81
407.03	3434.44
407.25	3299.28
407.46	3362.76
407.67	3465.16
407.88	3467.21
408.09	3387.34
408.31	3463.12
408.52	3430.35
408.73	3469.26
408.94	3348.43
409.15	3489.74
409.37	3532.75
409.58	3575.75
409.79	3538.89
410.00	3553.23
410.21	3481.55
410.43	3606.47
410.64	3436.49
410.85	3520.46
411.06	3532.75
411.27	3532.75
411.48	3633.10
411.70	3465.16
411.91	3616.71
412.12	3647.43
412.33	3641.29
412.54	3483.59
412.76	3692.49
412.97	3768.26
413.18	3477.45
413.39	3694.54
413.60	3682.25
413.81	3686.34
414.03	3655.62
414.24	3672.01
414.45	3868.61
414.66	3653.58
414.87	3735.50
415.08	3657.67
415.30	3813.32
415.51	3770.31
415.72	3721.16
415.93	3702.73
416.14	3913.67
416.35	3837.89
416.56	3825.61
416.78	3856.33
416.99	3885.00
417.20	3889.09
417.41	3928.00
417.62	3923.91
417.83	4014.02
418.04	3868.61
418.26	3981.25
418.47	3956.68
418.68	3995.59
418.89	4016.07
419.10	4089.79
419.31	4132.80
419.52	4149.18
419.73	4095.94
419.95	4233.15
420.16	3960.77
420.37	3958.72
420.58	4278.21
420.79	4018.11
421.00	4083.65
421.21	4175.81
421.42	4106.18
421.63	4153.28
421.85	4132.80
422.06	4270.01
422.27	4173.76
422.48	4284.35
422.69	4286.40
422.90	4216.77
423.11	4376.51
423.32	4288.45
423.53	4468.67
423.75	4394.94
423.96	4501.44
424.17	4462.52
424.38	4638.65
424.59	4454.33
424.80	4624.31
425.01	4499.39
425.22	4485.05
425.43	4460.48
425.64	4687.80
425.85	4722.62
426.06	4669.37
426.28	4528.06
426.49	4462.52
426.70	4569.02
426.91	4777.91
427.12	4728.76
427.33	4896.69
427.54	4736.95
427.75	4835.25
427.96	4855.73
428.17	4765.62
428.38	4927.41
428.59	4878.26
428.80	4749.24
429.01	4851.64
429.23	4902.84
429.44	5152.69
429.65	5087.15
429.86	4958.13
430.07	4974.52
430.28	4870.07
430.49	5083.06
430.70	5230.51
430.91	5064.63
431.12	5035.96
431.33	5199.79
431.54	5236.66
431.75	5287.86
431.96	5156.79
432.17	5195.70
432.38	5257.14
432.59	5451.69
432.80	5361.58
433.01	5382.06
433.22	5351.34
433.43	5431.21
433.64	5324.72
433.85	5300.14
434.06	5509.04
434.27	5277.62
434.49	5570.48
434.70	5580.71
434.91	5435.31
435.12	5666.73
435.33	5513.13
435.54	5457.84
435.75	5343.15
435.96	5564.33
436.17	5545.90
436.38	5629.87
436.59	5685.16
436.80	5668.78
437.01	5818.28
437.22	5859.24
437.43	5631.91
437.64	5484.46
437.85	5797.80
438.06	5869.48
438.27	5685.16
438.48	5853.09
438.69	5967.78
438.90	5859.24
439.11	5775.27
439.32	5955.49
439.53	5871.53
439.74	6000.55
439.95	5951.40
440.16	5769.13
440.37	5914.53
440.57	5953.45
440.78	6049.70
440.99	6096.80
441.20	5998.50
441.41	5945.25
441.62	6033.32
441.83	5922.73
442.04	6150.05
442.25	6014.88
442.46	6111.14
442.67	6068.13
442.88	6494.11
443.09	5990.31
443.30	6100.90
443.51	6215.59
443.72	6457.25
443.93	6205.35
444.14	6410.14
444.35	6133.67
444.56	6262.69
444.77	6408.09
444.98	6518.68
445.19	6381.47
445.40	6387.61
445.61	6332.32
445.81	6487.96
446.02	6461.34
446.23	6512.54
446.44	6440.86
446.65	6592.41
446.86	6447.01
447.07	6592.41
447.28	6596.51
447.49	6653.85
447.70	6600.60
447.91	6762.39
448.12	6530.97
448.33	6692.76
448.54	6717.34
448.74	6725.53
448.95	6770.58
449.16	6807.45
449.37	7079.83
449.58	6717.34
449.79	7020.44
450.00	6682.52
450.21	7012.24
450.42	7186.32
450.63	6999.96
450.84	6924.18
451.05	7006.10
451.25	7128.98
451.46	6915.99
451.67	7153.55
451.88	7163.79
452.09	7032.72
452.30	7059.35
452.51	6991.77
452.72	7294.86
452.93	7600.01
453.13	7079.83
453.34	7241.62
453.55	7425.93
453.76	7544.72
453.97	7856.01
454.18	7298.96
454.39	7538.57
454.60	7608.20
454.81	7425.93
455.01	7708.55
455.22	7483.28
455.43	7696.27
455.64	7913.35
455.85	8056.71
456.06	7917.45
456.27	7739.27
456.48	7913.35
456.68	7972.74
456.89	7923.59
457.10	8091.52
457.31	8021.89
457.52	7868.30
457.73	8040.33
457.94	8234.88
458.14	7956.36
458.35	8548.22
458.56	8372.10
458.77	8286.08
458.98	8376.19
459.19	8589.18
459.39	8601.47
459.60	8484.73
459.81	8329.09
460.02	8621.95
460.23	8685.44
460.44	8859.51
460.65	8820.60
460.85	8796.03
461.06	8816.51
461.27	8425.34
461.48	8974.20
461.69	9260.91
461.89	8603.52
462.10	8902.52
462.31	8742.78
462.52	8916.86
462.73	8970.10
462.94	9310.07
463.14	9140.08
463.35	9043.83
463.56	9535.34
463.77	9475.95
463.98	9273.20
464.18	9295.73
464.39	9744.24
464.60	9510.77
464.81	9727.85
465.02	9500.53
465.23	9942.89
465.43	9824.11
465.64	9826.15
465.85	9885.55
466.06	9662.32
466.27	10176.36
466.47	10108.77
466.68	10260.32
466.89	10012.52
467.10	10268.52
467.30	10149.73
467.51	10364.77
467.72	10800.99
467.93	10170.21
468.14	10536.80
468.34	10647.39
468.55	10690.40
468.76	10800.99
468.97	10682.20
469.17	10850.14
469.38	10995.54
469.59	11071.32
469.80	10946.39
470.01	11046.74
470.21	10977.11
470.42	11310.93
470.63	11419.47
470.84	11290.45
471.04	11530.06
471.25	11515.73
471.46	11534.16
471.67	11646.80
471.87	11509.58
472.08	11867.98
472.29	12076.87
472.50	11671.37
472.70	11874.12
472.91	11853.64
473.12	12197.70
473.33	12123.98
473.53	12293.96
473.74	12220.23
473.95	12541.76
474.16	12549.95
474.36	12427.07
474.57	12652.35
474.78	12961.59
474.99	12789.56
475.19	12760.89
475.40	13012.79
475.61	13109.05
475.81	13430.58
476.02	13338.42
476.23	13317.94
476.44	13426.48
476.64	13674.29
476.85	14026.54
477.06	13639.47
477.27	14157.61
477.47	13897.52
477.68	14112.55
477.89	14266.15
478.09	14282.53
478.30	14493.47
478.51	14305.06
478.71	14491.43
478.92	14442.28
479.13	14651.17
479.34	15027.99
479.54	14823.20
479.75	14880.54
479.96	14907.16
480.16	15036.19
480.37	15302.42
480.58	15177.50
480.78	15623.95
480.99	15335.19
481.20	15597.33
481.41	15978.25
481.61	15781.65
481.82	16047.88
482.03	15773.46
482.23	16103.18
482.44	16074.51
482.65	16387.85
482.85	16422.66
483.06	16377.61
483.27	16199.43
483.47	16238.34
483.68	16856.83
483.89	16742.14
484.09	16592.64
484.30	16803.58
484.51	16918.27
484.71	17260.28
484.92	17223.42
485.13	17161.98
485.33	17409.78
485.54	17272.57
485.75	17276.66
485.95	17759.98
486.16	17573.62
486.37	17993.45
486.57	17921.77
486.78	17768.18
486.98	17934.06
487.19	18087.66
487.40	18173.67
487.60	18257.64
487.81	18487.01
488.02	18368.23
488.22	18548.45
488.43	18847.46
488.64	18470.63
488.84	18736.87
489.05	19148.51
489.25	18806.50
489.46	19230.43
489.67	18927.33
489.87	19181.28
490.08	19451.61
490.29	19547.86
490.49	19922.64
490.70	19916.50
490.90	19807.95
491.11	19730.13
491.32	19963.60
491.52	19877.58
491.73	20010.70
491.94	19969.74
492.14	20035.28
492.35	20184.78
492.55	20348.62
492.76	20489.93
492.97	20836.03
493.17	20430.54
493.38	20647.62
493.58	21075.65
493.79	20952.77
494.00	20958.91
494.20	20772.55
494.41	21096.13
494.61	21278.40
494.82	21331.64
495.02	21614.26
495.23	21679.80
495.44	21276.35
495.64	21935.79
495.85	21888.69
496.05	21919.41
496.26	21810.87
496.47	22171.31
496.67	22023.86
496.88	22365.87
497.08	22124.21
497.29	22462.12
497.49	22238.89
497.70	22525.61
497.91	22714.02
498.11	22498.98
498.32	22687.40
498.52	23119.52
498.73	23019.17
498.93	22714.02
499.14	22957.73
499.34	22943.39
499.55	23176.86
499.76	22976.16
499.96	23103.14
500.17	23219.87
500.37	23723.67
500.58	23297.69
500.78	23666.33
500.99	23561.88
501.19	23709.33
501.40	23633.56
501.60	23471.77
501.81	23891.60
502.02	23758.49
502.22	23891.60
502.43	23781.01
502.63	23846.55
502.84	24190.61
503.04	24149.65
503.25	24120.98
503.45	24383.12
503.66	24221.33
503.86	24331.92
504.07	24923.78
504.27	24372.88
504.48	24819.33
504.68	24624.78
504.89	24960.64
505.09	25015.94
505.30	25284.22
505.50	24948.36
505.71	25245.31
505.91	25208.45
506.12	24931.97
506.32	25450.11
506.53	25282.17
506.73	25575.03
506.94	25591.42
507.14	25695.86
507.35	25437.82
507.55	25695.86
507.76	25751.16
507.96	25654.90
508.17	25689.72
508.37	25577.08
508.58	25796.21
508.78	26119.79
508.99	26259.06
509.19	25865.85
509.40	26214.00
509.60	26183.28
509.81	26576.49
510.01	26226.29
510.22	26203.76
510.42	26107.51
510.63	26715.75
510.83	26340.97
511.04	26478.19
511.24	26556.01
511.44	26543.72
511.65	26721.90
511.85	26719.85
512.06	26871.40
512.26	27188.83
512.47	26941.03
512.67	26981.99
512.88	26832.49
513.08	26961.51
513.29	27242.08
513.49	26973.80
513.69	27463.26
513.90	27428.45
514.10	27387.49
514.31	27383.39
514.51	27524.70
514.72	27319.90
514.92	27674.20
515.13	27534.94
515.33	27647.58
515.53	27758.17
515.74	27526.75
515.94	28350.03
516.15	28001.88
516.35	27891.29
516.56	28114.52
516.76	27897.43
516.96	28241.49
517.17	28505.68
517.37	28270.16
517.58	28325.46
517.78	28630.60
517.99	28530.25
518.19	28446.29
518.39	28720.71
518.60	28829.26
518.80	28407.37
519.01	28950.09
519.21	29097.54
519.41	28812.87
519.62	28888.65
519.82	29310.53
520.03	29029.96
520.23	29447.74
520.43	29109.83
520.64	29529.66
520.84	29666.88
521.05	29253.19
521.25	29681.21
521.45	29695.55
521.66	30086.71
521.86	29898.30
522.07	29795.90
522.27	30164.53
522.47	29875.77
522.68	30158.39
522.88	30111.28
523.08	30426.67
523.29	30772.78
523.49	30381.62
523.70	30404.14
523.90	30828.07
524.10	30426.67
524.31	30641.71
524.51	30678.57
524.71	31290.91
524.92	31194.66
525.12	31284.77
525.33	31108.65
525.53	31206.95
525.73	31639.07
525.94	31673.88
526.14	31475.23
526.34	31733.28
526.55	31520.29
526.75	31888.92
526.95	32165.40
527.16	31653.40
527.36	31872.54
527.56	32110.10
527.77	32513.55
527.97	32673.29
528.17	32570.90
528.38	32681.49
528.58	32261.65
528.78	32546.32
528.99	32736.78
529.19	33142.28
529.39	32833.04
529.60	33287.68
529.80	33166.85
530.00	33127.94
530.21	33304.07
530.41	33576.45
530.61	33553.92
530.82	33613.31
531.02	33381.89
531.22	33977.85
531.43	33711.61
531.63	33875.45
531.83	34272.76
532.04	34600.43
532.24	34239.99
532.44	34530.80
532.64	34600.43
532.85	34682.35
533.05	34655.73
533.25	34659.82
533.46	34706.93
533.66	35151.34
533.86	35096.04
534.07	35321.32
534.27	35349.99
534.47	35800.54
534.67	35438.05
534.88	35462.63
535.08	35616.22
535.28	35728.86
535.49	35763.68
535.69	36261.33
535.89	35579.36
536.09	35950.04
536.30	36386.26
536.50	35984.86
536.70	36382.16
536.91	36599.25
537.11	36535.76
537.31	36222.42
537.51	36732.37
537.72	37012.94
537.92	36914.64
538.12	37410.25
538.32	37293.51
538.53	37559.75
538.73	37250.50
538.93	37078.47
539.13	37234.12
539.34	37731.78
539.54	37402.05
539.74	37785.02
539.94	37582.27
540.15	37852.61
540.35	38108.60
540.55	38028.73
540.75	38028.73
540.96	38188.47
541.16	38297.02
541.36	38172.09
541.56	38086.07
541.77	38794.67
541.97	38567.35
542.17	38702.51
542.37	38933.93
542.58	39095.72
542.78	38686.13
542.98	39183.79
543.18	39531.94
543.38	38917.55
543.59	39267.75
543.79	39323.05
543.99	38753.71
544.19	39245.23
544.40	39155.11
544.60	39450.02
544.80	39435.69
545.00	39744.93
545.20	39744.93
545.41	39759.27
545.61	39882.14
545.81	40185.24
546.01	40527.25
546.21	40310.17
546.42	39908.77
546.62	40357.27
546.82	39955.87
547.02	40066.46
547.22	40244.63
547.43	40246.68
547.63	40678.80
547.83	40787.35
548.03	40199.58
548.23	40877.46
548.44	40523.16
548.64	40801.68
548.84	40777.11
549.04	40920.46
549.24	40965.52
549.45	41196.94
549.65	40961.42
549.85	40752.53
550.05	41323.91
550.25	41166.22
550.45	41708.93
550.66	41145.74
550.86	41051.53
551.06	41522.57
551.26	41842.05
551.46	41792.90
551.66	41592.20
551.87	41616.77
552.07	41923.97
552.27	41665.92
552.47	42059.13
552.67	42130.81
552.87	41739.65
553.07	41991.55
553.28	41479.56
553.48	42087.81
553.68	42052.99
553.88	42282.36
554.08	41921.92
554.28	42153.34
554.48	42126.72
554.69	42343.80
554.89	42278.27
555.09	42501.50
555.29	42104.19
555.49	42308.99
555.69	42356.09
555.89	42450.30
556.10	42587.51
556.30	42415.48
556.50	42892.66
556.70	42569.08
556.90	42573.17
557.10	42931.57
557.30	42382.71
557.50	42966.38
557.70	43500.90
557.91	43431.27
558.11	42843.51
558.31	43064.69
558.51	42843.51
558.71	42945.90
558.91	42810.74
559.11	43054.45
559.31	43158.89
559.51	43238.76
559.72	43214.19
559.92	43332.97
560.12	43208.04
560.32	43375.98
560.52	43025.78
560.72	43382.12
560.92	43570.54
561.12	43373.93
561.32	44107.10
561.52	43713.89
561.72	43730.28
561.93	43320.68
562.13	43574.63
562.33	43445.61
562.53	44160.35
562.73	43283.82
562.93	43709.80
563.13	43779.43
563.33	44223.84
563.53	43801.96
563.73	43738.47
563.93	43517.29
564.13	44375.39
564.33	44250.46
564.53	44002.66
564.74	44129.63
564.94	43564.39
565.14	44014.94
565.34	44000.61
565.54	44004.70
565.74	44291.42
565.94	44062.05
566.14	44129.63
566.34	44256.60
566.54	44166.49
566.74	44479.83
566.94	44301.66
567.14	44309.85
567.34	43992.42
567.54	44827.99
567.74	44641.62
567.94	44236.12
568.14	44846.42
568.34	44721.49
568.54	44979.54
568.74	44606.81
568.94	44475.74
569.14	45094.22
569.34	44746.07
569.54	45061.46
569.75	44678.49
569.95	44619.10
570.15	45077.84
570.35	44797.27
570.55	45221.20
570.75	45387.08
570.95	45313.36
571.15	45227.34
571.35	45221.20
571.55	45423.95
571.75	45284.68
571.95	45327.69
572.15	45282.64
572.35	45153.62
572.55	45192.53
572.75	45415.76
572.95	45296.97
573.15	45610.31
573.35	45653.32
573.55	45161.81
573.75	45376.84
573.95	45862.21
574.15	44930.39
574.35	45888.84
574.55	45696.33
574.75	45600.07
574.95	45980.99
575.15	45684.04
575.34	45507.91
575.54	45923.65
575.74	46126.40
575.94	46167.36
576.14	46089.54
576.34	46497.08
576.54	46228.80
576.74	46161.22
576.94	46028.10
577.14	46923.06
577.34	46558.52
577.54	46265.66
577.74	46409.02
577.94	46732.60
578.14	46568.76
578.34	46904.63
578.54	46067.01
578.74	46603.58
578.94	47244.59
579.14	46464.32
579.34	46292.29
579.54	47021.36
579.74	46982.45
579.94	47246.64
580.13	47060.27
580.33	47672.62
580.53	46748.98
580.73	46832.95
580.93	47183.15
581.13	47179.06
581.33	47396.14
581.53	47398.19
581.73	47371.57
581.93	47734.06
582.13	47596.84
582.33	47693.10
582.53	47701.29
582.73	47967.52
582.92	47461.68
583.12	47754.54
583.32	47779.11
583.52	47766.82
583.72	48053.54
583.92	47994.15
584.12	47994.15
584.32	48483.61
584.52	48352.54
584.72	48178.46
584.92	48395.55
585.11	48405.79
585.31	47629.61
585.51	48444.70
585.71	47807.78
585.91	48758.04
586.11	47977.76
586.31	48131.36
586.51	48358.69
586.71	48465.18
586.91	48870.68
587.10	49194.26
587.30	48985.36
587.50	48848.15
587.70	49554.70
587.90	48809.24
588.10	49081.62
588.30	48710.94
588.50	48944.41
