SpectraSuite Data File
++++++++++++++++++++++++++++++++++++
Date: Fri Jun 02 14:53:32 CEST 2017
User: INFO_000
Dark Spectrum Present: No
Reference Spectrum Present: No
Number of Sampled Component Spectra: 1
Spectrometers: USB4H00879
Integration Time (usec): 80000 (USB4H00879)
Spectra Averaged: 1 (USB4H00879)
Boxcar Smoothing: 0 (USB4H00879)
Correct for Electrical Dark: No (USB4H00879)
Strobe/Lamp Enabled: No (USB4H00879)
Correct for Detector Non-linearity: No (USB4H00879)
Correct for Stray Light: No (USB4H00879)
Number of Pixels in Processed Spectrum: 3648
>>>>>Begin Processed Spectral Data<<<<<
345.13	1228.78
345.34	1228.78
345.56	1228.78
345.78	1288.17
345.99	1282.03
346.21	1748.97
346.42	1689.57
346.64	1658.85
346.86	1746.92
347.07	1644.52
347.29	1724.39
347.50	1607.66
347.72	1716.20
347.94	1802.21
348.15	1572.84
348.37	1636.33
348.59	1746.92
348.80	1738.73
349.02	1763.30
349.23	1904.61
349.45	1769.44
349.67	1912.80
349.88	1789.92
350.10	1994.72
350.31	1837.03
350.53	1767.40
350.75	1992.67
350.96	1771.49
351.18	1875.94
351.39	1914.85
351.61	1775.59
351.82	1951.71
352.04	1855.46
352.26	1873.89
352.47	1970.15
352.69	1931.23
352.90	1863.65
353.12	1832.93
353.34	1822.69
353.55	1996.77
353.77	1906.66
353.98	1804.26
354.20	1720.29
354.41	1918.95
354.63	1892.32
354.85	1970.15
355.06	1904.61
355.28	1767.40
355.49	1880.04
355.71	1867.75
355.92	1902.56
356.14	1955.81
356.35	1923.04
356.57	1908.71
356.79	1953.76
357.00	1941.47
357.22	1916.90
357.43	1839.08
357.65	2011.11
357.86	1912.80
358.08	1904.61
358.29	1951.71
358.51	1929.19
358.72	1953.76
358.94	1978.34
359.16	1955.81
359.37	1955.81
359.59	1984.48
359.80	2066.40
360.02	1988.58
360.23	1953.76
360.45	2011.11
360.66	1908.71
360.88	1970.15
361.09	1886.18
361.31	2002.91
361.52	1951.71
361.74	2047.97
361.95	2009.06
362.17	1918.95
362.38	2109.41
362.60	1992.67
362.81	2029.54
363.03	1914.85
363.24	1918.95
363.46	2043.87
363.67	2076.64
363.89	2031.58
364.10	1988.58
364.32	1959.91
364.53	2064.35
364.75	1908.71
364.96	2025.44
365.18	2090.98
365.39	2052.06
365.61	1982.43
365.82	2158.56
366.04	2070.50
366.25	1880.04
366.47	2086.88
366.68	2011.11
366.90	1955.81
367.11	2117.60
367.33	2068.45
367.54	2054.11
367.76	1933.28
367.97	2101.22
368.19	2039.78
368.40	2121.70
368.62	2004.96
368.83	2019.30
369.05	2007.01
369.26	2000.87
369.48	2041.82
369.69	2060.26
369.91	2056.16
370.12	2017.25
370.33	2123.74
370.55	1970.15
370.76	1988.58
370.98	2140.13
371.19	2041.82
371.41	2060.26
371.62	2039.78
371.84	2007.01
372.05	2240.48
372.27	2068.45
372.48	2121.70
372.69	2072.54
372.91	2244.57
373.12	2093.02
373.34	2095.07
373.55	2115.55
373.77	2197.47
373.98	2127.84
374.20	2072.54
374.41	2201.57
374.62	2086.88
374.84	2156.51
375.05	2207.71
375.27	2125.79
375.48	2236.38
375.70	2181.09
375.91	2291.68
376.12	2342.88
376.34	2131.94
376.55	2176.99
376.77	2211.81
376.98	2103.26
377.19	2158.56
377.41	2211.81
377.62	2275.29
377.84	2246.62
378.05	2230.24
378.27	2213.85
378.48	2238.43
378.69	2314.20
378.91	2320.35
379.12	2199.52
379.34	2265.05
379.55	2236.38
379.76	2287.58
379.98	2250.72
380.19	2224.09
380.41	2252.77
380.62	2367.45
380.83	2308.06
381.05	2197.47
381.26	2359.26
381.47	2195.42
381.69	2312.16
381.90	2396.12
382.12	2369.50
382.33	2293.72
382.54	2312.16
382.76	2338.78
382.97	2334.68
383.19	2265.05
383.40	2349.02
383.61	2363.36
383.83	2293.72
384.04	2392.03
384.25	2346.97
384.47	2355.16
384.68	2400.22
384.89	2256.86
385.11	2367.45
385.32	2349.02
385.54	2402.27
385.75	2330.59
385.96	2486.23
386.18	2492.38
386.39	2377.69
386.60	2420.70
386.82	2449.37
387.03	2410.46
387.24	2449.37
387.46	2510.81
387.67	2596.82
387.88	2514.91
388.10	2492.38
388.31	2418.65
388.52	2641.88
388.74	2478.04
388.95	2461.66
389.16	2496.47
389.38	2500.57
389.59	2648.02
389.80	2613.21
390.02	2594.78
390.23	2688.98
390.44	2506.71
390.66	2547.67
390.87	2508.76
391.08	2658.26
391.30	2711.51
391.51	2609.11
391.72	2678.74
391.94	2619.35
392.15	2631.64
392.36	2672.60
392.58	2666.46
392.79	2697.17
393.00	2803.67
393.22	2740.18
393.43	2715.61
393.64	2901.97
393.85	2752.47
394.07	2813.91
394.28	2709.46
394.49	2832.34
394.71	2781.14
394.92	2871.25
395.13	2738.13
395.35	2633.69
395.56	2781.14
395.77	2818.00
395.98	2764.76
396.20	2885.59
396.41	2846.68
396.62	2969.55
396.84	2824.15
397.05	2822.10
397.26	2889.68
397.47	3020.75
397.69	2885.59
397.90	3063.76
398.11	3004.37
398.32	2848.72
398.54	2852.82
398.75	2875.35
398.96	2908.12
399.18	3084.24
399.39	3145.68
399.60	3000.27
399.81	2987.99
400.03	2990.03
400.24	3289.04
400.45	3033.04
400.66	3055.57
400.88	3241.93
401.09	3250.13
401.30	3061.71
401.51	3092.43
401.73	3071.95
401.94	3133.39
402.15	3192.78
402.36	3155.92
402.58	3278.80
402.79	3147.73
403.00	3213.26
403.21	3192.78
403.43	3260.37
403.64	3266.51
403.85	3108.82
404.06	3215.31
404.27	3026.90
404.49	3258.32
404.70	3276.75
404.91	3385.29
405.12	3276.75
405.34	3276.75
405.55	3438.54
405.76	3121.10
405.97	3280.85
406.19	3416.01
406.40	3284.94
406.61	3387.34
406.82	3420.11
407.03	3379.15
407.25	3266.51
407.46	3411.92
407.67	3508.17
407.88	3491.79
408.09	3368.91
408.31	3387.34
408.52	3426.25
408.73	3373.00
408.94	3340.24
409.15	3448.78
409.37	3491.79
409.58	3538.89
409.79	3612.62
410.00	3575.75
410.21	3448.78
410.43	3444.68
410.64	3483.59
410.85	3553.23
411.06	3647.43
411.27	3592.14
411.48	3629.00
411.70	3588.04
411.91	3633.10
412.12	3657.67
412.33	3614.66
412.54	3475.40
412.76	3688.39
412.97	3768.26
413.18	3626.95
413.39	3721.16
413.60	3776.45
413.81	3700.68
414.03	3698.63
414.24	3649.48
414.45	3780.55
414.66	3551.18
414.87	3817.41
415.08	3751.88
415.30	3684.30
415.51	3880.90
415.72	3723.21
415.93	3860.42
416.14	3745.73
416.35	3813.32
416.56	3887.04
416.78	3889.09
416.99	3770.31
417.20	3889.09
417.41	3993.54
417.62	3917.76
417.83	4048.83
418.04	3966.92
418.26	3991.49
418.47	4059.07
418.68	4065.22
418.89	4016.07
419.10	4069.31
419.31	4026.31
419.52	4075.46
419.73	4165.57
419.95	4126.66
420.16	4046.79
420.37	4290.49
420.58	4014.02
420.79	4034.50
421.00	4208.58
421.21	4147.14
421.42	4087.75
421.63	4054.98
421.85	4177.86
422.06	4237.25
422.27	4151.23
422.48	4212.67
422.69	4302.78
422.90	4282.30
423.11	4349.89
423.32	4241.34
423.53	4411.32
423.75	4360.13
423.96	4493.24
424.17	4417.47
424.38	4601.79
424.59	4458.43
424.80	4632.51
425.01	4489.15
425.22	4515.77
425.43	4538.30
425.64	4530.11
425.85	4673.46
426.06	4540.35
426.28	4665.27
426.49	4448.19
426.70	4689.85
426.91	4562.87
427.12	4693.94
427.33	4759.48
427.54	4581.31
427.75	4675.51
427.96	4988.85
428.17	4829.11
428.38	4845.49
428.59	4886.45
428.80	4702.14
429.01	4861.88
429.23	4904.89
429.44	4964.28
429.65	4982.71
429.86	5101.49
430.07	4732.86
430.28	4970.42
430.49	5029.81
430.70	5083.06
430.91	5173.17
431.12	5058.48
431.33	5136.31
431.54	5195.70
431.75	5134.26
431.96	5181.36
432.17	5330.86
432.38	5087.15
432.59	5300.14
432.80	5246.90
433.01	5289.90
433.22	5377.97
433.43	5349.29
433.64	5287.86
433.85	5265.33
434.06	5443.50
434.27	5416.88
434.49	5400.49
434.70	5552.04
434.91	5369.77
435.12	5613.48
435.33	5588.91
435.54	5509.04
435.75	5384.11
435.96	5515.18
436.17	5511.08
436.38	5638.06
436.59	5810.09
436.80	5662.63
437.01	5834.66
437.22	5892.01
437.43	5599.15
437.64	5513.13
437.85	5765.03
438.06	5875.62
438.27	5771.18
438.48	5789.61
438.69	5930.92
438.90	5769.13
439.11	5805.99
439.32	5975.97
439.53	5894.05
439.74	5795.75
439.95	5918.63
440.16	5973.92
440.37	6131.62
440.57	5838.76
440.78	5973.92
440.99	5953.45
441.20	6154.15
441.41	5975.97
441.62	6154.15
441.83	5908.39
442.04	6164.39
442.25	6082.47
442.46	6031.27
442.67	6297.50
442.88	6530.97
443.09	6000.55
443.30	6061.99
443.51	6309.79
443.72	6397.85
443.93	6229.92
444.14	6653.85
444.35	6176.67
444.56	6326.18
444.77	6346.66
444.98	6500.25
445.19	6533.02
445.40	6467.49
445.61	6365.09
445.81	6537.12
446.02	6602.65
446.23	6623.13
446.44	6512.54
446.65	6569.88
446.86	6664.09
447.07	6872.98
447.28	6639.51
447.49	6678.43
447.70	6590.36
447.91	6555.55
448.12	6659.99
448.33	6883.22
448.54	6737.82
448.74	6713.24
448.95	6840.22
449.16	6664.09
449.37	6987.67
449.58	6934.42
449.79	7051.16
450.00	6819.74
450.21	7085.97
450.42	7176.08
450.63	7045.01
450.84	7055.25
451.05	7118.74
451.25	7090.07
451.46	7067.54
451.67	7157.65
451.88	7366.54
452.09	7270.29
452.30	7202.71
452.51	7131.03
452.72	7589.77
452.93	7692.17
453.13	7184.27
453.34	7352.21
453.55	7669.64
453.76	7432.08
453.97	7733.13
454.18	7571.34
454.39	7679.88
454.60	7532.43
454.81	7825.29
455.01	7731.08
455.22	7417.74
455.43	7665.55
455.64	7909.26
455.85	7870.34
456.06	8021.89
456.27	7884.68
456.48	7796.62
456.68	7997.32
456.89	8015.75
457.10	8195.97
457.31	8148.87
457.52	8167.30
457.73	8048.52
457.94	8304.51
458.14	7923.59
458.35	8415.10
458.56	8368.00
458.77	8116.10
458.98	8456.06
459.19	8376.19
459.39	8517.50
459.60	8490.88
459.81	8445.82
460.02	8583.04
460.23	8728.44
460.44	8757.11
460.65	8765.31
460.85	8927.10
461.06	8890.23
461.27	8638.33
461.48	9111.41
461.69	9052.02
461.89	8734.59
462.10	8988.53
462.31	8791.93
462.52	8851.32
462.73	9052.02
462.94	9478.00
463.14	9125.75
463.35	9357.17
463.56	9719.66
463.77	9297.78
463.98	9320.31
464.18	9488.24
464.39	9461.62
464.60	9664.36
464.81	9686.89
465.02	9670.51
465.23	9662.32
465.43	9731.95
465.64	10108.77
465.85	9887.59
466.06	9989.99
466.27	10207.08
466.47	10108.77
466.68	10010.47
466.89	10051.43
467.10	10237.80
467.30	9977.70
467.51	10217.32
467.72	10424.16
467.93	10422.11
468.14	10446.69
468.34	10737.50
468.55	10727.26
468.76	10712.92
468.97	10532.70
469.17	10897.24
469.38	10981.21
469.59	10966.87
469.80	10760.03
470.01	10796.89
470.21	10964.82
470.42	11122.52
470.63	11190.10
470.84	11190.10
471.04	11177.81
471.25	11294.55
471.46	11214.68
471.67	11732.81
471.87	11509.58
472.08	11620.17
472.29	11667.28
472.50	11562.83
472.70	11698.00
472.91	11704.14
473.12	11910.99
473.33	11896.65
473.53	12357.44
473.74	12001.10
473.95	12367.68
474.16	12543.81
474.36	12605.25
474.57	12715.84
474.78	12721.98
474.99	12662.59
475.19	12844.86
475.40	13078.33
475.61	12963.64
475.81	13152.06
476.02	13274.93
476.23	13008.70
476.44	13270.84
476.64	13432.63
476.85	13512.50
477.06	13342.52
477.27	13838.12
477.47	13872.94
477.68	13905.71
477.89	14165.80
478.09	14083.88
478.30	13887.28
478.51	14225.19
478.71	14419.75
478.92	14409.51
479.13	14731.04
479.34	14593.83
479.54	14640.93
479.75	14782.24
479.96	14661.41
480.16	15064.86
480.37	15007.52
480.58	15200.02
480.78	15224.60
480.99	15169.30
481.20	15589.14
481.41	15503.12
481.61	15519.51
481.82	15787.79
482.03	15773.46
482.23	15763.22
482.44	16047.88
482.65	15929.10
482.85	16211.72
483.06	16035.60
483.27	16400.13
483.47	16242.44
483.68	16574.21
483.89	16566.02
484.09	16535.30
484.30	16977.66
484.51	16871.17
484.71	16746.24
484.92	17121.02
485.13	16951.04
485.33	17184.51
485.54	17129.21
485.75	17485.56
485.95	17467.13
486.16	17385.21
486.37	17759.98
486.57	17565.43
486.78	17604.34
486.98	17751.79
487.19	18079.47
487.40	18173.67
487.60	17979.12
487.81	18294.50
488.02	18018.03
488.22	18415.34
488.43	18388.71
488.64	18857.70
488.84	18650.85
489.05	19136.22
489.25	18925.28
489.46	19146.46
489.67	18990.81
489.87	19416.79
490.08	19136.22
490.29	19373.78
490.49	19517.14
490.70	19949.26
490.90	19912.40
491.11	19373.78
491.32	19738.32
491.52	19824.34
491.73	19957.46
491.94	20192.97
492.14	19992.27
492.35	20270.79
492.55	20369.10
492.76	20182.73
492.97	20522.69
493.17	20610.76
493.38	20883.14
493.58	21036.74
493.79	20844.23
494.00	20782.79
494.20	21006.02
494.41	21214.91
494.61	21309.11
494.82	21272.25
495.02	21225.15
495.23	21698.23
495.44	21677.75
495.64	21753.52
495.85	21753.52
496.05	21749.43
496.26	21657.27
496.47	22226.60
496.67	21999.28
496.88	22195.89
497.08	21878.45
497.29	22496.94
497.49	22257.32
497.70	22222.51
497.91	22582.95
498.11	22861.48
498.32	22888.10
498.52	22824.61
498.73	22988.45
498.93	22914.72
499.14	23113.38
499.34	23131.81
499.55	23361.18
499.76	23404.19
499.96	23461.53
500.17	23412.38
500.37	23471.77
500.58	23625.37
500.78	23746.20
500.99	23813.78
501.19	23738.01
501.40	23950.99
501.60	23621.27
501.81	24014.48
502.02	24325.77
502.22	23916.18
502.43	24206.99
502.63	24344.20
502.84	24213.13
503.04	24147.60
503.25	24448.65
503.45	24499.85
503.66	24458.89
503.86	24530.57
504.07	24626.82
504.27	24655.50
504.48	25239.17
504.68	24991.36
504.89	24974.98
505.09	25089.67
505.30	25140.86
505.50	25222.78
505.71	25280.13
505.91	25202.30
506.12	25624.18
506.32	25708.15
506.53	25185.92
506.73	25585.27
506.94	25566.84
507.14	25493.12
507.35	25833.08
507.55	25833.08
507.76	25654.90
507.96	25912.95
508.17	25853.56
508.37	26238.58
508.58	26058.35
508.78	26277.49
508.99	26187.38
509.19	26093.17
509.40	26330.73
509.60	26396.27
509.81	26275.44
510.01	26371.69
510.22	26363.50
510.42	26508.91
510.63	26938.98
510.83	27008.61
511.04	26721.90
511.24	26705.51
511.44	26973.80
511.65	26799.72
511.85	27025.00
512.06	27154.02
512.26	27139.68
512.47	27086.43
512.67	27190.88
512.88	27297.38
513.08	27178.59
513.29	27203.17
513.49	27158.11
513.69	27176.55
513.90	27469.40
514.10	27500.12
514.31	27764.31
514.51	27610.71
514.72	27770.46
514.92	27719.26
515.13	27739.74
515.33	28141.14
515.53	27915.86
515.74	28005.97
515.94	28372.56
516.15	28130.90
516.35	27979.35
516.56	28178.00
516.76	27975.25
516.96	28358.22
517.17	28354.13
517.37	28573.26
517.58	28620.36
517.78	28339.79
517.99	28853.83
518.19	28769.86
518.39	28935.75
518.60	29029.96
518.80	29099.59
519.01	29185.60
519.21	28892.74
519.41	29288.00
519.62	29163.08
519.82	29359.68
520.03	29374.02
520.23	29318.72
520.43	29288.00
520.64	29812.28
520.84	29722.17
521.05	29521.47
521.25	29580.86
521.45	30094.90
521.66	29926.97
521.86	30111.28
522.07	29879.86
522.27	30244.40
522.47	30135.86
522.68	30393.90
522.88	30219.83
523.08	30805.55
523.29	30713.39
523.49	30473.78
523.70	30740.01
523.90	30871.08
524.10	30887.46
524.31	31319.59
524.51	30830.12
524.71	31376.93
524.92	31133.22
525.12	31632.93
525.33	31432.22
525.53	31686.17
525.73	31192.61
525.94	31682.08
526.14	31133.22
526.34	31604.25
526.55	31565.34
526.75	31686.17
526.95	32243.22
527.16	31860.25
527.36	31972.89
527.56	32026.14
527.77	32491.02
527.97	32564.75
528.17	32054.81
528.38	32599.57
528.58	32411.15
528.78	32990.73
528.99	32663.05
529.19	33302.02
529.39	32644.62
529.60	33224.20
529.80	32960.01
530.00	33136.13
530.21	33355.27
530.41	33609.22
530.61	33601.02
530.82	33652.22
531.02	33680.89
531.22	33641.98
531.43	33451.52
531.63	33969.66
531.83	34477.55
532.04	34526.71
532.24	33748.48
532.44	34035.19
532.64	34446.83
532.85	34407.92
533.05	34848.24
533.25	34379.25
533.46	34872.81
533.66	34588.14
533.86	34792.94
534.07	35106.28
534.27	34852.33
534.47	35485.15
534.67	35333.60
534.88	35315.17
535.08	35511.78
535.28	35663.33
535.49	35788.25
535.69	36234.71
535.89	35648.99
536.09	36277.72
536.30	36509.14
536.50	36111.83
536.70	36134.36
536.91	36105.69
537.11	36343.25
537.31	36513.23
537.51	36609.49
537.72	36939.21
537.92	36611.54
538.12	37125.58
538.32	36840.91
538.53	36967.88
538.73	36668.88
538.93	36750.80
539.13	37266.89
539.34	37230.02
539.54	37346.76
539.74	37647.81
539.94	37467.59
540.15	37215.69
540.35	37653.95
540.55	37649.86
540.75	37791.17
540.96	37793.22
541.16	38106.55
541.36	38081.98
541.56	38165.95
541.77	38329.78
541.97	38313.40
542.17	38505.91
542.37	38319.54
542.58	38200.76
542.78	38106.55
542.98	38596.02
543.18	38856.11
543.38	39118.25
543.59	38991.28
543.79	38673.84
543.99	38974.89
544.19	39368.10
544.40	38999.47
544.60	39312.81
544.80	38950.32
545.00	39499.17
545.20	39863.71
545.41	39034.28
545.61	39333.29
545.81	39644.58
546.01	39703.97
546.21	39615.91
546.42	39558.56
546.62	39964.06
546.82	39773.60
547.02	39749.03
547.22	39970.21
547.43	39681.44
547.63	40269.21
547.83	39714.21
548.03	39921.05
548.23	40488.34
548.44	40152.48
548.64	40510.87
548.84	40510.87
549.04	40367.51
549.24	40865.17
549.45	41362.82
549.65	40510.87
549.85	40332.70
550.05	40990.09
550.25	41102.73
550.45	40955.28
550.66	40861.07
550.86	41031.05
551.06	41248.14
551.26	41184.65
551.46	41459.08
551.66	41354.63
551.87	41262.47
552.07	41252.23
552.27	41393.54
552.47	41463.18
552.67	41698.69
552.87	41393.54
553.07	41741.70
553.28	41696.64
553.48	41727.36
553.68	41411.98
553.88	41969.02
554.08	41915.78
554.28	42098.05
554.48	41977.22
554.69	41946.50
554.89	41915.78
555.09	42100.09
555.29	42245.50
555.49	42171.77
555.69	42282.36
555.89	41936.26
556.10	42151.29
556.30	42415.48
556.50	42483.06
556.70	42157.44
556.90	42544.50
557.10	42329.47
557.30	42057.09
557.50	42894.71
557.70	42448.25
557.91	42745.20
558.11	42788.21
558.31	43257.20
558.51	42921.33
558.71	42769.78
558.91	43181.42
559.11	43115.89
559.31	42952.05
559.51	42714.48
559.72	42728.82
559.92	43101.55
560.12	43103.60
560.32	43212.14
560.52	42769.78
560.72	43150.70
560.92	43224.43
561.12	43582.82
561.32	43398.51
561.52	43105.65
561.72	43840.87
561.93	43498.86
562.13	43367.79
562.33	43488.62
562.53	43857.25
562.73	43203.95
562.93	43351.40
563.13	43482.47
563.33	43695.46
563.53	43730.28
563.73	43580.78
563.93	43939.17
564.13	44414.30
564.33	43728.23
564.53	43746.66
564.74	44238.17
564.94	43797.86
565.14	44053.86
565.34	43814.24
565.54	44033.38
565.74	44012.90
565.94	44635.48
566.14	44139.87
566.34	44045.66
566.54	44741.97
566.74	44053.86
566.94	44469.59
567.14	44225.89
567.34	44514.65
567.54	44455.26
567.74	44377.43
567.94	44270.94
568.14	44717.40
568.34	44793.17
568.54	44596.57
568.74	44666.20
568.94	44434.78
569.14	45028.69
569.34	45036.88
569.54	45192.53
569.75	44412.25
569.95	45120.85
570.15	45542.73
570.35	44606.81
570.55	44866.90
570.75	45425.99
570.95	45475.15
571.15	44932.43
571.35	45256.01
571.55	45368.65
571.75	45239.63
571.95	45051.22
572.15	45155.66
572.35	45339.98
572.55	45258.06
572.75	45548.87
572.95	45759.81
573.15	45567.30
573.35	45643.08
573.55	45493.58
573.75	45430.09
573.95	45757.77
574.15	45442.38
574.35	45915.46
574.55	45409.61
574.75	45825.35
574.95	45589.83
575.15	46003.52
575.34	45921.60
575.54	46095.68
575.74	46462.27
575.94	46619.96
576.14	45950.27
576.34	46404.92
576.54	46388.54
576.74	46335.29
576.94	45978.95
577.14	46736.69
577.34	46972.21
577.54	46325.05
577.74	46413.12
577.94	46515.51
578.14	46648.63
578.34	47129.90
578.54	46101.82
578.74	46562.62
578.94	46996.79
579.14	47019.31
579.34	46593.34
579.54	46966.07
579.74	47342.89
579.94	47299.89
580.13	47035.70
580.33	47271.21
580.53	47375.66
580.73	47027.51
580.93	47707.43
581.13	46970.16
581.33	47899.94
581.53	47815.97
581.73	47521.07
581.93	47334.70
582.13	47592.75
582.33	48188.70
582.53	47516.97
582.73	47981.86
582.92	47535.40
583.12	48239.90
583.32	47920.42
583.52	47711.53
583.72	48133.41
583.92	48338.21
584.12	48088.35
584.32	48020.77
584.52	48059.68
584.72	48379.17
584.92	48575.77
585.11	49095.95
585.31	48360.73
585.51	48616.73
585.71	48467.23
585.91	48852.25
586.11	48436.51
586.31	48678.17
586.51	48723.22
586.71	48807.19
586.91	49048.85
587.10	48973.08
587.30	49028.37
587.50	49360.14
587.70	48846.10
587.90	49399.05
588.10	49386.77
588.30	49427.73
588.50	49315.09
