SpectraSuite Data File
++++++++++++++++++++++++++++++++++++
Date: Fri Jun 02 14:41:59 CEST 2017
User: INFO_000
Dark Spectrum Present: No
Reference Spectrum Present: No
Number of Sampled Component Spectra: 1
Spectrometers: USB4H00879
Integration Time (usec): 80000 (USB4H00879)
Spectra Averaged: 1 (USB4H00879)
Boxcar Smoothing: 0 (USB4H00879)
Correct for Electrical Dark: No (USB4H00879)
Strobe/Lamp Enabled: No (USB4H00879)
Correct for Detector Non-linearity: No (USB4H00879)
Correct for Stray Light: No (USB4H00879)
Number of Pixels in Processed Spectrum: 3648
>>>>>Begin Processed Spectral Data<<<<<
345.13	1325.04
345.34	1325.04
345.56	1325.04
345.78	1329.13
345.99	1249.26
346.21	1617.90
346.42	1665.00
346.64	1660.90
346.86	1724.39
347.07	1650.66
347.29	1665.00
347.50	1554.41
347.72	1583.08
347.94	1718.25
348.15	1548.26
348.37	1576.94
348.59	1628.14
348.80	1662.95
349.02	1832.93
349.23	1896.42
349.45	1806.31
349.67	1929.19
349.88	1822.69
350.10	1931.23
350.31	1884.13
350.53	1902.56
350.75	1959.91
350.96	1767.40
351.18	1812.45
351.39	1857.51
351.61	1843.17
351.82	1918.95
352.04	1898.47
352.26	1830.88
352.47	1929.19
352.69	1988.58
352.90	1767.40
353.12	1828.84
353.34	1841.12
353.55	1947.62
353.77	1865.70
353.98	1822.69
354.20	1853.41
354.41	1988.58
354.63	1953.76
354.85	2066.40
355.06	1970.15
355.28	1794.02
355.49	1873.89
355.71	1877.99
355.92	1851.36
356.14	1863.65
356.35	1800.16
356.57	1910.75
356.79	1929.19
357.00	1861.60
357.22	1974.24
357.43	1886.18
357.65	1933.28
357.86	1824.74
358.08	1918.95
358.29	1886.18
358.51	2021.35
358.72	1974.24
358.94	1902.56
359.16	1869.80
359.37	1871.84
359.59	1986.53
359.80	1929.19
360.02	1914.85
360.23	1929.19
360.45	2023.39
360.66	1982.43
360.88	1816.55
361.09	2029.54
361.31	1951.71
361.52	2000.87
361.74	2072.54
361.95	2148.32
362.17	1968.10
362.38	2121.70
362.60	2068.45
362.81	2007.01
363.03	1947.62
363.24	1947.62
363.46	2009.06
363.67	2023.39
363.89	2021.35
364.10	2127.84
364.32	1920.99
364.53	2066.40
364.75	1966.05
364.96	2066.40
365.18	2107.36
365.39	1970.15
365.61	1925.09
365.82	2052.06
366.04	2039.78
366.25	1927.14
366.47	2109.41
366.68	2056.16
366.90	1990.63
367.11	2082.78
367.33	2090.98
367.54	2097.12
367.76	1974.24
367.97	2082.78
368.19	2021.35
368.40	2082.78
368.62	2078.69
368.83	1937.38
369.05	2107.36
369.26	2070.50
369.48	2050.02
369.69	2058.21
369.91	2133.98
370.12	2133.98
370.33	2121.70
370.55	1966.05
370.76	2047.97
370.98	2131.94
371.19	2027.49
371.41	2007.01
371.62	2068.45
371.84	1939.43
372.05	2164.70
372.27	2021.35
372.48	2066.40
372.69	2115.55
372.91	2152.42
373.12	2168.80
373.34	2131.94
373.55	2121.70
373.77	2238.43
373.98	2080.74
374.20	2174.94
374.41	2295.77
374.62	2099.17
374.84	2226.14
375.05	2174.94
375.27	2156.51
375.48	2158.56
375.70	2117.60
375.91	2271.20
376.12	2334.68
376.34	2240.48
376.55	2242.53
376.77	2213.85
376.98	2142.18
377.19	2131.94
377.41	2197.47
377.62	2222.05
377.84	2252.77
378.05	2373.60
378.27	2301.92
378.48	2310.11
378.69	2340.83
378.91	2287.58
379.12	2359.26
379.34	2260.96
379.55	2404.32
379.76	2291.68
379.98	2144.22
380.19	2334.68
380.41	2306.01
380.62	2267.10
380.83	2226.14
381.05	2252.77
381.26	2371.55
381.47	2191.33
381.69	2328.54
381.90	2406.36
382.12	2277.34
382.33	2306.01
382.54	2355.16
382.76	2410.46
382.97	2312.16
383.19	2258.91
383.40	2414.56
383.61	2369.50
383.83	2320.35
384.04	2369.50
384.25	2363.36
384.47	2420.70
384.68	2447.32
384.89	2344.92
385.11	2334.68
385.32	2334.68
385.54	2383.84
385.75	2389.98
385.96	2469.85
386.18	2519.00
386.39	2402.27
386.60	2519.00
386.82	2506.71
387.03	2506.71
387.24	2519.00
387.46	2414.56
387.67	2555.86
387.88	2510.81
388.10	2389.98
388.31	2506.71
388.52	2594.78
388.74	2582.49
388.95	2533.34
389.16	2521.05
389.38	2592.73
389.59	2623.45
389.80	2670.55
390.02	2600.92
390.23	2676.70
390.44	2674.65
390.66	2623.45
390.87	2570.20
391.08	2668.50
391.30	2719.70
391.51	2691.03
391.72	2691.03
391.94	2746.33
392.15	2715.61
392.36	2588.63
392.58	2682.84
392.79	2766.81
393.00	2727.89
393.22	2674.65
393.43	2820.05
393.64	2928.60
393.85	2770.90
394.07	2695.13
394.28	2828.24
394.49	2793.43
394.71	2856.92
394.92	2928.60
395.13	2719.70
395.35	2842.58
395.56	2754.52
395.77	2772.95
395.98	2930.64
396.20	2811.86
396.41	2953.17
396.62	2953.17
396.84	2916.31
397.05	2951.12
397.26	2985.94
397.47	2949.08
397.69	2875.35
397.90	3086.29
398.11	2940.88
398.32	2987.99
398.54	2942.93
398.75	3014.61
398.96	3008.47
399.18	3149.78
399.39	3039.19
399.60	3094.48
399.81	2914.26
400.03	3020.75
400.24	3254.22
400.45	3074.00
400.66	3096.53
400.88	3057.62
401.09	3252.17
401.30	3090.38
401.51	3182.54
401.73	3145.68
401.94	3223.50
402.15	3297.23
402.36	3182.54
402.58	3315.66
402.79	3291.09
403.00	3229.65
403.21	3248.08
403.43	3321.81
403.64	3346.38
403.85	3260.37
404.06	3344.33
404.27	3155.92
404.49	3317.71
404.70	3264.46
404.91	3409.87
405.12	3203.02
405.34	3368.91
405.55	3366.86
405.76	3327.95
405.97	3389.39
406.19	3459.02
406.40	3289.04
406.61	3387.34
406.82	3467.21
407.03	3413.96
407.25	3272.65
407.46	3489.74
407.67	3485.64
407.88	3614.66
408.09	3411.92
408.31	3481.55
408.52	3395.53
408.73	3456.97
408.94	3446.73
409.15	3440.59
409.37	3530.70
409.58	3635.14
409.79	3553.23
410.00	3547.08
410.21	3518.41
410.43	3526.60
410.64	3499.98
410.85	3565.51
411.06	3448.78
411.27	3614.66
411.48	3747.78
411.70	3637.19
411.91	3758.02
412.12	3739.59
412.33	3741.64
412.54	3600.33
412.76	3778.50
412.97	3788.74
413.18	3653.58
413.39	3704.78
413.60	3829.70
413.81	3825.61
414.03	3708.87
414.24	3698.63
414.45	3858.37
414.66	3596.23
414.87	3809.22
415.08	3719.11
415.30	3719.11
415.51	3821.51
415.72	3868.61
415.93	3854.28
416.14	3964.87
416.35	3940.29
416.56	3936.20
416.78	3792.84
416.99	3971.01
417.20	3975.11
417.41	4057.03
417.62	3997.64
417.83	4048.83
418.04	4001.73
418.26	4054.98
418.47	3977.16
418.68	3964.87
418.89	4061.12
419.10	4192.19
419.31	4046.79
419.52	4204.48
419.73	4216.77
419.95	4188.10
420.16	4112.32
420.37	4075.46
420.58	4257.73
420.79	4069.31
421.00	4124.61
421.21	4247.49
421.42	4267.97
421.63	4198.34
421.85	4276.16
422.06	4382.65
422.27	4319.17
422.48	4335.55
422.69	4372.41
422.90	4300.73
423.11	4456.38
423.32	4526.01
423.53	4540.35
423.75	4489.15
423.96	4669.37
424.17	4478.91
424.38	4687.80
424.59	4583.35
424.80	4722.62
425.01	4622.27
425.22	4491.20
425.43	4476.86
425.64	4874.17
425.85	4784.06
426.06	4710.33
426.28	4710.33
426.49	4546.49
426.70	4788.15
426.91	4794.29
427.12	4747.19
427.33	4743.10
427.54	4763.58
427.75	5074.87
427.96	4984.76
428.17	4863.93
428.38	5058.48
428.59	4882.36
428.80	4761.53
429.01	4906.93
429.23	4851.64
429.44	5253.04
429.65	4947.89
429.86	5197.74
430.07	4874.17
430.28	5060.53
430.49	5134.26
430.70	5316.53
430.91	5214.13
431.12	5277.62
431.33	5259.18
431.54	5455.79
431.75	5351.34
431.96	5386.16
432.17	5212.08
432.38	5312.43
432.59	5433.26
432.80	5402.54
433.01	5506.99
433.22	5509.04
433.43	5531.56
433.64	5371.82
433.85	5429.17
434.06	5597.10
434.27	5539.76
434.49	5660.59
434.70	5666.73
434.91	5619.63
435.12	5664.68
435.33	5588.91
435.54	5586.86
435.75	5631.91
435.96	5664.68
436.17	5574.57
436.38	5826.47
436.59	5724.07
436.80	5697.45
437.01	6000.55
437.22	6143.91
437.43	5932.97
437.64	5746.60
437.85	6012.84
438.06	5973.92
438.27	5883.81
438.48	5889.96
438.69	6086.56
438.90	6018.98
439.11	5875.62
439.32	6207.39
439.53	6057.89
439.74	6037.41
439.95	6285.22
440.16	6133.67
440.37	6166.43
440.57	6025.12
440.78	6176.67
440.99	6117.28
441.20	6080.42
441.41	6133.67
441.62	6221.73
441.83	6098.85
442.04	6322.08
442.25	6332.32
442.46	6291.36
442.67	6264.74
442.88	6752.15
443.09	6367.13
443.30	6338.46
443.51	6473.63
443.72	6539.16
443.93	6270.88
444.14	6756.25
444.35	6422.43
444.56	6664.09
444.77	6569.88
444.98	6573.98
445.19	6598.56
445.40	6573.98
445.61	6541.21
445.81	6741.91
446.02	6827.93
446.23	6664.09
446.44	6573.98
446.65	6676.38
446.86	6711.19
447.07	6703.00
447.28	6969.24
447.49	6821.78
447.70	6823.83
447.91	6901.65
448.12	6989.72
448.33	7022.48
448.54	7122.84
448.74	6827.93
448.95	7008.15
449.16	7032.72
449.37	7315.34
449.58	6932.37
449.79	7309.20
450.00	6965.14
450.21	7251.86
450.42	7344.02
450.63	7272.34
450.84	7274.38
451.05	7425.93
451.25	7200.66
451.46	7102.36
451.67	7468.94
451.88	7470.99
452.09	7366.54
452.30	7317.39
452.51	7452.56
452.72	7522.19
452.93	7868.30
453.13	7311.25
453.34	7481.23
453.55	7663.50
453.76	7595.92
453.97	8019.85
454.18	7827.34
454.39	7835.53
454.60	7745.42
454.81	7821.19
455.01	7784.33
455.22	7606.16
455.43	8028.04
455.64	8185.73
455.85	8198.02
456.06	8150.92
456.27	7970.69
456.48	7982.98
456.68	8288.13
456.89	8093.57
457.10	8308.61
457.31	8388.48
457.52	8316.80
457.73	8214.40
457.94	8613.76
458.14	8259.46
458.35	8720.25
458.56	8574.85
458.77	8497.02
458.98	8673.15
459.19	8624.00
459.39	8671.10
459.60	8693.63
459.81	8613.76
460.02	9121.65
460.23	8863.61
460.44	9072.50
460.65	9150.32
460.85	9025.40
461.06	9090.93
461.27	8968.06
461.48	9367.41
461.69	9385.84
461.89	9006.97
462.10	9332.59
462.31	9138.04
462.52	9197.43
462.73	9377.65
462.94	9555.82
463.14	9430.90
463.35	9416.56
463.56	9824.11
463.77	9715.56
463.98	9318.26
464.18	9654.12
464.39	9979.75
464.60	10026.86
464.81	10039.14
465.02	10002.28
465.23	10215.27
465.43	10047.33
465.64	10375.01
465.85	10137.45
466.06	10209.12
466.27	10315.62
466.47	10438.50
466.68	10358.63
466.89	10497.89
467.10	10534.75
467.30	10280.80
467.51	10735.45
467.72	11075.42
467.93	10569.57
468.14	10852.19
468.34	10858.33
468.55	11042.65
468.76	11022.17
468.97	11079.51
469.17	11018.07
469.38	11259.73
469.59	11474.77
469.80	11147.09
470.01	11343.70
470.21	11392.85
470.42	11599.70
470.63	11732.81
470.84	11554.64
471.04	11775.82
471.25	11849.55
471.46	11620.17
471.67	12193.61
471.87	11882.31
472.08	12236.61
472.29	12291.91
472.50	11861.84
472.70	12187.46
472.91	12392.26
473.12	12410.69
473.33	12545.86
473.53	12769.09
473.74	12758.85
473.95	12830.52
474.16	13125.43
474.36	13172.54
474.57	13160.25
474.78	13344.56
474.99	12859.20
475.19	13082.42
475.40	13459.25
475.61	13514.55
475.81	13604.66
476.02	13793.07
476.23	13643.57
476.44	13782.83
476.64	13944.62
476.85	14264.10
477.06	14120.74
477.27	14229.29
477.47	14477.09
477.68	14401.32
477.89	14503.71
478.09	14526.24
478.30	14503.71
478.51	14724.90
478.71	14833.44
478.92	14845.73
479.13	15071.00
479.34	15232.79
479.54	15314.71
479.75	15122.20
479.96	15404.82
480.16	15286.04
480.37	15372.05
480.58	15644.43
480.78	16166.67
480.99	15920.91
481.20	15984.40
481.41	15916.81
481.61	16269.06
481.82	16267.02
482.03	16346.89
482.23	16273.16
482.44	16502.53
482.65	16795.39
482.85	16537.35
483.06	16717.57
483.27	16815.87
483.47	17071.87
483.68	17094.40
483.89	17166.07
484.09	17229.56
484.30	17155.83
484.51	17624.82
484.71	17440.50
484.92	17454.84
485.13	17960.69
485.33	17813.23
485.54	17911.53
485.75	17897.20
485.95	18241.26
486.16	18431.72
486.37	18636.52
486.57	18310.89
486.78	18257.64
486.98	18568.93
487.19	18964.19
487.40	19017.44
487.60	18853.60
487.81	19082.97
488.02	19080.92
488.22	18976.48
488.43	19404.50
488.64	19457.75
488.84	19367.64
489.05	19576.53
489.25	19463.90
489.46	19783.38
489.67	19803.86
489.87	20252.36
490.08	20152.01
490.29	20033.23
490.49	20412.10
490.70	20563.65
490.90	20459.21
491.11	20342.47
491.32	20584.13
491.52	20422.34
491.73	20696.77
491.94	20629.19
492.14	20721.35
492.35	21366.46
492.55	21321.40
492.76	21503.67
492.97	21522.10
493.17	21276.35
493.38	21624.50
493.58	21870.26
493.79	21774.00
494.00	21886.64
494.20	21651.13
494.41	21833.39
494.61	22181.55
494.82	22322.86
495.02	22066.86
495.23	22142.64
495.44	22210.22
495.64	22671.01
495.85	22711.97
496.05	22623.91
496.26	22654.63
496.47	22808.23
496.67	22824.61
496.88	23176.86
497.08	22982.31
497.29	23187.10
497.49	22933.15
497.70	23334.56
497.91	23477.91
498.11	23512.73
498.32	23627.42
498.52	23697.05
498.73	23821.97
498.93	23617.18
499.14	23879.32
499.34	23955.09
499.55	24372.88
499.76	24016.53
499.96	24110.74
500.17	24348.30
500.37	24098.45
500.58	24276.62
500.78	24405.64
500.99	24565.39
501.19	24860.29
501.40	24333.96
501.60	24796.81
501.81	24827.53
502.02	24850.05
502.22	24675.98
502.43	24835.72
502.63	25235.07
502.84	25206.40
503.04	25056.90
503.25	25484.92
503.45	25251.45
503.66	25763.45
503.86	25380.48
504.07	25806.45
504.27	25327.23
504.48	25929.33
504.68	25921.14
504.89	26078.83
505.09	26158.70
505.30	26003.06
505.50	26289.77
505.71	26533.48
505.91	26695.27
506.12	26334.83
506.32	26224.24
506.53	26439.28
506.73	26556.01
506.94	26648.17
507.14	26596.97
507.35	26689.13
507.55	26969.70
507.76	26975.84
507.96	26627.69
508.17	27162.21
508.37	26963.56
508.58	27031.14
508.78	27197.02
508.99	27393.63
509.19	27516.51
509.40	27219.55
509.60	27307.62
509.81	27571.80
510.01	27422.30
510.22	27375.20
510.42	27446.88
510.63	27678.30
510.83	27948.63
511.04	27633.24
511.24	27831.90
511.44	27860.57
511.65	28071.51
511.85	27627.10
512.06	27815.51
512.26	28556.88
512.47	28040.79
512.67	28638.80
512.88	28579.40
513.08	28089.94
513.29	28769.86
513.49	28341.84
513.69	28497.49
513.90	28751.43
514.10	28776.01
514.31	28792.39
514.51	28663.37
514.72	28782.15
514.92	28544.59
515.13	28778.06
515.33	28763.72
515.53	28802.63
515.74	29259.33
515.94	28986.95
516.15	29322.82
516.35	29152.84
516.56	29263.43
516.76	29158.98
516.96	29584.96
517.17	29546.05
517.37	29630.01
517.58	29808.19
517.78	29404.74
517.99	29828.66
518.19	29967.93
518.39	30086.71
518.60	30027.32
518.80	29877.82
519.01	30404.14
519.21	30350.90
519.41	30207.54
519.62	29978.17
519.82	30107.19
520.03	30797.35
520.23	30373.42
520.43	30012.98
520.64	30844.46
520.84	30950.95
521.05	30656.04
521.25	31198.76
521.45	30846.51
521.66	31204.90
521.86	30918.18
522.07	30901.80
522.27	31036.97
522.47	31192.61
522.68	31643.17
522.88	31018.53
523.08	31673.88
523.29	31929.88
523.49	31784.48
523.70	31905.31
523.90	32278.04
524.10	31890.97
524.31	31837.72
524.51	31634.97
524.71	32464.40
524.92	32427.54
525.12	32538.13
525.33	32810.51
525.53	32456.21
525.73	32749.07
525.94	32605.71
526.14	32615.95
526.34	32556.56
526.55	32904.71
526.75	33431.04
526.95	33101.32
527.16	32892.43
527.36	32994.82
527.56	33183.24
527.77	33592.83
527.97	33633.79
528.17	33672.70
528.38	33484.29
528.58	33580.54
528.78	33838.59
528.99	33588.74
529.19	34305.52
529.39	33525.25
529.60	34258.42
529.80	34092.54
530.00	34033.14
530.21	34768.37
530.41	34446.83
530.61	34854.38
530.82	34551.28
531.02	34653.68
531.22	34895.34
531.43	34854.38
531.63	35018.22
531.83	35718.62
532.04	35556.83
532.24	35206.63
532.44	35630.56
532.64	35700.19
532.85	36009.43
533.05	35851.74
533.25	36130.26
533.46	35763.68
533.66	36537.81
533.86	36195.80
534.07	36695.50
534.27	35972.57
534.47	36754.90
534.67	37002.70
534.88	36607.44
535.08	36838.86
535.28	36908.49
535.49	36709.84
535.69	37049.80
535.89	37170.63
536.09	37275.08
536.30	37461.44
536.50	37432.77
536.70	37582.27
536.91	37367.24
537.11	37565.89
537.31	37270.98
537.51	37590.47
537.72	38002.11
537.92	38450.61
538.12	38507.96
538.32	38299.06
538.53	38405.56
538.73	38399.41
538.93	38254.01
539.13	38157.75
539.34	38626.74
539.54	38843.82
539.74	39062.96
539.94	38546.87
540.15	38946.22
540.35	39261.61
540.55	38995.37
540.75	39118.25
540.96	39390.63
541.16	39105.96
541.36	39210.41
541.56	39431.59
541.77	39773.60
541.97	39650.72
542.17	39507.37
542.37	39998.88
542.58	39990.69
542.78	39974.30
542.98	39703.97
543.18	40005.02
543.38	40494.49
543.59	40195.48
543.79	40019.36
543.99	40283.55
544.19	40349.08
544.40	40543.64
544.60	40875.41
544.80	40418.71
545.00	40619.41
545.20	40865.17
545.41	40955.28
545.61	40435.10
545.81	40797.59
546.01	41346.44
546.21	41149.84
546.42	41086.35
546.62	41487.75
546.82	41065.87
547.02	41196.94
547.22	41710.98
547.43	41457.03
547.63	41536.90
547.83	41567.62
548.03	41500.04
548.23	41835.91
548.44	41731.46
548.64	41954.69
548.84	41809.28
549.04	42075.52
549.24	42222.97
549.45	42495.35
549.65	42141.05
549.85	42210.68
550.05	42491.26
550.25	42184.06
550.45	43033.97
550.66	42585.46
550.86	42173.82
551.06	42673.52
551.26	42771.83
551.46	43095.41
551.66	42906.99
551.87	42767.73
552.07	42771.83
552.27	42993.01
552.47	43007.34
552.67	42780.02
552.87	43289.96
553.07	42927.47
553.28	43457.90
553.48	43351.40
553.68	43126.13
553.88	43529.58
554.08	43328.87
554.28	43322.73
554.48	43302.25
554.69	43674.98
554.89	43615.59
555.09	43586.92
555.29	43404.65
555.49	43730.28
555.69	43556.20
555.89	43750.76
556.10	44393.82
556.30	43697.51
556.50	44025.18
556.70	43836.77
556.90	44340.57
557.10	44168.54
557.30	44070.24
557.50	44338.52
557.70	43894.11
557.91	44311.90
558.11	44336.48
558.31	44592.47
558.51	44307.80
558.71	44475.74
558.91	44594.52
559.11	44141.92
559.31	44424.54
559.51	43967.84
559.72	44731.73
559.92	44787.03
560.12	44569.94
560.32	45112.66
560.52	44723.54
560.72	44963.15
560.92	45126.99
561.12	44983.63
561.32	45200.72
561.52	45028.69
561.72	45673.80
561.93	44868.95
562.13	44838.23
562.33	44944.72
562.53	45129.04
562.73	45243.73
562.93	45423.95
563.13	44995.92
563.33	45129.04
563.53	45892.93
563.73	45280.59
563.93	45702.47
564.13	45514.06
564.33	45514.06
564.53	45096.27
564.74	45854.02
564.94	45544.78
565.14	45892.93
565.34	45712.71
565.54	45491.53
565.74	45622.60
565.94	46099.78
566.14	45768.01
566.34	45497.67
566.54	46320.96
566.74	45937.99
566.94	46011.71
567.14	46144.83
567.34	45581.64
567.54	46169.41
567.74	46079.30
567.94	45970.75
568.14	46609.72
568.34	46662.97
568.54	46267.71
568.74	46347.58
568.94	46179.65
569.14	46452.03
569.34	46437.69
569.54	46605.62
569.75	46525.75
569.95	46685.50
570.15	46982.45
570.35	46613.82
570.55	46705.98
570.75	46816.57
570.95	46769.46
571.15	47093.04
571.35	47242.54
571.55	47523.11
571.75	46828.85
571.95	47134.00
572.15	47234.35
572.35	47314.22
572.55	47199.54
572.75	47471.92
572.95	47068.47
573.15	47342.89
573.35	47154.48
573.55	47150.38
573.75	47222.06
573.95	47535.40
574.15	47557.93
574.35	47510.83
574.55	47899.94
574.75	47727.91
574.95	47813.93
575.15	47502.64
575.34	47832.36
575.54	47537.45
575.74	48153.89
575.94	47945.00
576.14	48092.45
576.34	48272.67
576.54	48278.82
576.74	48192.80
576.94	47975.72
577.14	48291.10
577.34	48504.09
577.54	48110.88
577.74	48379.17
577.94	48188.70
578.14	48551.20
578.34	48948.50
578.54	47850.79
578.74	48463.13
578.94	48708.89
579.14	48624.92
579.34	48618.78
579.54	48964.88
579.74	49067.28
579.94	48987.41
580.13	49065.24
580.33	48739.61
580.53	49274.13
580.73	49495.31
580.93	49437.97
581.13	49698.06
581.33	49448.21
581.53	49921.29
581.73	49546.51
581.93	49411.34
582.13	49653.00
582.33	49990.92
582.53	49829.13
582.73	49710.35
582.92	49894.66
583.12	49452.30
583.32	49833.22
583.52	49691.91
583.72	50220.29
583.92	49954.05
584.12	50025.73
584.32	50717.95
584.52	50414.85
584.72	50461.95
584.92	50582.78
585.11	50478.33
585.31	50117.89
585.51	50701.56
585.71	50595.07
585.91	50674.94
586.11	50597.12
586.31	50265.34
586.51	50779.39
586.71	50738.43
586.91	51313.90
587.10	51207.41
587.30	51021.05
587.50	51059.96
587.70	51320.05
587.90	51639.53
588.10	51188.98
588.30	50914.55
588.50	51696.88
