SpectraSuite Data File
++++++++++++++++++++++++++++++++++++
Date: Fri Jun 02 14:41:56 CEST 2017
User: INFO_000
Dark Spectrum Present: No
Reference Spectrum Present: No
Number of Sampled Component Spectra: 1
Spectrometers: USB4H00879
Integration Time (usec): 80000 (USB4H00879)
Spectra Averaged: 1 (USB4H00879)
Boxcar Smoothing: 0 (USB4H00879)
Correct for Electrical Dark: No (USB4H00879)
Strobe/Lamp Enabled: No (USB4H00879)
Correct for Detector Non-linearity: No (USB4H00879)
Correct for Stray Light: No (USB4H00879)
Number of Pixels in Processed Spectrum: 3648
>>>>>Begin Processed Spectral Data<<<<<
345.13	1312.75
345.34	1312.75
345.56	1312.75
345.78	1320.94
345.99	1255.40
346.21	1738.73
346.42	1681.38
346.64	1667.05
346.86	1839.08
347.07	1599.46
347.29	1681.38
347.50	1630.18
347.72	1699.81
347.94	1751.01
348.15	1599.46
348.37	1634.28
348.59	1615.85
348.80	1683.43
349.02	1814.50
349.23	1886.18
349.45	1863.65
349.67	1974.24
349.88	1794.02
350.10	1974.24
350.31	1830.88
350.53	1761.25
350.75	1966.05
350.96	1789.92
351.18	1853.41
351.39	1935.33
351.61	1722.34
351.82	1824.74
352.04	1861.60
352.26	1806.31
352.47	1931.23
352.69	1896.42
352.90	1787.88
353.12	1880.04
353.34	1871.84
353.55	1923.04
353.77	1912.80
353.98	1826.79
354.20	1894.37
354.41	1957.86
354.63	1916.90
354.85	1998.82
355.06	1851.36
355.28	1781.73
355.49	1894.37
355.71	1988.58
355.92	1857.51
356.14	1945.57
356.35	1890.28
356.57	1841.12
356.79	1978.34
357.00	1832.93
357.22	1951.71
357.43	1892.32
357.65	1949.67
357.86	1822.69
358.08	1906.66
358.29	1941.47
358.51	2015.20
358.72	1931.23
358.94	1908.71
359.16	1918.95
359.37	1957.86
359.59	1964.00
359.80	1949.67
360.02	1910.75
360.23	1937.38
360.45	1916.90
360.66	1961.95
360.88	1884.13
361.09	1951.71
361.31	2025.44
361.52	1976.29
361.74	2041.82
361.95	2117.60
362.17	1968.10
362.38	2027.49
362.60	2002.91
362.81	1980.39
363.03	1951.71
363.24	1978.34
363.46	2131.94
363.67	2070.50
363.89	1959.91
364.10	2039.78
364.32	1970.15
364.53	2021.35
364.75	1894.37
364.96	2011.11
365.18	2050.02
365.39	1908.71
365.61	1953.76
365.82	2117.60
366.04	2047.97
366.25	2031.58
366.47	2002.91
366.68	2060.26
366.90	2056.16
367.11	2054.11
367.33	2127.84
367.54	2064.35
367.76	2039.78
367.97	2131.94
368.19	2019.30
368.40	2064.35
368.62	1976.29
368.83	2013.15
369.05	2127.84
369.26	2031.58
369.48	1959.91
369.69	1957.86
369.91	2105.31
370.12	2031.58
370.33	2117.60
370.55	2025.44
370.76	2101.22
370.98	2158.56
371.19	1937.38
371.41	2047.97
371.62	2140.13
371.84	2033.63
372.05	2129.89
372.27	2150.37
372.48	2072.54
372.69	2136.03
372.91	2111.46
373.12	2203.61
373.34	2082.78
373.55	2220.00
373.77	2207.71
373.98	2074.59
374.20	2093.02
374.41	2191.33
374.62	2113.50
374.84	2117.60
375.05	2176.99
375.27	2150.37
375.48	2199.52
375.70	2176.99
375.91	2310.11
376.12	2248.67
376.34	2179.04
376.55	2158.56
376.77	2189.28
376.98	2154.46
377.19	2103.26
377.41	2158.56
377.62	2119.65
377.84	2224.09
378.05	2265.05
378.27	2164.70
378.48	2344.92
378.69	2330.59
378.91	2330.59
379.12	2248.67
379.34	2287.58
379.55	2303.96
379.76	2308.06
379.98	2381.79
380.19	2224.09
380.41	2267.10
380.62	2355.16
380.83	2291.68
381.05	2189.28
381.26	2441.18
381.47	2308.06
381.69	2318.30
381.90	2467.80
382.12	2197.47
382.33	2295.77
382.54	2195.42
382.76	2289.63
382.97	2232.29
383.19	2316.25
383.40	2426.84
383.61	2267.10
383.83	2291.68
384.04	2355.16
384.25	2383.84
384.47	2461.66
384.68	2398.17
384.89	2283.49
385.11	2365.40
385.32	2402.27
385.54	2387.93
385.75	2422.75
385.96	2500.57
386.18	2420.70
386.39	2365.40
386.60	2432.99
386.82	2523.10
387.03	2420.70
387.24	2473.95
387.46	2471.90
387.67	2627.54
387.88	2602.97
388.10	2494.43
388.31	2484.19
388.52	2594.78
388.74	2504.67
388.95	2514.91
389.16	2568.15
389.38	2451.42
389.59	2682.84
389.80	2627.54
390.02	2545.63
390.23	2734.04
390.44	2635.74
390.66	2660.31
390.87	2496.47
391.08	2703.32
391.30	2723.80
391.51	2625.50
391.72	2699.22
391.94	2650.07
392.15	2666.46
392.36	2676.70
392.58	2568.15
392.79	2727.89
393.00	2674.65
393.22	2721.75
393.43	2715.61
393.64	2850.77
393.85	2789.33
394.07	2713.56
394.28	2840.53
394.49	2797.53
394.71	2838.48
394.92	2965.46
395.13	2746.33
395.35	2861.01
395.56	2727.89
395.77	2834.39
395.98	2910.16
396.20	2990.03
396.41	2777.05
396.62	2951.12
396.84	2791.38
397.05	2881.49
397.26	2846.68
397.47	2957.27
397.69	2961.36
397.90	3049.43
398.11	2979.79
398.32	2992.08
398.54	2928.60
398.75	3100.62
398.96	2969.55
399.18	3157.97
399.39	3041.23
399.60	3053.52
399.81	3022.80
400.03	3008.47
400.24	3289.04
400.45	2883.54
400.66	3157.97
400.88	2904.02
401.09	3229.65
401.30	3059.67
401.51	3153.87
401.73	3088.34
401.94	3258.32
402.15	3205.07
402.36	3266.51
402.58	3243.98
402.79	3252.17
403.00	3219.41
403.21	3270.61
403.43	3168.21
403.64	3321.81
403.85	3162.06
404.06	3313.61
404.27	3164.11
404.49	3297.23
404.70	3225.55
404.91	3459.02
405.12	3295.18
405.34	3330.00
405.55	3467.21
405.76	3221.45
405.97	3420.11
406.19	3370.96
406.40	3243.98
406.61	3395.53
406.82	3420.11
407.03	3344.33
407.25	3303.37
407.46	3491.79
407.67	3461.07
407.88	3569.61
408.09	3424.20
408.31	3401.68
408.52	3516.36
408.73	3444.68
408.94	3370.96
409.15	3432.40
409.37	3620.81
409.58	3551.18
409.79	3598.28
410.00	3528.65
410.21	3573.71
410.43	3647.43
410.64	3489.74
410.85	3639.24
411.06	3610.57
411.27	3614.66
411.48	3694.54
411.70	3715.02
411.91	3676.10
412.12	3694.54
412.33	3672.01
412.54	3710.92
412.76	3827.65
412.97	3811.27
413.18	3542.99
413.39	3610.57
413.60	3698.63
413.81	3727.30
414.03	3594.19
414.24	3811.27
414.45	3960.77
414.66	3786.69
414.87	3956.68
415.08	3741.64
415.30	3882.95
415.51	3731.40
415.72	3936.20
415.93	3796.93
416.14	3809.22
416.35	3954.63
416.56	3921.86
416.78	3975.11
416.99	3901.38
417.20	4075.46
417.41	3966.92
417.62	4048.83
417.83	3899.33
418.04	4038.59
418.26	4044.74
418.47	4026.31
418.68	4071.36
418.89	4130.75
419.10	4112.32
419.31	4153.28
419.52	4241.34
419.73	4202.43
419.95	4214.72
420.16	4087.75
420.37	4196.29
420.58	4259.78
420.79	4018.11
421.00	4143.04
421.21	4181.95
421.42	4169.66
421.63	4220.86
421.85	4345.79
422.06	4300.73
422.27	4308.93
422.48	4306.88
422.69	4272.06
422.90	4353.98
423.11	4425.66
423.32	4548.54
423.53	4605.88
423.75	4396.99
423.96	4491.20
424.17	4452.28
424.38	4624.31
424.59	4528.06
424.80	4722.62
425.01	4435.90
425.22	4517.82
425.43	4583.35
425.64	4857.78
425.85	4716.47
426.06	4661.18
426.28	4689.85
426.49	4626.36
426.70	4749.24
426.91	4665.27
427.12	4763.58
427.33	4835.25
427.54	4777.91
427.75	4779.96
427.96	4990.90
428.17	4825.01
428.38	4923.32
428.59	5074.87
428.80	4820.92
429.01	5023.67
429.23	4923.32
429.44	5148.59
429.65	5021.62
429.86	5169.07
430.07	5158.83
430.28	5035.96
430.49	5101.49
430.70	5259.18
430.91	5230.51
431.12	5193.65
431.33	5259.18
431.54	5337.01
431.75	5187.50
431.96	5253.04
432.17	5201.84
432.38	5349.29
432.59	5433.26
432.80	5429.17
433.01	5529.52
433.22	5543.85
433.43	5463.98
433.64	5509.04
433.85	5427.12
434.06	5597.10
434.27	5498.80
434.49	5513.13
434.70	5627.82
434.91	5562.28
435.12	5541.80
435.33	5500.84
435.54	5629.87
435.75	5492.65
435.96	5683.11
436.17	5582.76
436.38	5842.85
436.59	5844.90
436.80	5808.04
437.01	5971.88
437.22	5885.86
437.43	5926.82
437.64	5595.05
437.85	5941.16
438.06	6021.03
438.27	5820.33
438.48	5912.49
438.69	6055.84
438.90	6082.47
439.11	5980.07
439.32	6092.71
439.53	6037.41
439.74	5973.92
439.95	6035.36
440.16	6078.37
440.37	6135.71
440.57	6074.28
440.78	6311.84
440.99	6180.77
441.20	6137.76
441.41	6033.32
441.62	6277.02
441.83	6021.03
442.04	6301.60
442.25	6287.26
442.46	6197.15
442.67	6293.41
442.88	6756.25
443.09	6315.94
443.30	6307.74
443.51	6590.36
443.72	6520.73
443.93	6358.94
444.14	6631.32
444.35	6377.37
444.56	6524.83
444.77	6604.70
444.98	6723.48
445.19	6453.15
445.40	6580.12
445.61	6690.71
445.81	6692.76
446.02	6647.71
446.23	6811.54
446.44	6731.67
446.65	6725.53
446.86	6737.82
447.07	6807.45
447.28	7004.05
447.49	6975.38
447.70	6848.41
447.91	6936.47
448.12	6717.34
448.33	6981.53
448.54	6850.46
448.74	6967.19
448.95	7030.68
449.16	6948.76
449.37	7206.80
449.58	6971.29
449.79	7387.02
450.00	7036.82
450.21	7102.36
450.42	7272.34
450.63	7331.73
450.84	7085.97
451.05	7223.19
451.25	7096.21
451.46	7022.48
451.67	7409.55
451.88	7434.13
452.09	7423.89
452.30	7475.09
452.51	7380.88
452.72	7489.42
452.93	7927.69
453.13	7481.23
453.34	7415.69
453.55	7511.95
453.76	7569.29
453.97	7800.71
454.18	7686.03
454.39	7886.73
454.60	7796.62
454.81	7851.91
455.01	7913.35
455.22	7710.60
455.43	8021.89
455.64	8105.86
455.85	8093.57
456.06	8304.51
456.27	8054.66
456.48	7890.82
456.68	8202.11
456.89	8232.83
457.10	8316.80
457.31	8263.55
457.52	8167.30
457.73	8296.32
457.94	8554.37
458.14	8304.51
458.35	8677.24
458.56	8505.21
458.77	8413.06
458.98	8554.37
459.19	8632.19
459.39	8783.74
459.60	8849.27
459.81	8707.96
460.02	8845.18
460.23	8669.05
460.44	8955.77
460.65	9080.69
460.85	9006.97
461.06	8920.95
461.27	9015.16
461.48	9207.67
461.69	9179.00
461.89	8867.70
462.10	9416.56
462.31	9133.94
462.52	9211.76
462.73	9246.58
462.94	9557.87
463.14	9555.82
463.35	9455.47
463.56	9891.69
463.77	9736.04
463.98	9664.36
464.18	9625.45
464.39	10024.81
464.60	10030.95
464.81	10051.43
465.02	9824.11
465.23	10227.56
465.43	9914.22
465.64	10227.56
465.85	10086.25
466.06	10069.86
466.27	10399.59
466.47	10413.92
466.68	10397.54
466.89	10301.28
467.10	10606.43
467.30	10352.48
467.51	10559.33
467.72	10596.19
467.93	10436.45
468.14	10651.49
468.34	10895.19
468.55	10946.39
468.76	11020.12
468.97	10737.50
469.17	11120.47
469.38	11384.66
469.59	11276.12
469.80	11214.68
470.01	11237.20
470.21	11134.81
470.42	11349.84
470.63	11626.32
470.84	11468.62
471.04	11652.94
471.25	11781.96
471.46	11784.01
471.67	11968.33
471.87	11808.59
472.08	12113.74
472.29	12185.41
472.50	11835.21
472.70	12064.58
472.91	12281.67
473.12	12529.47
473.33	12496.71
473.53	12775.23
473.74	12543.81
473.95	12685.12
474.16	12814.14
474.36	12662.59
474.57	12990.27
474.78	13225.78
474.99	12961.59
475.19	13233.97
475.40	13475.63
475.61	13573.94
475.81	13612.85
476.02	13807.41
476.23	13588.27
476.44	13778.73
476.64	14163.75
476.85	14055.21
477.06	14143.27
477.27	14348.07
477.47	14130.98
477.68	14366.50
477.89	14462.76
478.09	14544.67
478.30	14663.46
478.51	14634.78
478.71	14708.51
478.92	14855.97
479.13	15021.85
479.34	15165.21
479.54	15154.97
479.75	15331.09
479.96	15240.98
480.16	15281.94
480.37	15408.92
480.58	15673.10
480.78	15877.90
480.99	15691.54
481.20	15761.17
481.41	16027.40
481.61	16107.27
481.82	16299.78
482.03	16467.72
482.23	16318.22
482.44	16586.50
482.65	16637.70
482.85	16877.31
483.06	16838.40
483.27	16871.17
483.47	16822.02
483.68	16815.87
483.89	17256.18
484.09	17272.57
484.30	17301.24
484.51	17618.68
484.71	17835.76
484.92	17596.15
485.13	17839.86
485.33	17770.22
485.54	17657.59
485.75	17905.39
485.95	18413.29
486.16	18263.79
486.37	18427.62
486.57	18075.37
486.78	18446.05
486.98	18607.84
487.19	18933.47
487.40	18681.57
487.60	18798.31
487.81	19005.15
488.02	18941.66
488.22	19058.40
488.43	19353.30
488.64	19259.10
488.84	19246.81
489.05	19707.60
489.25	19531.48
489.46	19875.54
489.67	19582.68
489.87	19879.63
490.08	19953.36
490.29	20025.04
490.49	20408.01
490.70	20424.39
490.90	20485.83
491.11	20410.06
491.32	20698.82
491.52	20489.93
491.73	20436.68
491.94	20735.68
492.14	20924.10
492.35	21063.36
492.55	20790.98
492.76	20977.34
492.97	21507.77
493.17	21470.90
493.38	21565.11
493.58	21632.69
493.79	21853.87
494.00	21575.35
494.20	21417.66
494.41	21778.10
494.61	21991.09
494.82	22124.21
495.02	22232.75
495.23	22632.10
495.44	22218.41
495.64	22576.81
495.85	22689.45
496.05	22531.75
496.26	22754.98
496.47	22824.61
496.67	22603.43
496.88	22849.19
497.08	22648.49
497.29	23244.45
497.49	23043.74
497.70	23436.95
497.91	23201.44
498.11	23260.83
498.32	23410.33
498.52	23482.01
498.73	23811.73
498.93	23754.39
499.14	23897.75
499.34	24028.82
499.55	23899.80
499.76	23805.59
499.96	24315.53
500.17	24114.83
500.37	24161.94
500.58	24086.16
500.78	24659.59
500.99	24159.89
501.19	24641.16
501.40	24387.21
501.60	24671.88
501.81	24518.28
502.02	24755.85
502.22	24643.21
502.43	24805.00
502.63	25251.45
502.84	25226.88
503.04	25032.32
503.25	25628.28
503.45	25120.38
503.66	25472.64
503.86	25333.37
504.07	25683.58
504.27	25419.39
504.48	25785.97
504.68	25446.01
504.89	25833.08
505.09	26007.16
505.30	25636.47
505.50	26506.86
505.71	26005.11
505.91	26080.88
506.12	26156.66
506.32	26009.20
506.53	26310.25
506.73	26570.35
506.94	26324.59
507.14	26320.49
507.35	26703.46
507.55	26660.46
507.76	26695.27
507.96	26660.46
508.17	26594.92
508.37	26781.29
508.58	26865.25
508.78	27070.05
508.99	27178.59
509.19	27244.13
509.40	27422.30
509.60	27412.06
509.81	27051.62
510.01	27237.98
510.22	27268.70
510.42	27352.67
510.63	27534.94
510.83	27682.39
511.04	27559.52
511.24	27819.61
511.44	27887.19
511.65	28010.07
511.85	27795.03
512.06	27979.35
512.26	27938.39
512.47	28411.47
512.67	28128.85
512.88	28339.79
513.08	28202.58
513.29	28401.23
513.49	28431.95
513.69	28327.50
513.90	28702.28
514.10	28829.26
514.31	28534.35
514.51	28448.33
514.72	28667.47
514.92	28550.73
515.13	28642.89
515.33	28857.93
515.53	28798.54
515.74	29083.20
515.94	29152.84
516.15	29226.56
516.35	28892.74
516.56	29169.22
516.76	28747.34
516.96	29283.91
517.17	29048.39
517.37	29378.11
517.58	29357.63
517.78	29611.58
517.99	29769.27
518.19	29658.68
518.39	29720.12
518.60	29787.71
518.80	29990.45
519.01	29931.06
519.21	29894.20
519.41	29808.19
519.62	30008.89
519.82	29963.83
520.03	30617.13
520.23	30172.72
520.43	30039.61
520.64	30522.93
520.84	30639.66
521.05	30447.15
521.25	30813.74
521.45	30815.79
521.66	30858.79
521.86	31022.63
522.07	30854.70
522.27	30787.11
522.47	31280.67
522.68	31432.22
522.88	31309.35
523.08	31774.24
523.29	31493.66
523.49	31434.27
523.70	31430.18
523.90	31825.43
524.10	31813.15
524.31	31989.27
524.51	31542.81
524.71	32433.68
524.92	32019.99
525.12	32355.86
525.33	32327.19
525.53	32263.70
525.73	32339.47
525.94	32466.45
526.14	32474.64
526.34	32441.87
526.55	32355.86
526.75	32790.03
526.95	32773.64
527.16	32783.88
527.36	32986.63
527.56	32986.63
527.77	33547.78
527.97	33472.00
528.17	33207.81
528.38	33277.44
528.58	33895.93
528.78	33721.85
528.99	33781.24
529.19	34135.54
529.39	33691.13
529.60	33902.07
529.80	34239.99
530.00	33787.39
530.21	34508.27
530.41	34495.99
530.61	34596.34
530.82	34723.31
531.02	34639.34
531.22	34579.95
531.43	34663.92
531.63	34813.42
531.83	35352.04
532.04	35354.08
532.24	35374.56
532.44	35476.96
532.64	35472.87
532.85	35587.55
533.05	35761.63
533.25	35749.34
533.46	35896.80
533.66	36113.88
533.86	35933.66
534.07	36660.69
534.27	36101.59
534.47	36369.88
534.67	36529.62
534.88	36199.90
535.08	36404.69
535.28	36855.25
535.49	36738.51
535.69	37330.37
535.89	36908.49
536.09	36984.27
536.30	37479.88
536.50	37045.71
536.70	37541.32
536.91	37520.84
537.11	37475.78
537.31	37764.54
537.51	38053.31
537.72	38071.74
537.92	37840.32
538.12	38170.04
538.32	38237.62
538.53	38673.84
538.73	37653.95
538.93	38190.52
539.13	38241.72
539.34	38718.90
539.54	38507.96
539.74	39062.96
539.94	38661.55
540.15	38843.82
540.35	39255.46
540.55	38864.30
540.75	38999.47
540.96	38999.47
541.16	39171.50
541.36	39173.55
541.56	39167.40
541.77	39660.96
541.97	39253.42
542.17	39638.44
542.37	39443.88
542.58	39691.68
542.78	39509.41
542.98	39703.97
543.18	40056.22
543.38	40433.05
543.59	40398.23
543.79	39976.35
543.99	40086.94
544.19	40607.12
544.40	40529.30
544.60	40519.06
544.80	40691.09
545.00	40883.60
545.20	40916.37
545.41	40492.44
545.61	40727.95
545.81	40940.94
546.01	40793.49
546.21	41022.86
546.42	40699.28
546.62	41198.99
546.82	40678.80
547.02	41495.94
547.22	41639.30
547.43	41366.92
547.63	41557.38
547.83	41354.63
548.03	41352.58
548.23	41731.46
548.44	41385.35
548.64	41676.16
548.84	41866.63
549.04	41878.91
549.24	41729.41
549.45	42169.72
549.65	41866.63
549.85	41919.87
550.05	42503.54
550.25	41995.65
550.45	42638.71
550.66	42143.10
550.86	41764.23
551.06	42431.86
551.26	42982.77
551.46	42802.55
551.66	42632.57
551.87	42417.53
552.07	42593.65
552.27	43052.40
552.47	42866.03
552.67	43363.69
552.87	43042.16
553.07	42845.55
553.28	43136.37
553.48	43171.18
553.68	42909.04
553.88	43339.11
554.08	43208.04
554.28	43109.74
554.48	42874.23
554.69	43967.84
554.89	43404.65
555.09	43132.27
555.29	43199.85
555.49	43500.90
555.69	43519.34
555.89	43644.26
556.10	43953.51
556.30	43808.10
556.50	44078.43
556.70	43562.34
556.90	44074.34
557.10	44080.48
557.30	44234.08
557.50	43849.06
557.70	44350.81
557.91	44016.99
558.11	44129.63
558.31	44406.11
558.51	44139.87
558.71	44053.86
558.91	44617.05
559.11	44270.94
559.31	44057.95
559.51	44117.34
559.72	44565.85
559.92	44445.02
560.12	44369.24
560.32	44442.97
560.52	44279.13
560.72	44741.97
560.92	45040.98
561.12	45126.99
561.32	44770.64
561.52	44750.17
561.72	45231.44
561.93	44715.35
562.13	45489.48
562.33	44696.92
562.53	45681.99
562.73	45223.25
562.93	45153.62
563.13	45292.88
563.33	45063.50
563.53	45530.44
563.73	44938.58
563.93	45311.31
564.13	45626.70
564.33	45696.33
564.53	45573.45
564.74	45987.14
564.94	45610.31
565.14	45432.14
565.34	45237.58
565.54	45636.94
565.74	45847.88
565.94	46128.45
566.14	45847.88
566.34	45636.94
566.54	46628.15
566.74	45800.77
566.94	46085.44
567.14	45851.97
567.34	45622.60
567.54	46073.15
567.74	45714.76
567.94	45569.35
568.14	46310.72
568.34	46228.80
568.54	46429.50
568.74	46329.15
568.94	45972.80
569.14	46892.34
569.34	46624.06
569.54	46472.51
569.75	46001.47
569.95	46339.39
570.15	46546.23
570.35	47166.77
570.55	46558.52
570.75	46533.95
570.95	46761.27
571.15	46810.42
571.35	46843.19
571.55	47283.50
571.75	46699.83
571.95	47359.28
572.15	47209.78
572.35	47121.71
572.55	46937.40
572.75	47537.45
572.95	47568.17
573.15	47322.41
573.35	47287.60
573.55	46906.68
573.75	47441.20
573.95	47621.42
574.15	47502.64
574.35	47969.57
574.55	47228.21
574.75	47125.81
574.95	47914.28
575.15	47574.31
575.34	47523.11
575.54	47564.07
575.74	48186.66
575.94	47809.83
576.14	47426.86
576.34	47967.52
576.54	47977.76
576.74	47959.33
576.94	48014.63
577.14	47789.35
577.34	48233.76
577.54	48387.36
577.74	48088.35
577.94	48280.86
578.14	48440.60
578.34	48454.94
578.54	47938.85
578.74	47879.46
578.94	48735.51
579.14	48426.27
579.34	48583.96
579.54	48301.34
579.74	48594.20
579.94	48438.56
580.13	49155.35
580.33	48821.53
580.53	48768.28
580.73	49253.65
580.93	48760.09
581.13	49145.11
581.33	49618.19
581.53	49634.57
581.73	49552.65
581.93	49423.63
582.13	49489.16
582.33	49593.61
582.53	49515.79
582.73	49759.50
582.92	49605.90
583.12	49607.95
583.32	49722.63
583.52	49161.49
583.72	49845.51
583.92	49739.02
584.12	49976.58
584.32	50445.57
584.52	50382.08
584.72	50281.73
584.92	50328.83
585.11	50732.28
585.31	50173.19
585.51	50732.28
585.71	50492.67
585.91	50975.99
586.11	50089.22
586.31	50410.75
586.51	50470.14
586.71	50566.40
586.91	50681.08
587.10	50953.46
587.30	50918.65
587.50	50631.93
587.70	50920.70
587.90	50861.30
588.10	51135.73
588.30	50857.21
588.50	51133.68
