SpectraSuite Data File
++++++++++++++++++++++++++++++++++++
Date: Fri Jun 02 14:42:00 CEST 2017
User: INFO_000
Dark Spectrum Present: No
Reference Spectrum Present: No
Number of Sampled Component Spectra: 1
Spectrometers: USB4H00879
Integration Time (usec): 80000 (USB4H00879)
Spectra Averaged: 1 (USB4H00879)
Boxcar Smoothing: 0 (USB4H00879)
Correct for Electrical Dark: No (USB4H00879)
Strobe/Lamp Enabled: No (USB4H00879)
Correct for Detector Non-linearity: No (USB4H00879)
Correct for Stray Light: No (USB4H00879)
Number of Pixels in Processed Spectrum: 3648
>>>>>Begin Processed Spectral Data<<<<<
345.13	1267.69
345.34	1267.69
345.56	1267.69
345.78	1312.75
345.99	1349.61
346.21	1738.73
346.42	1656.81
346.64	1644.52
346.86	1769.44
347.07	1621.99
347.29	1683.43
347.50	1617.90
347.72	1675.24
347.94	1847.27
348.15	1511.40
348.37	1693.67
348.59	1738.73
348.80	1669.09
349.02	1742.82
349.23	1894.37
349.45	1863.65
349.67	1867.75
349.88	1769.44
350.10	1904.61
350.31	1804.26
350.53	1765.35
350.75	1900.52
350.96	1804.26
351.18	1855.46
351.39	1910.75
351.61	1847.27
351.82	1890.28
352.04	1990.63
352.26	1802.21
352.47	1906.66
352.69	1933.28
352.90	1814.50
353.12	1863.65
353.34	1906.66
353.55	1937.38
353.77	1837.03
353.98	1894.37
354.20	1814.50
354.41	1918.95
354.63	1892.32
354.85	2041.82
355.06	1884.13
355.28	1798.12
355.49	1839.08
355.71	1916.90
355.92	1832.93
356.14	1894.37
356.35	1843.17
356.57	1859.56
356.79	1904.61
357.00	1900.52
357.22	1935.33
357.43	1822.69
357.65	1941.47
357.86	1767.40
358.08	1961.95
358.29	1929.19
358.51	2045.92
358.72	2025.44
358.94	1937.38
359.16	1990.63
359.37	1927.14
359.59	1994.72
359.80	1968.10
360.02	1957.86
360.23	2025.44
360.45	2093.02
360.66	1923.04
360.88	1884.13
361.09	1945.57
361.31	2007.01
361.52	1953.76
361.74	2027.49
361.95	2025.44
362.17	1923.04
362.38	2064.35
362.60	1945.57
362.81	1988.58
363.03	2000.87
363.24	2000.87
363.46	2000.87
363.67	2035.68
363.89	1974.24
364.10	2031.58
364.32	1904.61
364.53	2060.26
364.75	1945.57
364.96	1984.48
365.18	1998.82
365.39	1982.43
365.61	1896.42
365.82	2107.36
366.04	1970.15
366.25	2000.87
366.47	2054.11
366.68	2082.78
366.90	1910.75
367.11	2002.91
367.33	2041.82
367.54	2056.16
367.76	2017.25
367.97	2125.79
368.19	2043.87
368.40	2050.02
368.62	2011.11
368.83	1961.95
369.05	2056.16
369.26	1947.62
369.48	1986.53
369.69	1984.48
369.91	2084.83
370.12	2056.16
370.33	2084.83
370.55	2060.26
370.76	2023.39
370.98	2146.27
371.19	2041.82
371.41	2064.35
371.62	2052.06
371.84	1974.24
372.05	2187.23
372.27	2082.78
372.48	2084.83
372.69	2111.46
372.91	2185.18
373.12	2136.03
373.34	2097.12
373.55	2150.37
373.77	2234.33
373.98	2097.12
374.20	2213.85
374.41	2248.67
374.62	2140.13
374.84	2215.90
375.05	2199.52
375.27	2205.66
375.48	2199.52
375.70	2170.85
375.91	2203.61
376.12	2281.44
376.34	2244.57
376.55	2293.72
376.77	2265.05
376.98	2174.94
377.19	2082.78
377.41	2150.37
377.62	2222.05
377.84	2199.52
378.05	2306.01
378.27	2142.18
378.48	2375.64
378.69	2392.03
378.91	2334.68
379.12	2308.06
379.34	2240.48
379.55	2322.40
379.76	2295.77
379.98	2183.13
380.19	2285.53
380.41	2246.62
380.62	2340.83
380.83	2160.61
381.05	2193.37
381.26	2338.78
381.47	2279.39
381.69	2267.10
381.90	2408.41
382.12	2224.09
382.33	2244.57
382.54	2187.23
382.76	2322.40
382.97	2306.01
383.19	2279.39
383.40	2441.18
383.61	2392.03
383.83	2318.30
384.04	2326.49
384.25	2394.08
384.47	2490.33
384.68	2394.08
384.89	2334.68
385.11	2416.60
385.32	2443.23
385.54	2410.46
385.75	2406.36
385.96	2428.89
386.18	2475.99
386.39	2453.47
386.60	2275.29
386.82	2412.51
387.03	2527.19
387.24	2506.71
387.46	2535.39
387.67	2488.28
387.88	2559.96
388.10	2506.71
388.31	2492.38
388.52	2584.54
388.74	2516.95
388.95	2566.10
389.16	2547.67
389.38	2527.19
389.59	2621.40
389.80	2701.27
390.02	2529.24
390.23	2611.16
390.44	2648.02
390.66	2555.86
390.87	2541.53
391.08	2660.31
391.30	2785.24
391.51	2670.55
391.72	2684.89
391.94	2668.50
392.15	2656.22
392.36	2609.11
392.58	2611.16
392.79	2754.52
393.00	2719.70
393.22	2734.04
393.43	2877.40
393.64	2809.81
393.85	2791.38
394.07	2602.97
394.28	2799.57
394.49	2840.53
394.71	2801.62
394.92	2893.78
395.13	2750.42
395.35	2797.53
395.56	2756.57
395.77	2830.29
395.98	2879.44
396.20	2969.55
396.41	2848.72
396.62	2940.88
396.84	2924.50
397.05	2846.68
397.26	2969.55
397.47	3012.56
397.69	2852.82
397.90	3127.25
398.11	2949.08
398.32	2891.73
398.54	2867.16
398.75	2852.82
398.96	2897.88
399.18	3168.21
399.39	3098.58
399.60	3131.34
399.81	2928.60
400.03	2957.27
400.24	3377.10
400.45	2983.89
400.66	3074.00
400.88	3108.82
401.09	3203.02
401.30	3047.38
401.51	3248.08
401.73	3180.50
401.94	3194.83
402.15	3190.74
402.36	3284.94
402.58	3211.22
402.79	3235.79
403.00	3227.60
403.21	3286.99
403.43	3219.41
403.64	3297.23
403.85	3160.02
404.06	3340.24
404.27	3209.17
404.49	3203.02
404.70	3262.41
404.91	3389.39
405.12	3237.84
405.34	3243.98
405.55	3557.32
405.76	3166.16
405.97	3235.79
406.19	3413.96
406.40	3272.65
406.61	3356.62
406.82	3436.49
407.03	3350.48
407.25	3387.34
407.46	3520.46
407.67	3434.44
407.88	3477.45
408.09	3465.16
408.31	3436.49
408.52	3565.51
408.73	3411.92
408.94	3336.14
409.15	3563.47
409.37	3547.08
409.58	3540.94
409.79	3590.09
410.00	3629.00
410.21	3514.31
410.43	3565.51
410.64	3413.96
410.85	3557.32
411.06	3565.51
411.27	3606.47
411.48	3651.53
411.70	3755.97
411.91	3700.68
412.12	3766.21
412.33	3665.86
412.54	3651.53
412.76	3887.04
412.97	3766.21
413.18	3616.71
413.39	3694.54
413.60	3624.90
413.81	3772.36
414.03	3751.88
414.24	3739.59
414.45	3950.53
414.66	3743.69
414.87	3868.61
415.08	3780.55
415.30	3772.36
415.51	3841.99
415.72	3778.50
415.93	3844.04
416.14	3874.76
416.35	3921.86
416.56	3823.56
416.78	4057.03
416.99	3930.05
417.20	3899.33
417.41	4052.93
417.62	3968.96
417.83	4116.42
418.04	4091.84
418.26	4038.59
418.47	3878.85
418.68	3960.77
418.89	4075.46
419.10	4257.73
419.31	4065.22
419.52	4157.38
419.73	4034.50
419.95	4132.80
420.16	4081.60
420.37	4089.79
420.58	4251.58
420.79	3885.00
421.00	4134.85
421.21	4319.17
421.42	4245.44
421.63	4192.19
421.85	4169.66
422.06	4284.35
422.27	4255.68
422.48	4251.58
422.69	4382.65
422.90	4386.75
423.11	4462.52
423.32	4345.79
423.53	4466.62
423.75	4452.28
423.96	4675.51
424.17	4419.52
424.38	4687.80
424.59	4472.76
424.80	4712.38
425.01	4581.31
425.22	4509.63
425.43	4495.29
425.64	4863.93
425.85	4790.20
426.06	4759.48
426.28	4769.72
426.49	4632.51
426.70	4700.09
426.91	4792.25
427.12	4890.55
427.33	4726.71
427.54	4786.10
427.75	4827.06
427.96	4902.84
428.17	4782.01
428.38	5066.67
428.59	4972.47
428.80	4962.23
429.01	5132.21
429.23	5019.57
429.44	5173.17
429.65	5224.37
429.86	5148.59
430.07	4902.84
430.28	4892.60
430.49	5242.80
430.70	5337.01
430.91	5228.46
431.12	5107.63
431.33	5388.21
431.54	5318.57
431.75	5296.05
431.96	5287.86
432.17	5255.09
432.38	5398.45
432.59	5539.76
432.80	5390.25
433.01	5412.78
433.22	5541.80
433.43	5455.79
433.64	5457.84
433.85	5404.59
434.06	5476.27
434.27	5476.27
434.49	5627.82
434.70	5693.35
434.91	5722.02
435.12	5693.35
435.33	5576.62
435.54	5584.81
435.75	5476.27
435.96	5709.74
436.17	5570.48
436.38	5750.70
436.59	5836.71
436.80	5625.77
437.01	5900.20
437.22	6080.42
437.43	5910.44
437.64	5629.87
437.85	6059.94
438.06	5937.06
438.27	5912.49
438.48	5935.01
438.69	6053.80
438.90	5953.45
439.11	5961.64
439.32	5965.73
439.53	6033.32
439.74	6184.87
439.95	6182.82
440.16	6072.23
440.37	5955.49
440.57	5990.31
440.78	6301.60
440.99	6371.23
441.20	6346.66
441.41	6053.80
441.62	6360.99
441.83	6109.09
442.04	6524.83
442.25	6266.78
442.46	6168.48
442.67	6410.14
442.88	6827.93
443.09	6217.63
443.30	6406.05
443.51	6504.35
443.72	6641.56
443.93	6395.81
444.14	6688.67
444.35	6434.72
444.56	6623.13
444.77	6463.39
444.98	6616.99
445.19	6580.12
445.40	6614.94
445.61	6571.93
445.81	6680.47
446.02	6707.10
446.23	6881.18
446.44	6608.80
446.65	6614.94
446.86	6637.47
447.07	6893.46
447.28	6948.76
447.49	6942.61
447.70	6817.69
447.91	6930.33
448.12	7004.05
448.33	7075.73
448.54	6991.77
448.74	6887.32
448.95	6938.52
449.16	6981.53
449.37	7307.15
449.58	7085.97
449.79	7344.02
450.00	7118.74
450.21	7010.20
450.42	7360.40
450.63	7315.34
450.84	7264.15
451.05	7425.93
451.25	7249.81
451.46	7182.23
451.67	7415.69
451.88	7417.74
452.09	7276.43
452.30	7454.61
452.51	7350.16
452.72	7473.04
452.93	7739.27
453.13	7382.93
453.34	7647.12
453.55	7729.03
453.76	7575.44
453.97	7903.11
454.18	7665.55
454.39	7985.03
454.60	7831.43
454.81	7882.63
455.01	7921.54
455.22	7628.68
455.43	7993.22
455.64	8140.68
455.85	8220.55
456.06	8253.31
456.27	8091.52
456.48	8056.71
456.68	8347.52
456.89	8331.14
457.10	8415.10
457.31	8292.23
457.52	8390.53
457.73	8306.56
457.94	8753.02
458.14	8228.74
458.35	8753.02
458.56	8570.75
458.77	8404.86
458.98	8642.43
459.19	8589.18
459.39	8642.43
459.60	8830.84
459.81	8714.11
460.02	8984.44
460.23	8849.27
460.44	9037.69
460.65	8986.49
460.85	8888.18
461.06	9084.79
461.27	8912.76
461.48	9123.70
461.69	9348.98
461.89	8972.15
462.10	9305.97
462.31	9097.08
462.52	9109.36
462.73	9162.61
462.94	9721.71
463.14	9213.81
463.35	9355.12
463.56	10000.23
463.77	9641.84
463.98	9541.49
464.18	9809.77
464.39	9738.09
464.60	9887.59
464.81	10018.66
465.02	9875.31
465.23	10506.08
465.43	9963.37
465.64	10356.58
465.85	10053.48
466.06	9977.70
466.27	10559.33
466.47	10542.94
466.68	10352.48
466.89	10442.59
467.10	10381.15
467.30	10424.16
467.51	10667.87
467.72	10956.63
467.93	10669.92
468.14	10751.84
468.34	10899.29
468.55	10919.77
468.76	10876.76
468.97	10850.14
469.17	11261.78
469.38	11333.46
469.59	11423.57
469.80	11255.64
470.01	11351.89
470.21	11206.48
470.42	11640.65
470.63	11654.99
470.84	11247.44
471.04	11773.77
471.25	11663.18
471.46	11751.24
471.67	12033.86
471.87	11886.41
472.08	12238.66
472.29	12128.07
472.50	11951.95
472.70	12025.67
472.91	12214.09
473.12	12451.65
473.33	12584.77
473.53	12871.48
473.74	12633.92
473.95	12779.32
474.16	12562.24
474.36	12926.78
474.57	12969.79
474.78	13262.65
474.99	12980.03
475.19	12906.30
475.40	13434.68
475.61	13309.75
475.81	13668.14
476.02	13659.95
476.23	13694.77
476.44	13748.01
476.64	14145.32
476.85	14235.43
477.06	13985.58
477.27	14481.19
477.47	14343.97
477.68	14219.05
477.89	14618.40
478.09	14552.87
478.30	14563.11
478.51	14501.67
478.71	14821.15
478.92	14870.30
479.13	15034.14
479.34	15130.39
479.54	15157.02
479.75	15359.77
479.96	15333.14
480.16	15355.67
480.37	15257.37
480.58	15552.27
480.78	15963.92
480.99	15791.89
481.20	15951.63
481.41	16305.93
481.61	16076.55
481.82	16412.42
482.03	16381.70
482.23	16365.32
482.44	16535.30
482.65	16684.80
482.85	16815.87
483.06	16482.05
483.27	16932.61
483.47	16858.88
483.68	17231.61
483.89	17159.93
484.09	17274.62
484.30	17207.03
484.51	17833.71
484.71	17585.91
484.92	17549.04
485.13	17776.37
485.33	18042.60
485.54	17741.55
485.75	18149.10
485.95	18099.95
486.16	18188.01
486.37	18501.35
486.57	18564.84
486.78	18388.71
486.98	18556.64
487.19	18663.14
487.40	18794.21
487.60	18736.87
487.81	19085.02
488.02	19058.40
488.22	19005.15
488.43	19357.40
488.64	19594.96
488.84	19418.84
489.05	19580.63
489.25	19185.37
489.46	19818.19
489.67	19850.96
489.87	20090.57
490.08	20008.65
490.29	19855.06
490.49	20418.25
490.70	20485.83
490.90	20362.95
491.11	20637.38
491.32	20745.92
491.52	20692.68
491.73	20842.18
491.94	20911.81
492.14	20707.01
492.35	21210.81
492.55	21374.65
492.76	21343.93
492.97	21518.01
493.17	21173.95
493.38	21687.99
493.58	21579.45
493.79	21956.27
494.00	21423.80
494.20	21753.52
494.41	21710.52
494.61	21923.51
494.82	22044.34
495.02	21900.98
495.23	22052.53
495.44	22138.54
495.64	22597.29
495.85	22664.87
496.05	22849.19
496.26	22529.70
496.47	23060.13
496.67	22879.91
496.88	22943.39
497.08	23058.08
497.29	23047.84
497.49	23281.31
497.70	23152.29
497.91	23420.57
498.11	23457.43
498.32	23754.39
498.52	23844.50
498.73	23983.76
498.93	23662.23
499.14	23957.14
499.34	24274.57
499.55	23897.75
499.76	24059.54
499.96	24286.86
500.17	24084.11
500.37	24495.75
500.58	24186.51
500.78	24426.12
500.99	24430.22
501.19	24657.54
501.40	24790.66
501.60	24508.04
501.81	24712.84
502.02	24870.53
502.22	24749.70
502.43	24987.27
502.63	24909.44
502.84	25126.53
503.04	25245.31
503.25	25269.89
503.45	25579.13
503.66	25603.71
503.86	25579.13
504.07	25755.26
504.27	25532.03
504.48	25974.39
504.68	25788.02
504.89	26080.88
505.09	25904.76
505.30	26091.12
505.50	26076.79
505.71	26097.27
505.91	26285.68
506.12	26353.26
506.32	26252.91
506.53	26494.57
506.73	26521.20
506.94	26637.93
507.14	26257.01
507.35	26809.96
507.55	26625.64
507.76	26812.01
507.96	26949.22
508.17	26850.92
508.37	27246.18
508.58	26728.04
508.78	26881.64
508.99	27405.92
509.19	27008.61
509.40	27332.19
509.60	27285.09
509.81	27502.17
510.01	27190.88
510.22	27575.90
510.42	27463.26
510.63	27463.26
510.83	27502.17
511.04	27672.15
511.24	27811.42
511.44	28229.20
511.65	27936.34
511.85	27924.05
512.06	27917.91
512.26	28210.77
512.47	28376.66
512.67	27948.63
512.88	28126.80
513.08	28008.02
513.29	28284.50
513.49	28581.45
513.69	28585.55
513.90	28669.51
514.10	28567.12
514.31	28937.80
514.51	28720.71
514.72	28769.86
514.92	29011.53
515.13	28991.05
515.33	28827.21
515.53	29193.79
515.74	29158.98
515.94	29382.21
516.15	29249.09
516.35	28857.93
516.56	29564.48
516.76	29179.46
516.96	29331.01
517.17	29457.98
517.37	29427.26
517.58	29566.52
517.78	29726.27
517.99	29539.90
518.19	29847.10
518.39	29754.94
518.60	30113.33
518.80	29961.78
519.01	29926.97
519.21	29853.24
519.41	29744.70
519.62	30285.36
519.82	30240.31
520.03	30398.00
520.23	30350.90
520.43	30508.59
520.64	30688.81
520.84	30680.62
521.05	30809.64
521.25	31045.16
521.45	30656.04
521.66	30969.38
521.86	30905.90
522.07	31100.45
522.27	30975.53
522.47	30957.10
522.68	31378.98
522.88	31198.76
523.08	31772.19
523.29	31602.21
523.49	31551.01
523.70	31903.26
523.90	32046.62
524.10	31720.99
524.31	32099.86
524.51	31944.22
524.71	32437.78
524.92	32269.84
525.12	32302.61
525.33	32421.39
525.53	32441.87
525.73	32579.09
525.94	32648.72
526.14	32624.14
526.34	32779.79
526.55	32884.23
526.75	33017.35
526.95	33232.39
527.16	33050.12
527.36	33308.16
527.56	33293.83
527.77	33576.45
527.97	33236.48
528.17	33644.03
528.38	33658.37
528.58	33179.14
528.78	33715.71
528.99	34035.19
529.19	34199.03
529.39	33486.34
529.60	34387.44
529.80	34317.81
530.00	34428.40
530.21	34612.72
530.41	34729.45
530.61	34403.83
530.82	34651.63
531.02	34532.85
531.22	34450.93
531.43	34866.67
531.63	35294.69
531.83	35448.29
532.04	35495.39
532.24	35120.62
532.44	35306.98
532.64	35593.70
532.85	35597.79
533.05	35595.74
533.25	35839.45
533.46	35816.93
533.66	36140.50
533.86	35962.33
534.07	36582.87
534.27	36109.78
534.47	36447.70
534.67	36529.62
534.88	36713.94
535.08	36478.42
535.28	36728.27
535.49	37144.01
535.69	36961.74
535.89	37213.64
536.09	37129.67
536.30	37412.29
536.50	37510.60
536.70	37586.37
536.91	37248.46
537.11	37621.19
537.31	37479.88
537.51	37959.10
537.72	38282.68
537.92	38147.51
538.12	38610.35
538.32	37967.29
538.53	38225.34
538.73	37998.01
538.93	38456.76
539.13	38507.96
539.34	38133.18
539.54	38610.35
539.74	39089.58
539.94	39144.87
540.15	38659.51
540.35	38935.98
540.55	39134.63
540.75	39181.74
540.96	39316.90
541.16	39613.86
541.36	39134.63
541.56	39214.51
541.77	39919.01
541.97	39609.76
542.17	39642.53
542.37	39953.82
542.58	39839.14
542.78	39644.58
542.98	40035.74
543.18	40076.70
543.38	40523.16
543.59	40492.44
543.79	39675.30
543.99	39923.10
544.19	40295.83
544.40	40146.33
544.60	40514.97
544.80	40676.76
545.00	40330.65
545.20	40891.79
545.41	40697.24
545.61	41096.59
545.81	41053.58
546.01	41063.82
546.21	41008.53
546.42	40865.17
546.62	41432.46
546.82	41067.92
547.02	41309.58
547.22	41428.36
547.43	41393.54
547.63	41686.40
547.83	41594.25
548.03	41596.29
548.23	41495.94
548.44	42055.04
548.64	41784.71
548.84	41977.22
549.04	41784.71
549.24	42460.54
549.45	42179.96
549.65	41579.91
549.85	41823.62
550.05	42415.48
550.25	41723.27
550.45	42849.65
550.66	42370.43
550.86	42005.89
551.06	42577.27
551.26	42550.65
551.46	42700.15
551.66	42476.92
551.87	42784.12
552.07	42923.38
552.27	42648.95
552.47	43038.06
552.67	43332.97
552.87	42988.91
553.07	42917.23
553.28	43453.80
553.48	42818.93
553.68	43406.70
553.88	43466.09
554.08	43591.01
554.28	43373.93
554.48	43287.92
554.69	43273.58
554.89	43672.93
555.09	43545.96
555.29	43480.42
555.49	43746.66
555.69	43687.27
555.89	43746.66
556.10	44365.15
556.30	43978.08
556.50	43521.38
556.70	43681.13
556.90	44053.86
557.10	44098.91
557.30	44070.24
557.50	44162.40
557.70	44197.21
557.91	44361.05
558.11	44006.75
558.31	44377.43
558.51	44127.58
558.71	44416.35
558.91	44658.01
559.11	44449.11
559.31	44610.90
559.51	44567.90
559.72	44739.93
559.92	44774.74
560.12	44586.33
560.32	44766.55
560.52	44612.95
560.72	44805.46
560.92	44850.52
561.12	45274.45
561.32	45174.09
561.52	44635.48
561.72	45368.65
561.93	44852.56
562.13	44938.58
562.33	44842.32
562.53	45327.69
562.73	44537.18
562.93	45170.00
563.13	45479.24
563.33	45270.35
563.53	45745.48
563.73	45346.12
563.93	45626.70
564.13	45782.34
564.33	45403.47
564.53	45638.98
564.74	45722.95
564.94	45278.54
565.14	45409.61
565.34	45679.94
565.54	45653.32
565.74	46015.81
565.94	45980.99
566.14	45532.49
566.34	45745.48
566.54	46427.45
566.74	45925.70
566.94	46046.53
567.14	46488.89
567.34	45821.25
567.54	46216.51
567.74	45679.94
567.94	45589.83
568.14	46572.86
568.34	46449.98
568.54	46181.70
568.74	46404.92
568.94	46347.58
569.14	46699.83
569.34	46681.40
569.54	46499.13
569.75	46458.17
569.95	46671.16
570.15	47002.93
570.35	46409.02
570.55	46654.78
570.75	46431.55
570.95	46923.06
571.15	47072.56
571.35	47076.66
571.55	47240.50
571.75	46703.93
571.95	47355.18
572.15	47183.15
572.35	47254.83
572.55	47232.30
572.75	47332.65
572.95	47281.45
573.15	47371.57
573.35	47533.35
573.55	47035.70
573.75	47390.00
573.95	47783.21
574.15	47488.30
574.35	47703.34
574.55	47484.20
574.75	47494.44
574.95	47662.38
575.15	47760.68
575.34	47723.82
575.54	47588.65
575.74	48084.26
575.94	48141.60
576.14	47746.34
576.34	48198.94
576.54	48067.87
576.74	48379.17
576.94	48022.82
577.14	48440.60
577.34	48395.55
577.54	48157.99
577.74	48258.34
577.94	48485.66
578.14	48727.32
578.34	48940.31
578.54	48082.21
578.74	48125.22
578.94	48694.55
579.14	48844.05
579.34	49083.67
579.54	48774.42
579.74	49714.44
579.94	49122.58
580.13	49116.43
580.33	48829.72
580.53	49618.19
580.73	49378.57
580.93	49108.24
581.13	48815.38
581.33	49698.06
581.53	49448.21
581.73	49032.47
581.93	49470.73
582.13	49661.19
582.33	49530.12
582.53	49317.14
582.73	49796.36
582.92	49802.50
583.12	49739.02
583.32	49845.51
583.52	49542.41
583.72	50033.92
583.92	49841.42
584.12	49952.01
584.32	50464.00
584.52	50017.54
584.72	50345.22
584.92	50134.28
585.11	51188.98
585.31	50685.18
585.51	50478.33
585.71	50298.11
585.91	50994.42
586.11	50576.64
586.31	50496.77
586.51	50068.74
586.71	51049.72
586.91	51336.43
587.10	50916.60
587.30	51066.10
587.50	51279.09
587.70	51246.32
587.90	51324.14
588.10	50625.79
588.30	51393.78
588.50	51487.98
