SpectraSuite Data File
++++++++++++++++++++++++++++++++++++
Date: Fri Jun 02 14:41:54 CEST 2017
User: INFO_000
Dark Spectrum Present: No
Reference Spectrum Present: No
Number of Sampled Component Spectra: 1
Spectrometers: USB4H00879
Integration Time (usec): 80000 (USB4H00879)
Spectra Averaged: 1 (USB4H00879)
Boxcar Smoothing: 0 (USB4H00879)
Correct for Electrical Dark: No (USB4H00879)
Strobe/Lamp Enabled: No (USB4H00879)
Correct for Detector Non-linearity: No (USB4H00879)
Correct for Stray Light: No (USB4H00879)
Number of Pixels in Processed Spectrum: 3648
>>>>>Begin Processed Spectral Data<<<<<
345.13	1337.32
345.34	1337.32
345.56	1337.32
345.78	1345.52
345.99	1263.60
346.21	1621.99
346.42	1640.42
346.64	1648.61
346.86	1769.44
347.07	1654.76
347.29	1658.85
347.50	1609.70
347.72	1644.52
347.94	1650.66
348.15	1601.51
348.37	1650.66
348.59	1648.61
348.80	1675.24
349.02	1822.69
349.23	1861.60
349.45	1804.26
349.67	1877.99
349.88	1808.36
350.10	1933.28
350.31	1865.70
350.53	1916.90
350.75	1951.71
350.96	1769.44
351.18	1841.12
351.39	1882.08
351.61	1812.45
351.82	1898.47
352.04	1824.74
352.26	1777.64
352.47	1916.90
352.69	1908.71
352.90	1761.25
353.12	1837.03
353.34	1873.89
353.55	1906.66
353.77	1892.32
353.98	1853.41
354.20	1845.22
354.41	1945.57
354.63	1843.17
354.85	2027.49
355.06	1888.23
355.28	1705.96
355.49	1865.70
355.71	1851.36
355.92	1849.32
356.14	1951.71
356.35	1888.23
356.57	1859.56
356.79	1980.39
357.00	1886.18
357.22	1916.90
357.43	1822.69
357.65	2045.92
357.86	1855.46
358.08	1945.57
358.29	1888.23
358.51	2011.11
358.72	1982.43
358.94	1974.24
359.16	1900.52
359.37	1890.28
359.59	1980.39
359.80	1945.57
360.02	1920.99
360.23	1982.43
360.45	2047.97
360.66	1949.67
360.88	1847.27
361.09	1982.43
361.31	2035.68
361.52	1953.76
361.74	2068.45
361.95	2060.26
362.17	1939.43
362.38	2078.69
362.60	2043.87
362.81	1984.48
363.03	1908.71
363.24	2084.83
363.46	2099.17
363.67	2025.44
363.89	2013.15
364.10	2015.20
364.32	1949.67
364.53	2050.02
364.75	1916.90
364.96	1976.29
365.18	2035.68
365.39	2050.02
365.61	1943.52
365.82	2156.51
366.04	2101.22
366.25	1945.57
366.47	2041.82
366.68	2097.12
366.90	1959.91
367.11	2113.50
367.33	2043.87
367.54	2203.61
367.76	2000.87
367.97	2090.98
368.19	2052.06
368.40	2017.25
368.62	1994.72
368.83	1974.24
369.05	2007.01
369.26	1970.15
369.48	1964.00
369.69	1964.00
369.91	2105.31
370.12	2041.82
370.33	2166.75
370.55	2027.49
370.76	2023.39
370.98	2158.56
371.19	1998.82
371.41	2066.40
371.62	2119.65
371.84	1982.43
372.05	2140.13
372.27	2113.50
372.48	2045.92
372.69	2043.87
372.91	2150.37
373.12	2174.94
373.34	2066.40
373.55	2056.16
373.77	2133.98
373.98	2023.39
374.20	2168.80
374.41	2195.42
374.62	2156.51
374.84	2158.56
375.05	2154.46
375.27	2164.70
375.48	2174.94
375.70	2215.90
375.91	2252.77
376.12	2301.92
376.34	2181.09
376.55	2230.24
376.77	2254.81
376.98	2144.22
377.19	2174.94
377.41	2121.70
377.62	2248.67
377.84	2269.15
378.05	2297.82
378.27	2238.43
378.48	2346.97
378.69	2402.27
378.91	2248.67
379.12	2217.95
379.34	2289.63
379.55	2291.68
379.76	2248.67
379.98	2211.81
380.19	2293.72
380.41	2215.90
380.62	2340.83
380.83	2293.72
381.05	2174.94
381.26	2383.84
381.47	2297.82
381.69	2263.01
381.90	2432.99
382.12	2322.40
382.33	2291.68
382.54	2398.17
382.76	2344.92
382.97	2324.44
383.19	2248.67
383.40	2385.88
383.61	2322.40
383.83	2258.91
384.04	2418.65
384.25	2396.12
384.47	2449.37
384.68	2297.82
384.89	2308.06
385.11	2363.36
385.32	2371.55
385.54	2320.35
385.75	2439.13
385.96	2457.56
386.18	2508.76
386.39	2359.26
386.60	2392.03
386.82	2453.47
387.03	2502.62
387.24	2527.19
387.46	2502.62
387.67	2574.30
387.88	2611.16
388.10	2521.05
388.31	2475.99
388.52	2621.40
388.74	2613.21
388.95	2568.15
389.16	2578.39
389.38	2580.44
389.59	2584.54
389.80	2652.12
390.02	2584.54
390.23	2688.98
390.44	2719.70
390.66	2586.58
390.87	2533.34
391.08	2641.88
391.30	2664.41
391.51	2676.70
391.72	2701.27
391.94	2686.94
392.15	2576.34
392.36	2615.26
392.58	2547.67
392.79	2637.78
393.00	2717.65
393.22	2688.98
393.43	2797.53
393.64	2854.87
393.85	2873.30
394.07	2744.28
394.28	2746.33
394.49	2731.99
394.71	2756.57
394.92	2881.49
395.13	2754.52
395.35	2830.29
395.56	2775.00
395.77	2852.82
395.98	2858.96
396.20	2879.44
396.41	2901.97
396.62	2918.36
396.84	2844.63
397.05	2852.82
397.26	2918.36
397.47	3030.99
397.69	2928.60
397.90	3047.38
398.11	2971.60
398.32	2938.84
398.54	2904.02
398.75	2961.36
398.96	2869.20
399.18	3088.34
399.39	3088.34
399.60	3215.31
399.81	3016.66
400.03	3014.61
400.24	3330.00
400.45	3006.42
400.66	3088.34
400.88	3088.34
401.09	3274.70
401.30	3002.32
401.51	3186.64
401.73	3166.16
401.94	3198.93
402.15	3164.11
402.36	3237.84
402.58	3289.04
402.79	3207.12
403.00	3221.45
403.21	3207.12
403.43	3313.61
403.64	3348.43
403.85	3243.98
404.06	3295.18
404.27	3164.11
404.49	3284.94
404.70	3221.45
404.91	3444.68
405.12	3180.50
405.34	3252.17
405.55	3461.07
405.76	3276.75
405.97	3260.37
406.19	3420.11
406.40	3362.76
406.61	3459.02
406.82	3413.96
407.03	3393.48
407.25	3291.09
407.46	3469.26
407.67	3411.92
407.88	3485.64
408.09	3286.99
408.31	3370.96
408.52	3413.96
408.73	3346.38
408.94	3444.68
409.15	3497.93
409.37	3512.27
409.58	3561.42
409.79	3483.59
410.00	3672.01
410.21	3461.07
410.43	3524.55
410.64	3409.87
410.85	3581.90
411.06	3620.81
411.27	3665.86
411.48	3690.44
411.70	3696.58
411.91	3712.97
412.12	3755.97
412.33	3573.71
412.54	3741.64
412.76	3835.85
412.97	3665.86
413.18	3729.35
413.39	3665.86
413.60	3854.28
413.81	3729.35
414.03	3778.50
414.24	3637.19
414.45	3889.09
414.66	3665.86
414.87	3882.95
415.08	3858.37
415.30	3852.23
415.51	3942.34
415.72	3880.90
415.93	3901.38
416.14	3885.00
416.35	3932.10
416.56	4046.79
416.78	4030.40
416.99	3909.57
417.20	3809.22
417.41	3856.33
417.62	3872.71
417.83	4024.26
418.04	4026.31
418.26	3993.54
418.47	3956.68
418.68	4108.23
418.89	3991.49
419.10	4190.14
419.31	3999.68
419.52	4136.90
419.73	4179.90
419.95	4206.53
420.16	4050.88
420.37	3997.64
420.58	4157.38
420.79	4128.70
421.00	4272.06
421.21	4202.43
421.42	4169.66
421.63	4239.30
421.85	4151.23
422.06	4360.13
422.27	4308.93
422.48	4339.65
422.69	4255.68
422.90	4214.72
423.11	4335.55
423.32	4394.94
423.53	4384.70
423.75	4423.61
423.96	4628.41
424.17	4530.11
424.38	4646.84
424.59	4440.00
424.80	4622.27
425.01	4577.21
425.22	4458.43
425.43	4540.35
425.64	4695.99
425.85	4855.73
426.06	4734.90
426.28	4706.23
426.49	4476.86
426.70	4581.31
426.91	4679.61
427.12	4845.49
427.33	4870.07
427.54	4732.86
427.75	4923.32
427.96	4947.89
428.17	4855.73
428.38	4902.84
428.59	4968.37
428.80	4974.52
429.01	4992.95
429.23	4892.60
429.44	5189.55
429.65	5111.73
429.86	5074.87
430.07	5009.33
430.28	4925.36
430.49	5115.83
430.70	5310.38
430.91	5183.41
431.12	5025.72
431.33	5400.49
431.54	5183.41
431.75	5271.47
431.96	5279.66
432.17	5226.42
432.38	5177.26
432.59	5590.95
432.80	5281.71
433.01	5472.17
433.22	5294.00
433.43	5545.90
433.64	5451.69
433.85	5498.80
434.06	5552.04
434.27	5351.34
434.49	5582.76
434.70	5572.52
434.91	5500.84
435.12	5597.10
435.33	5586.86
435.54	5660.59
435.75	5554.09
435.96	5687.21
436.17	5519.28
436.38	5855.14
436.59	5734.31
436.80	5777.32
437.01	6027.17
437.22	5914.53
437.43	5746.60
437.64	5738.41
437.85	5908.39
438.06	5894.05
438.27	5797.80
438.48	5832.62
438.69	5949.35
438.90	5982.12
439.11	5875.62
439.32	6051.75
439.53	5980.07
439.74	6131.62
439.95	5988.26
440.16	5967.78
440.37	6152.10
440.57	5965.73
440.78	6172.58
440.99	6168.48
441.20	6322.08
441.41	6010.79
441.62	6129.57
441.83	6039.46
442.04	6268.83
442.25	6178.72
442.46	6213.54
442.67	6289.31
442.88	6721.43
443.09	6135.71
443.30	6246.30
443.51	6336.42
443.72	6678.43
443.93	6373.28
444.14	6637.47
444.35	6236.06
444.56	6569.88
444.77	6561.69
444.98	6664.09
445.19	6655.90
445.40	6721.43
445.61	6662.04
445.81	6621.08
446.02	6774.68
446.23	6686.62
446.44	6528.92
446.65	6858.65
446.86	6635.42
447.07	6860.70
447.28	6954.90
447.49	7032.72
447.70	6668.19
447.91	6678.43
448.12	6913.94
448.33	7034.77
448.54	6948.76
448.74	6901.65
448.95	6999.96
449.16	6926.23
449.37	7223.19
449.58	6967.19
449.79	7262.10
450.00	6934.42
450.21	7059.35
450.42	7221.14
450.63	7335.82
450.84	7247.76
451.05	7069.59
451.25	7341.97
451.46	7229.33
451.67	7282.58
451.88	7448.46
452.09	7569.29
452.30	7284.62
452.51	7393.17
452.72	7649.16
452.93	7802.76
453.13	7593.87
453.34	7333.78
453.55	7600.01
453.76	7430.03
453.97	7962.50
454.18	7704.46
454.39	7831.43
454.60	7694.22
454.81	7618.44
455.01	7888.78
455.22	7456.65
455.43	8046.47
455.64	7999.37
455.85	8163.20
456.06	8247.17
456.27	8128.39
456.48	7989.13
456.68	8218.50
456.89	8159.11
457.10	8179.59
457.31	8296.32
457.52	8193.92
457.73	8322.94
457.94	8513.41
458.14	8206.21
458.35	8767.35
458.56	8382.34
458.77	8421.25
458.98	8480.64
459.19	8619.90
459.39	8730.49
459.60	8724.35
459.81	8916.86
460.02	8900.47
460.23	8634.24
460.44	8904.57
460.65	8894.33
460.85	8974.20
461.06	8896.38
461.27	8814.46
461.48	9310.07
461.69	9320.31
461.89	9133.94
462.10	9129.84
462.31	8935.29
462.52	9256.82
462.73	9250.67
462.94	9551.73
463.14	9232.24
463.35	9658.22
463.56	9828.20
463.77	9697.13
463.98	9363.31
464.18	9631.60
464.39	9846.63
464.60	9834.35
464.81	9891.69
465.02	9916.26
465.23	10123.11
465.43	9989.99
465.64	10280.80
465.85	9920.36
466.06	10006.38
466.27	10413.92
466.47	10399.59
466.68	10456.93
466.89	10407.78
467.10	10444.64
467.30	10428.26
467.51	10499.94
467.72	10950.49
467.93	10344.29
468.14	10649.44
468.34	10743.64
468.55	10757.98
468.76	11005.78
468.97	10942.30
469.17	11114.33
469.38	11124.57
469.59	11308.88
469.80	11222.87
470.01	11110.23
470.21	11429.71
470.42	11509.58
470.63	11630.41
470.84	11611.98
471.04	11632.46
471.25	11775.82
471.46	11794.25
471.67	11978.57
471.87	11794.25
472.08	11931.47
472.29	12261.19
472.50	11892.55
472.70	12001.10
472.91	12023.62
473.12	12523.33
473.33	12240.71
473.53	12621.63
473.74	12220.23
473.95	12799.80
474.16	12799.80
474.36	12805.95
474.57	12902.20
474.78	13182.77
474.99	13145.91
475.19	13055.80
475.40	13262.65
475.61	13344.56
475.81	13590.32
476.02	13764.40
476.23	13596.46
476.44	13592.37
476.64	13831.98
476.85	13942.57
477.06	14034.73
477.27	14223.14
477.47	14282.53
477.68	14554.91
477.89	14454.56
478.09	14731.04
478.30	14606.11
478.51	14636.83
478.71	14894.88
478.92	14774.05
479.13	14778.14
479.34	15144.73
479.54	15204.12
479.75	15064.86
479.96	15415.06
480.16	15271.70
480.37	15595.28
480.58	15554.32
480.78	16119.56
480.99	15757.07
481.20	16041.74
481.41	16047.88
481.61	16178.95
481.82	16142.09
482.03	16133.90
482.23	16328.45
482.44	16664.32
482.65	16742.14
482.85	16760.58
483.06	16635.65
483.27	16893.69
483.47	16836.35
483.68	17121.02
483.89	17067.77
484.09	17028.86
484.30	17286.90
484.51	17823.47
484.71	17622.77
484.92	17528.56
485.13	17884.91
485.33	17899.25
485.54	17772.27
485.75	17929.97
485.95	18099.95
486.16	17993.45
486.37	18237.16
486.57	18083.56
486.78	18437.86
486.98	18472.68
487.19	18575.08
487.40	18947.81
487.60	18790.11
487.81	19154.65
488.02	18953.95
488.22	18712.29
488.43	19066.59
488.64	19234.52
488.84	19451.61
489.05	19676.88
489.25	19660.50
489.46	19424.98
489.67	19871.44
489.87	20041.42
490.08	20199.12
490.29	19637.97
490.49	20244.17
490.70	20270.79
490.90	20457.16
491.11	20076.24
491.32	20455.11
491.52	20465.35
491.73	20627.14
491.94	20752.07
492.14	20819.65
492.35	20885.19
492.55	21012.16
492.76	21128.89
492.97	21233.34
493.17	21155.52
493.38	21470.90
493.58	21663.41
493.79	21554.87
494.00	21704.37
494.20	21837.49
494.41	21636.79
494.61	21819.06
494.82	22005.42
495.02	21982.90
495.23	22312.62
495.44	22103.73
495.64	22410.92
495.85	22142.64
496.05	22777.51
496.26	22564.52
496.47	22922.91
496.67	22947.49
496.88	23078.56
497.08	22650.53
497.29	23301.79
497.49	22857.38
497.70	23135.90
497.91	23426.71
498.11	23248.54
498.32	23408.28
498.52	23469.72
498.73	24010.39
498.93	23928.47
499.14	23705.24
499.34	23834.26
499.55	24131.22
499.76	23824.02
499.96	24118.93
500.17	24120.98
500.37	24241.81
500.58	24315.53
500.78	24422.03
500.99	24215.18
501.19	25079.43
501.40	24436.36
501.60	24598.15
501.81	24761.99
502.02	24645.26
502.22	24514.19
502.43	25036.42
502.63	25357.95
502.84	25255.55
503.04	25138.82
503.25	25403.00
503.45	25183.87
503.66	25568.89
503.86	25407.10
504.07	25970.29
504.27	25450.11
504.48	25702.01
504.68	25912.95
504.89	26001.01
505.09	25849.46
505.30	25814.65
505.50	26052.21
505.71	26111.60
505.91	26250.86
506.12	25984.63
506.32	26201.71
506.53	26431.08
506.73	26568.30
506.94	26470.00
507.14	26488.43
507.35	26457.71
507.55	26697.32
507.76	26990.18
507.96	26615.40
508.17	26846.82
508.37	26961.51
508.58	26922.60
508.78	26664.55
508.99	27219.55
509.19	27076.19
509.40	27098.72
509.60	27307.62
509.81	27293.28
510.01	27135.59
510.22	27180.64
510.42	27674.20
510.63	27680.35
510.83	27414.11
511.04	27530.84
511.24	27647.58
511.44	27844.18
511.65	27772.50
511.85	27866.71
512.06	28034.64
512.26	27844.18
512.47	27967.06
512.67	28014.16
512.88	28100.18
513.08	27979.35
513.29	28280.40
513.49	28096.08
513.69	28151.38
513.90	28434.00
514.10	28548.68
514.31	28456.53
514.51	28898.89
514.72	28614.22
514.92	28800.58
515.13	28642.89
515.33	28941.89
515.53	29060.68
515.74	28874.31
515.94	29050.44
516.15	28925.51
516.35	28941.89
516.56	29148.74
516.76	28859.98
516.96	29052.48
517.17	29007.43
517.37	29447.74
517.58	29195.84
517.78	29750.84
517.99	29435.45
518.19	29621.82
518.39	29759.03
518.60	29779.51
518.80	29488.70
519.01	29650.49
519.21	29840.95
519.41	30185.01
519.62	29994.55
519.82	30299.70
520.03	30152.24
520.23	30608.94
520.43	29996.60
520.64	30494.25
520.84	30895.66
521.05	30514.73
521.25	30705.20
521.45	30850.60
521.66	30973.48
521.86	30697.00
522.07	31184.42
522.27	30901.80
522.47	31202.85
522.68	31448.61
522.88	31073.83
523.08	31370.79
523.29	31370.79
523.49	31911.45
523.70	31688.22
523.90	31589.92
524.10	31632.93
524.31	32058.90
524.51	31399.46
524.71	31843.87
524.92	32028.18
525.12	32370.19
525.33	31958.55
525.53	32536.08
525.73	32515.60
525.94	32521.74
526.14	32349.71
526.34	32945.67
526.55	32661.01
526.75	32708.11
526.95	33199.62
527.16	32828.94
527.36	32835.08
527.56	33375.75
527.77	33568.26
527.97	33152.52
528.17	33230.34
528.38	33517.06
528.58	33668.61
528.78	33623.55
528.99	33504.77
529.19	34104.82
529.39	33512.96
529.60	34506.23
529.80	33902.07
530.00	34100.73
530.21	34123.26
530.41	34465.27
530.61	34340.34
530.82	34260.47
531.02	34373.11
531.22	34737.65
531.43	34876.91
531.63	34698.73
531.83	35139.05
532.04	35603.94
532.24	34821.61
532.44	35558.88
532.64	35556.83
532.85	36048.35
533.05	35337.70
533.25	35546.59
533.46	35386.85
533.66	36255.19
533.86	35798.49
534.07	36333.01
534.27	36148.70
534.47	36392.40
534.67	36203.99
534.88	36212.18
535.08	36222.42
535.28	36920.78
535.49	36697.55
535.69	37025.23
535.89	36584.91
536.09	37115.34
536.30	37277.13
536.50	36965.84
536.70	37150.15
536.91	36998.60
537.11	37313.99
537.31	37346.76
537.51	37516.74
537.72	38188.47
537.92	38143.42
538.12	38282.68
538.32	37975.48
538.53	38260.15
538.73	38163.90
538.93	38157.75
539.13	38178.23
539.34	38530.48
539.54	38272.44
539.74	38993.32
539.94	38540.72
540.15	38610.35
540.35	38714.80
540.55	38809.01
540.75	38925.74
540.96	39339.43
541.16	39142.83
541.36	39179.69
541.56	39187.88
541.77	39693.73
541.97	39304.62
542.17	39820.70
542.37	39624.10
542.58	40181.15
542.78	39308.71
542.98	39658.91
543.18	39830.94
543.38	40267.16
543.59	40121.76
543.79	39953.82
543.99	39966.11
544.19	40424.86
544.40	40105.37
544.60	40750.48
544.80	40437.14
545.00	40453.53
545.20	41082.25
545.41	40353.18
545.61	40437.14
545.81	41033.10
546.01	41444.74
546.21	40924.56
546.42	41170.32
546.62	41225.61
546.82	40820.11
547.02	41371.02
547.22	41315.72
547.43	41176.46
547.63	41182.60
547.83	41489.80
548.03	41285.00
548.23	41991.55
548.44	41510.28
548.64	41893.25
548.84	41569.67
549.04	41928.06
549.24	41928.06
549.45	42102.14
549.65	41794.95
549.85	41901.44
550.05	42222.97
550.25	41915.78
550.45	42681.72
550.66	41989.50
550.86	42014.08
551.06	42634.61
551.26	42468.73
551.46	42513.78
551.66	42306.94
551.87	42319.23
552.07	42696.05
552.27	42601.85
552.47	42755.44
552.67	42927.47
552.87	42696.05
553.07	42739.06
553.28	43005.30
553.48	42954.10
553.68	42874.23
553.88	43578.73
554.08	43048.30
554.28	43562.34
554.48	43046.26
554.69	43197.80
554.89	43814.24
555.09	43412.84
555.29	43316.59
555.49	43318.64
555.69	43502.95
555.89	43783.52
556.10	43838.82
556.30	43255.15
556.50	43783.52
556.70	43531.62
556.90	44490.07
557.10	43906.40
557.30	43484.52
557.50	44006.75
557.70	44236.12
557.91	43967.84
558.11	44176.73
558.31	44359.00
558.51	44412.25
558.71	44442.97
558.91	44227.93
559.11	44195.17
559.31	44334.43
559.51	44535.13
559.72	44539.22
559.92	44739.93
560.12	44137.82
560.32	44580.18
560.52	44254.56
560.72	44424.54
560.92	44522.84
561.12	44985.68
561.32	45399.37
561.52	44957.01
561.72	45303.12
561.93	44733.78
562.13	44961.11
562.33	45086.03
562.53	45522.25
562.73	44768.60
562.93	45079.89
563.13	44690.77
563.33	45432.14
563.53	45301.07
563.73	44885.33
563.93	45534.54
564.13	45800.77
564.33	45303.12
564.53	45495.63
564.74	45593.93
564.94	45083.98
565.14	45335.88
565.34	45239.63
565.54	45741.38
565.74	45593.93
565.94	46118.21
566.14	45741.38
566.34	45610.31
566.54	46161.22
566.74	45712.71
566.94	45811.01
567.14	45950.27
567.34	45473.10
567.54	45903.17
567.74	46042.43
567.94	46079.30
568.14	46292.29
568.34	46040.39
568.54	45880.64
568.74	46654.78
568.94	46290.24
569.14	46925.11
569.34	46402.88
569.54	46355.77
569.75	46343.48
569.95	46372.16
570.15	46396.73
570.35	47015.22
570.55	46609.72
570.75	46429.50
570.95	46878.00
571.15	46763.32
571.35	46908.72
571.55	46775.61
571.75	46937.40
571.95	47199.54
572.15	46896.44
572.35	46992.69
572.55	47144.24
572.75	47295.79
572.95	47465.77
573.15	47293.74
573.35	47125.81
573.55	47070.51
573.75	47273.26
573.95	47117.62
574.15	47727.91
574.35	47826.21
574.55	47586.60
574.75	47037.75
574.95	47342.89
575.15	47363.37
575.34	47568.17
575.54	47826.21
575.74	47879.46
575.94	47963.43
576.14	48014.63
576.34	47629.61
576.54	48295.20
576.74	48387.36
576.94	47867.17
577.14	48278.82
577.34	48596.25
577.54	47818.02
577.74	48547.10
577.94	48844.05
578.14	48565.53
578.34	48524.57
578.54	47979.81
578.74	48420.13
578.94	49026.32
579.14	48397.60
579.34	48706.84
579.54	48612.63
579.74	48962.84
579.94	48741.66
580.13	49304.85
580.33	48301.34
580.53	48837.91
580.73	49022.23
580.93	49263.89
581.13	48962.84
581.33	49575.18
581.53	49288.46
581.73	49261.84
581.93	49626.38
582.13	49640.71
582.33	49067.28
582.53	49437.97
582.73	49411.34
582.92	49440.01
583.12	49755.40
583.32	49544.46
583.52	49169.68
583.72	50054.40
583.92	49843.46
584.12	49911.05
584.32	50265.34
584.52	50445.57
584.72	50001.16
584.92	50398.46
585.11	50531.58
585.31	50824.44
585.51	50308.35
585.71	50257.15
585.91	50951.41
586.11	50511.10
586.31	50113.80
586.51	50474.24
586.71	50568.44
586.91	50992.37
587.10	51051.76
587.30	50840.82
587.50	51197.17
587.70	51485.93
587.90	51045.62
588.10	51395.82
588.30	50922.74
588.50	51082.48
