SpectraSuite Data File
++++++++++++++++++++++++++++++++++++
Date: Fri Jun 02 14:42:00 CEST 2017
User: INFO_000
Dark Spectrum Present: No
Reference Spectrum Present: No
Number of Sampled Component Spectra: 1
Spectrometers: USB4H00879
Integration Time (usec): 80000 (USB4H00879)
Spectra Averaged: 1 (USB4H00879)
Boxcar Smoothing: 0 (USB4H00879)
Correct for Electrical Dark: No (USB4H00879)
Strobe/Lamp Enabled: No (USB4H00879)
Correct for Detector Non-linearity: No (USB4H00879)
Correct for Stray Light: No (USB4H00879)
Number of Pixels in Processed Spectrum: 3648
>>>>>Begin Processed Spectral Data<<<<<
345.13	1296.36
345.34	1296.36
345.56	1296.36
345.78	1308.65
345.99	1345.52
346.21	1740.77
346.42	1691.62
346.64	1665.00
346.86	1783.78
347.07	1681.38
347.29	1818.60
347.50	1624.04
347.72	1697.77
347.94	1691.62
348.15	1511.40
348.37	1632.23
348.59	1626.09
348.80	1615.85
349.02	1810.40
349.23	1912.80
349.45	1728.49
349.67	1910.75
349.88	1808.36
350.10	1916.90
350.31	1779.68
350.53	1841.12
350.75	1935.33
350.96	1800.16
351.18	1875.94
351.39	1886.18
351.61	1804.26
351.82	1898.47
352.04	1841.12
352.26	1845.22
352.47	1834.98
352.69	1904.61
352.90	1816.55
353.12	1880.04
353.34	1773.54
353.55	1955.81
353.77	1914.85
353.98	1808.36
354.20	1814.50
354.41	1902.56
354.63	1976.29
354.85	2066.40
355.06	1863.65
355.28	1759.21
355.49	1853.41
355.71	1890.28
355.92	1849.32
356.14	2031.58
356.35	1816.55
356.57	1884.13
356.79	1925.09
357.00	1837.03
357.22	1978.34
357.43	1855.46
357.65	1912.80
357.86	1867.75
358.08	1968.10
358.29	1945.57
358.51	1961.95
358.72	2004.96
358.94	1927.14
359.16	1902.56
359.37	1933.28
359.59	2023.39
359.80	2013.15
360.02	1957.86
360.23	1937.38
360.45	1970.15
360.66	1914.85
360.88	1757.16
361.09	1920.99
361.31	2068.45
361.52	1972.19
361.74	2109.41
361.95	2066.40
362.17	2000.87
362.38	2168.80
362.60	1947.62
362.81	1992.67
363.03	2019.30
363.24	1884.13
363.46	2117.60
363.67	2004.96
363.89	1933.28
364.10	1957.86
364.32	1943.52
364.53	2060.26
364.75	1906.66
364.96	2017.25
365.18	1964.00
365.39	2007.01
365.61	1976.29
365.82	2183.13
366.04	2015.20
366.25	1935.33
366.47	2056.16
366.68	2019.30
366.90	1935.33
367.11	2068.45
367.33	2047.97
367.54	2070.50
367.76	2039.78
367.97	2047.97
368.19	2062.30
368.40	2009.06
368.62	2000.87
368.83	1931.23
369.05	2041.82
369.26	1980.39
369.48	1996.77
369.69	2029.54
369.91	2047.97
370.12	1992.67
370.33	2170.85
370.55	1992.67
370.76	2043.87
370.98	2140.13
371.19	2039.78
371.41	1974.24
371.62	2066.40
371.84	2043.87
372.05	2215.90
372.27	1972.19
372.48	2109.41
372.69	2072.54
372.91	2115.55
373.12	2119.65
373.34	2062.30
373.55	2088.93
373.77	2265.05
373.98	2084.83
374.20	2195.42
374.41	2242.53
374.62	2148.32
374.84	2197.47
375.05	2154.46
375.27	2164.70
375.48	2154.46
375.70	2144.22
375.91	2244.57
376.12	2191.33
376.34	2197.47
376.55	2185.18
376.77	2254.81
376.98	2166.75
377.19	2138.08
377.41	2228.19
377.62	2209.76
377.84	2310.11
378.05	2369.50
378.27	2213.85
378.48	2371.55
378.69	2392.03
378.91	2287.58
379.12	2299.87
379.34	2199.52
379.55	2279.39
379.76	2332.64
379.98	2164.70
380.19	2209.76
380.41	2230.24
380.62	2359.26
380.83	2344.92
381.05	2228.19
381.26	2402.27
381.47	2371.55
381.69	2271.20
381.90	2459.61
382.12	2322.40
382.33	2342.88
382.54	2363.36
382.76	2389.98
382.97	2303.96
383.19	2273.25
383.40	2400.22
383.61	2359.26
383.83	2418.65
384.04	2349.02
384.25	2357.21
384.47	2500.57
384.68	2484.19
384.89	2283.49
385.11	2242.53
385.32	2394.08
385.54	2365.40
385.75	2322.40
385.96	2410.46
386.18	2344.92
386.39	2469.85
386.60	2338.78
386.82	2514.91
387.03	2410.46
387.24	2484.19
387.46	2494.43
387.67	2523.10
387.88	2494.43
388.10	2500.57
388.31	2488.28
388.52	2557.91
388.74	2572.25
388.95	2523.10
389.16	2543.58
389.38	2590.68
389.59	2631.64
389.80	2715.61
390.02	2492.38
390.23	2600.92
390.44	2598.87
390.66	2555.86
390.87	2572.25
391.08	2729.94
391.30	2682.84
391.51	2707.41
391.72	2666.46
391.94	2686.94
392.15	2770.90
392.36	2625.50
392.58	2617.30
392.79	2688.98
393.00	2764.76
393.22	2850.77
393.43	2727.89
393.64	2781.14
393.85	2789.33
394.07	2641.88
394.28	2813.91
394.49	2775.00
394.71	2949.08
394.92	2836.44
395.13	2775.00
395.35	2793.43
395.56	2854.87
395.77	2891.73
395.98	2910.16
396.20	2842.58
396.41	2869.20
396.62	2908.12
396.84	2865.11
397.05	2871.25
397.26	2983.89
397.47	2899.92
397.69	2838.48
397.90	3069.91
398.11	2916.31
398.32	2971.60
398.54	2885.59
398.75	2873.30
398.96	2936.79
399.18	3071.95
399.39	3055.57
399.60	3084.24
399.81	2994.13
400.03	3065.81
400.24	3270.61
400.45	3178.45
400.66	3121.10
400.88	2994.13
401.09	3184.59
401.30	3110.86
401.51	3227.60
401.73	3123.15
401.94	3182.54
402.15	3149.78
402.36	3268.56
402.58	3231.69
402.79	3243.98
403.00	3239.89
403.21	3258.32
403.43	3235.79
403.64	3393.48
403.85	3205.07
404.06	3379.15
404.27	3254.22
404.49	3211.22
404.70	3221.45
404.91	3346.38
405.12	3278.80
405.34	3379.15
405.55	3459.02
405.76	3233.74
405.97	3344.33
406.19	3499.98
406.40	3258.32
406.61	3409.87
406.82	3432.40
407.03	3446.73
407.25	3477.45
407.46	3551.18
407.67	3530.70
407.88	3629.00
408.09	3510.22
408.31	3426.25
408.52	3450.83
408.73	3399.63
408.94	3516.36
409.15	3559.37
409.37	3532.75
409.58	3360.72
409.79	3579.85
410.00	3637.19
410.21	3502.03
410.43	3526.60
410.64	3534.79
410.85	3612.62
411.06	3659.72
411.27	3667.91
411.48	3667.91
411.70	3719.11
411.91	3753.93
412.12	3719.11
412.33	3735.50
412.54	3690.44
412.76	3743.69
412.97	3706.82
413.18	3542.99
413.39	3784.65
413.60	3760.07
413.81	3825.61
414.03	3655.62
414.24	3559.37
414.45	3862.47
414.66	3690.44
414.87	3825.61
415.08	3719.11
415.30	3850.18
415.51	3864.52
415.72	3762.12
415.93	3803.08
416.14	4001.73
416.35	3915.72
416.56	3938.24
416.78	3809.22
416.99	3829.70
417.20	3889.09
417.41	4054.98
417.62	3878.85
417.83	4130.75
418.04	3981.25
418.26	4093.89
418.47	4014.02
418.68	4179.90
418.89	4110.27
419.10	4249.54
419.31	4042.69
419.52	4200.38
419.73	4065.22
419.95	4206.53
420.16	4089.79
420.37	4157.38
420.58	4194.24
420.79	4046.79
421.00	4184.00
421.21	4270.01
421.42	4120.51
421.63	4257.73
421.85	4175.81
422.06	4214.72
422.27	4403.13
422.48	4257.73
422.69	4376.51
422.90	4485.05
423.11	4366.27
423.32	4427.71
423.53	4456.38
423.75	4456.38
423.96	4691.90
424.17	4519.87
424.38	4593.59
424.59	4515.77
424.80	4818.87
425.01	4583.35
425.22	4530.11
425.43	4454.33
425.64	4777.91
425.85	4687.80
426.06	4734.90
426.28	4739.00
426.49	4640.70
426.70	4749.24
426.91	4806.58
427.12	4949.94
427.33	4849.59
427.54	4636.60
427.75	4759.48
427.96	4863.93
428.17	4933.56
428.38	4954.04
428.59	5173.17
428.80	4951.99
429.01	5033.91
429.23	5105.59
429.44	5224.37
429.65	5058.48
429.86	5107.63
430.07	5042.10
430.28	4978.61
430.49	5099.44
430.70	5160.88
430.91	5144.50
431.12	5189.55
431.33	5343.15
431.54	5308.34
431.75	5326.77
431.96	5205.94
432.17	5277.62
432.38	5337.01
432.59	5556.14
432.80	5390.25
433.01	5572.52
433.22	5476.27
433.43	5386.16
433.64	5441.45
433.85	5310.38
434.06	5631.91
434.27	5463.98
434.49	5631.91
434.70	5789.61
434.91	5664.68
435.12	5623.72
435.33	5676.97
435.54	5574.57
435.75	5572.52
435.96	5672.87
436.17	5672.87
436.38	5748.65
436.59	5781.42
436.80	5711.78
437.01	6078.37
437.22	6016.93
437.43	5840.81
437.64	5834.66
437.85	5973.92
438.06	6076.32
438.27	5851.05
438.48	5812.14
438.69	6115.23
438.90	5986.21
439.11	5769.13
439.32	5990.31
439.53	6035.36
439.74	6143.91
439.95	6047.65
440.16	6084.52
440.37	6158.24
440.57	6156.19
440.78	6107.04
440.99	6107.04
441.20	6201.25
441.41	6047.65
441.62	6332.32
441.83	5982.12
442.04	6389.66
442.25	6393.76
442.46	6164.39
442.67	6371.23
442.88	6524.83
443.09	6299.55
443.30	6268.83
443.51	6363.04
443.72	6580.12
443.93	6352.80
444.14	6668.19
444.35	6360.99
444.56	6490.01
444.77	6694.81
444.98	6653.85
445.19	6832.02
445.40	6688.67
445.61	6541.21
445.81	6774.68
446.02	6852.50
446.23	6707.10
446.44	6461.34
446.65	6662.04
446.86	6842.26
447.07	6748.06
447.28	6971.29
447.49	6817.69
447.70	6809.50
447.91	6795.16
448.12	6922.13
448.33	7034.77
448.54	7047.06
448.74	6987.67
448.95	7047.06
449.16	6944.66
449.37	7239.57
449.58	7032.72
449.79	7231.38
450.00	6967.19
450.21	7233.43
450.42	7237.52
450.63	7301.01
450.84	7272.34
451.05	7450.51
451.25	7384.98
451.46	7137.17
451.67	7440.27
451.88	7563.15
452.09	7380.88
452.30	7466.89
452.51	7401.36
452.72	7579.53
452.93	7776.14
453.13	7477.13
453.34	7595.92
453.55	7624.59
453.76	7741.32
453.97	7876.49
454.18	7831.43
454.39	7815.05
454.60	7673.74
454.81	7792.52
455.01	7966.60
455.22	7620.49
455.43	7954.31
455.64	8191.88
455.85	8220.55
456.06	8042.37
456.27	8109.96
456.48	7935.88
456.68	8099.72
456.89	8222.59
457.10	8306.56
457.31	8327.04
457.52	8247.17
457.73	8384.38
457.94	8619.90
458.14	8294.27
458.35	8779.64
458.56	8562.56
458.77	8447.87
458.98	8677.24
459.19	8669.05
459.39	8669.05
459.60	8945.53
459.81	8621.95
460.02	8986.49
460.23	8951.67
460.44	9076.60
460.65	8984.44
460.85	9299.83
461.06	9109.36
461.27	8945.53
461.48	9498.48
461.69	9482.10
461.89	8947.58
462.10	9314.16
462.31	9092.98
462.52	9224.05
462.73	9240.44
462.94	9551.73
463.14	9463.66
463.35	9439.09
463.56	9785.19
463.77	9867.11
463.98	9641.84
464.18	9549.68
464.39	9838.44
464.60	9918.31
464.81	9989.99
465.02	9942.89
465.23	9946.98
465.43	10022.76
465.64	10280.80
465.85	10123.11
466.06	10092.39
466.27	10375.01
466.47	10176.36
466.68	10719.07
466.89	10325.86
467.10	10549.09
467.30	10501.98
467.51	10534.75
467.72	10737.50
467.93	10514.27
468.14	10528.61
468.34	10913.63
468.55	10843.99
468.76	11186.01
468.97	10782.56
469.17	11126.61
469.38	11497.30
469.59	11493.20
469.80	11251.54
470.01	11200.34
470.21	11333.46
470.42	11784.01
470.63	11611.98
470.84	11497.30
471.04	11675.47
471.25	11870.03
471.46	11861.84
471.67	12091.21
471.87	12021.58
472.08	12193.61
472.29	12244.81
472.50	11970.38
472.70	12248.90
472.91	12154.69
473.12	12418.88
473.33	12443.46
473.53	12650.30
473.74	12476.23
473.95	12842.81
474.16	12898.11
474.36	12803.90
474.57	13031.23
474.78	13272.89
474.99	13111.10
475.19	13061.94
475.40	13430.58
475.61	13629.23
475.81	13537.07
476.02	13743.92
476.23	13403.96
476.44	13807.41
476.64	13913.90
476.85	14335.78
477.06	14032.68
477.27	14155.56
477.47	14468.90
477.68	14331.69
477.89	14507.81
478.09	14425.89
478.30	14683.94
478.51	14898.97
478.71	14792.48
478.92	14817.05
479.13	15079.19
479.34	15212.31
479.54	15079.19
479.75	15218.46
479.96	15249.18
480.16	15413.01
480.37	15513.36
480.58	15677.20
480.78	15832.85
480.99	15849.23
481.20	15847.18
481.41	16166.67
481.61	16213.77
481.82	16473.86
482.03	16424.71
482.23	16473.86
482.44	16807.68
482.65	16748.29
482.85	16787.20
483.06	16690.95
483.27	16881.41
483.47	16729.86
483.68	17190.65
483.89	17215.23
484.09	17417.97
484.30	17168.12
484.51	17559.28
484.71	17622.77
484.92	17555.19
485.13	17911.53
485.33	17805.04
485.54	17907.44
485.75	17962.73
485.95	18208.49
486.16	18435.81
486.37	18312.94
486.57	18372.33
486.78	18454.25
486.98	18491.11
487.19	18912.99
487.40	19062.49
487.60	18763.49
487.81	19154.65
488.02	18988.77
488.22	18992.86
488.43	19496.66
488.64	19439.32
488.84	19502.81
489.05	19433.18
489.25	19361.50
489.46	19758.80
489.67	19728.08
489.87	20043.47
490.08	20008.65
490.29	19953.36
490.49	20414.15
490.70	20256.46
490.90	20367.05
491.11	20637.38
491.32	20428.49
491.52	20520.65
491.73	20494.02
491.94	20897.47
492.14	20582.09
492.35	21229.24
492.55	21036.74
492.76	21280.44
492.97	21524.15
493.17	21327.55
493.38	21505.72
493.58	21630.65
493.79	21827.25
494.00	21520.06
494.20	21862.07
494.41	21739.19
494.61	22044.34
494.82	21960.37
495.02	22242.99
495.23	22189.74
495.44	22380.20
495.64	22478.50
495.85	22564.52
496.05	22650.53
496.26	22468.27
496.47	22998.69
496.67	22673.06
496.88	22970.02
497.08	22705.83
497.29	23221.92
497.49	22996.64
497.70	23080.61
497.91	23502.49
498.11	23541.40
498.32	23533.21
498.52	23680.66
498.73	23723.67
498.93	23742.10
499.14	23924.37
499.34	24045.20
499.55	24161.94
499.76	23934.61
499.96	23950.99
500.17	24368.78
500.37	24569.48
500.58	24227.47
500.78	24080.02
500.99	24643.21
501.19	24688.26
501.40	24542.86
501.60	24639.11
501.81	24870.53
502.02	24755.85
502.22	24811.14
502.43	25194.11
502.63	25364.09
502.84	25417.34
503.04	25120.38
503.25	25292.41
503.45	24944.26
503.66	25540.22
503.86	25478.78
504.07	25718.39
504.27	25405.05
504.48	26117.75
504.68	25835.13
504.89	26041.97
505.09	26201.71
505.30	26164.85
505.50	26013.30
505.71	25933.43
505.91	26320.49
506.12	26156.66
506.32	26582.63
506.53	26207.86
506.73	26269.30
506.94	26760.81
507.14	26355.31
507.35	26881.64
507.55	26904.17
507.76	26842.73
507.96	26809.96
508.17	26793.58
508.37	26869.35
508.58	27037.28
508.78	26762.86
508.99	27528.80
509.19	27450.97
509.40	27651.67
509.60	27387.49
509.81	27514.46
510.01	27274.85
510.22	27235.94
510.42	27602.52
510.63	27594.33
510.83	27571.80
511.04	27965.01
511.24	28149.33
511.44	27821.66
511.65	27792.98
511.85	27885.14
512.06	27954.77
512.26	28208.72
512.47	28192.34
512.67	27987.54
512.88	28522.06
513.08	28134.99
513.29	28446.29
513.49	28257.87
513.69	28266.06
513.90	28675.66
514.10	28528.20
514.31	28749.39
514.51	28636.75
514.72	28724.81
514.92	28798.54
515.13	28804.68
515.33	29244.99
515.53	29175.36
515.74	28771.91
515.94	28986.95
516.15	29017.67
516.35	29273.67
516.56	29447.74
516.76	29144.64
516.96	29496.89
517.17	29523.52
517.37	29707.83
517.58	29503.04
517.78	29697.59
517.99	29810.23
518.19	29611.58
518.39	29697.59
518.60	30254.64
518.80	29857.34
519.01	30055.99
519.21	29843.00
519.41	30275.12
519.62	29879.86
519.82	30488.11
520.03	30275.12
520.23	30191.16
520.43	30092.85
520.64	30676.52
520.84	30893.61
521.05	30744.11
521.25	30983.72
521.45	30905.90
521.66	30676.52
521.86	30701.10
522.07	30971.43
522.27	31147.56
522.47	31321.63
522.68	31407.65
522.88	31391.26
523.08	31479.33
523.29	31483.42
523.49	31772.19
523.70	31735.32
523.90	32128.53
524.10	31960.60
524.31	32273.94
524.51	32030.23
524.71	32181.78
524.92	32339.47
525.12	32273.94
525.33	32251.41
525.53	32462.35
525.73	33072.65
525.94	32759.31
526.14	32583.18
526.34	32771.60
526.55	32929.29
526.75	33021.45
526.95	33117.70
527.16	33027.59
527.36	33164.81
527.56	33304.07
527.77	33353.22
527.97	33134.09
528.17	33725.95
528.38	33523.20
528.58	33752.57
528.78	34096.63
528.99	33881.60
529.19	34049.53
529.39	33588.74
529.60	34221.56
529.80	34393.59
530.00	34268.66
530.21	34670.06
530.41	34326.00
530.61	34719.21
530.82	34477.55
531.02	34473.46
531.22	34815.47
531.43	34971.11
531.63	35016.17
531.83	35249.64
532.04	35479.01
532.24	35085.80
532.44	35802.59
532.64	35603.94
532.85	36091.35
533.05	36111.83
533.25	35941.85
533.46	36085.21
533.66	36500.95
533.86	36027.87
534.07	36443.60
534.27	35999.19
534.47	36636.11
534.67	36447.70
534.88	36206.04
535.08	36670.93
535.28	37094.86
535.49	36980.17
535.69	37307.85
535.89	36992.46
536.09	37117.39
536.30	37670.34
536.50	37283.27
536.70	37531.08
536.91	37721.54
537.11	37791.17
537.31	37817.79
537.51	37934.53
537.72	37846.46
537.92	38127.03
538.12	38632.88
538.32	38088.12
538.53	38403.51
538.73	38284.73
538.93	38223.29
539.13	38864.30
539.34	38632.88
539.54	38260.15
539.74	39093.68
539.94	38546.87
540.15	38792.62
540.35	39251.37
540.55	38880.69
540.75	39306.66
540.96	39290.28
541.16	39265.70
541.36	39476.65
541.56	39394.73
541.77	39886.24
541.97	39626.15
542.17	39806.37
542.37	40058.27
542.58	39949.73
542.78	39466.41
542.98	39736.74
543.18	40023.45
543.38	40320.41
543.59	40254.87
543.79	40086.94
543.99	40031.65
544.19	40586.64
544.40	40680.85
544.60	40785.30
544.80	40566.16
545.00	40572.31
545.20	40609.17
545.41	40469.91
545.61	41008.53
545.81	41176.46
546.01	41031.05
546.21	41029.01
546.42	41016.72
546.62	41596.29
546.82	41248.14
547.02	41516.42
547.22	41532.81
547.43	41334.15
547.63	41313.67
547.83	41706.88
548.03	41155.98
548.23	42173.82
548.44	41547.14
548.64	41971.07
548.84	42065.28
549.04	41915.78
549.24	42456.44
549.45	42372.47
549.65	41821.57
549.85	41739.65
550.05	42452.34
550.25	42618.23
550.45	42929.52
550.66	42896.75
550.86	42263.93
551.06	42706.29
551.26	42634.61
551.46	42780.02
551.66	42521.98
551.87	42689.91
552.07	42720.63
552.27	42782.07
552.47	43115.89
552.67	42769.78
552.87	43169.13
553.07	43142.51
553.28	43406.70
553.48	43330.92
553.68	43189.61
553.88	43701.61
554.08	43390.31
554.28	43408.75
554.48	43367.79
554.69	43236.72
554.89	43582.82
555.09	43548.01
555.29	43492.71
555.49	43779.43
555.69	43599.21
555.89	43625.83
556.10	43623.78
556.30	43726.18
556.50	43742.56
556.70	43691.37
556.90	44361.05
557.10	44635.48
557.30	43838.82
557.50	44328.28
557.70	44485.98
557.91	44344.67
558.11	44471.64
558.31	44299.61
558.51	44143.97
558.71	44490.07
558.91	44817.75
559.11	44645.72
559.31	44352.86
559.51	44221.79
559.72	44711.25
559.92	44864.85
560.12	44606.81
560.32	44741.97
560.52	44557.66
560.72	44543.32
560.92	44936.53
561.12	45147.47
561.32	45073.74
561.52	44887.38
561.72	45358.41
561.93	45174.09
562.13	45131.09
562.33	44610.90
562.53	45481.29
562.73	45071.70
562.93	44879.19
563.13	45667.66
563.33	44983.63
563.53	45958.47
563.73	45315.40
563.93	45151.57
564.13	45622.60
564.33	45593.93
564.53	45473.10
564.74	45423.95
564.94	45372.75
565.14	45661.51
565.34	45522.25
565.54	45860.16
565.74	45987.14
565.94	45499.72
566.14	45536.59
566.34	45444.43
566.54	46204.22
566.74	45987.14
566.94	46087.49
567.14	46167.36
567.34	45872.45
567.54	46189.89
567.74	46472.51
567.94	46013.76
568.14	46466.36
568.34	46318.91
568.54	46353.72
568.74	46415.16
568.94	46296.38
569.14	46966.07
569.34	46607.67
569.54	46413.12
569.75	46314.81
569.95	46146.88
570.15	46925.11
570.35	46607.67
570.55	46769.46
570.75	46312.77
570.95	46994.74
571.15	47211.82
571.35	46970.16
571.55	46777.65
571.75	47047.99
571.95	46921.01
572.15	46947.64
572.35	47414.57
572.55	47400.24
572.75	47041.84
572.95	47185.20
573.15	47342.89
573.35	47328.56
573.55	47017.27
573.75	47037.75
573.95	47777.06
574.15	47310.13
574.35	47740.20
574.55	47590.70
574.75	47168.82
574.95	47703.34
575.15	47469.87
575.34	47668.52
575.54	47738.15
575.74	47965.48
575.94	48117.03
576.14	47717.67
576.34	48620.83
576.54	47918.37
576.74	47691.05
576.94	47830.31
577.14	48340.25
577.34	48448.80
577.54	48026.92
577.74	48272.67
577.94	48600.35
578.14	48395.55
578.34	48530.72
578.54	47887.65
578.74	48370.97
578.94	48864.53
579.14	48674.07
579.34	49022.23
579.54	48739.61
579.74	49233.17
579.94	49089.81
580.13	49159.44
580.33	48921.88
580.53	48964.88
580.73	49255.70
580.93	49446.16
581.13	49257.74
581.33	49450.25
581.53	49554.70
581.73	49245.46
581.93	49472.78
582.13	49726.73
582.33	49880.33
582.53	49691.91
582.73	49990.92
582.92	49653.00
583.12	50023.68
583.32	49755.40
583.52	49855.75
583.72	50312.45
583.92	49825.03
584.12	49880.33
584.32	50629.88
584.52	50255.11
584.72	50011.40
584.92	50222.34
585.11	50975.99
585.31	50717.95
585.51	50541.82
585.71	50666.75
585.91	50967.80
586.11	50644.22
586.31	50382.08
586.51	50599.16
586.71	51019.00
586.91	51307.76
587.10	50867.45
587.30	50752.76
587.50	51107.06
587.70	51350.77
587.90	51279.09
588.10	51033.33
588.30	51164.40
588.50	51375.34
