SpectraSuite Data File
++++++++++++++++++++++++++++++++++++
Date: Fri Jun 02 14:42:00 CEST 2017
User: INFO_000
Dark Spectrum Present: No
Reference Spectrum Present: No
Number of Sampled Component Spectra: 1
Spectrometers: USB4H00879
Integration Time (usec): 80000 (USB4H00879)
Spectra Averaged: 1 (USB4H00879)
Boxcar Smoothing: 0 (USB4H00879)
Correct for Electrical Dark: No (USB4H00879)
Strobe/Lamp Enabled: No (USB4H00879)
Correct for Detector Non-linearity: No (USB4H00879)
Correct for Stray Light: No (USB4H00879)
Number of Pixels in Processed Spectrum: 3648
>>>>>Begin Processed Spectral Data<<<<<
345.13	1267.69
345.34	1267.69
345.56	1267.69
345.78	1232.88
345.99	1327.08
346.21	1708.01
346.42	1687.53
346.64	1638.38
346.86	1759.21
347.07	1699.81
347.29	1738.73
347.50	1593.32
347.72	1658.85
347.94	1722.34
348.15	1609.70
348.37	1626.09
348.59	1626.09
348.80	1630.18
349.02	1845.22
349.23	1894.37
349.45	1888.23
349.67	1945.57
349.88	1869.80
350.10	1886.18
350.31	1841.12
350.53	1814.50
350.75	1953.76
350.96	1828.84
351.18	1916.90
351.39	1894.37
351.61	1732.58
351.82	1869.80
352.04	1988.58
352.26	1828.84
352.47	1871.84
352.69	1925.09
352.90	1800.16
353.12	1832.93
353.34	1796.07
353.55	1951.71
353.77	1847.27
353.98	1857.51
354.20	1791.97
354.41	1890.28
354.63	2023.39
354.85	1986.53
355.06	1882.08
355.28	1847.27
355.49	1861.60
355.71	1873.89
355.92	1933.28
356.14	1943.52
356.35	1818.60
356.57	1888.23
356.79	1931.23
357.00	1818.60
357.22	2007.01
357.43	1855.46
357.65	1957.86
357.86	1822.69
358.08	1912.80
358.29	1970.15
358.51	1984.48
358.72	1927.14
358.94	1857.51
359.16	1912.80
359.37	1941.47
359.59	1953.76
359.80	1984.48
360.02	1996.77
360.23	1970.15
360.45	1978.34
360.66	1949.67
360.88	1882.08
361.09	1912.80
361.31	1949.67
361.52	1984.48
361.74	2156.51
361.95	2078.69
362.17	2035.68
362.38	2025.44
362.60	1959.91
362.81	2039.78
363.03	2002.91
363.24	2002.91
363.46	2111.46
363.67	2021.35
363.89	1964.00
364.10	1998.82
364.32	1970.15
364.53	2039.78
364.75	2002.91
364.96	2019.30
365.18	2019.30
365.39	2033.63
365.61	1957.86
365.82	2060.26
366.04	2004.96
366.25	1914.85
366.47	2068.45
366.68	2045.92
366.90	1959.91
367.11	2136.03
367.33	2074.59
367.54	2090.98
367.76	2013.15
367.97	2035.68
368.19	2017.25
368.40	2066.40
368.62	2047.97
368.83	1994.72
369.05	2039.78
369.26	1970.15
369.48	2074.59
369.69	2025.44
369.91	2054.11
370.12	2027.49
370.33	2107.36
370.55	1970.15
370.76	2080.74
370.98	2078.69
371.19	2017.25
371.41	2037.73
371.62	2033.63
371.84	2033.63
372.05	2140.13
372.27	2054.11
372.48	2011.11
372.69	2058.21
372.91	2181.09
373.12	2080.74
373.34	2035.68
373.55	2162.66
373.77	2093.02
373.98	2125.79
374.20	2207.71
374.41	2121.70
374.62	2133.98
374.84	2203.61
375.05	2232.29
375.27	2156.51
375.48	2254.81
375.70	2148.32
375.91	2283.49
376.12	2338.78
376.34	2201.57
376.55	2138.08
376.77	2289.63
376.98	2209.76
377.19	2166.75
377.41	2117.60
377.62	2179.04
377.84	2277.34
378.05	2346.97
378.27	2191.33
378.48	2326.49
378.69	2396.12
378.91	2306.01
379.12	2275.29
379.34	2279.39
379.55	2344.92
379.76	2330.59
379.98	2191.33
380.19	2301.92
380.41	2338.78
380.62	2308.06
380.83	2232.29
381.05	2191.33
381.26	2437.08
381.47	2334.68
381.69	2355.16
381.90	2467.80
382.12	2297.82
382.33	2215.90
382.54	2287.58
382.76	2291.68
382.97	2355.16
383.19	2312.16
383.40	2363.36
383.61	2316.25
383.83	2277.34
384.04	2361.31
384.25	2394.08
384.47	2353.12
384.68	2336.73
384.89	2410.46
385.11	2260.96
385.32	2377.69
385.54	2394.08
385.75	2371.55
385.96	2432.99
386.18	2406.36
386.39	2412.51
386.60	2303.96
386.82	2455.51
387.03	2437.08
387.24	2537.43
387.46	2541.53
387.67	2473.95
387.88	2510.81
388.10	2471.90
388.31	2451.42
388.52	2627.54
388.74	2549.72
388.95	2533.34
389.16	2541.53
389.38	2525.15
389.59	2574.30
389.80	2693.08
390.02	2549.72
390.23	2607.06
390.44	2580.44
390.66	2574.30
390.87	2494.43
391.08	2830.29
391.30	2686.94
391.51	2633.69
391.72	2721.75
391.94	2625.50
392.15	2637.78
392.36	2688.98
392.58	2484.19
392.79	2602.97
393.00	2684.89
393.22	2693.08
393.43	2715.61
393.64	2969.55
393.85	2875.35
394.07	2809.81
394.28	2803.67
394.49	2856.92
394.71	2818.00
394.92	2844.63
395.13	2789.33
395.35	2789.33
395.56	2887.64
395.77	2889.68
395.98	2858.96
396.20	2889.68
396.41	2895.83
396.62	2949.08
396.84	2879.44
397.05	2877.40
397.26	2887.64
397.47	3028.95
397.69	2830.29
397.90	3090.38
398.11	2863.06
398.32	2918.36
398.54	2930.64
398.75	2942.93
398.96	2955.22
399.18	3104.72
399.39	2985.94
399.60	3026.90
399.81	2887.64
400.03	3080.14
400.24	3395.53
400.45	2965.46
400.66	3016.66
400.88	3102.67
401.09	3225.55
401.30	3125.20
401.51	3239.89
401.73	3176.40
401.94	3172.30
402.15	3121.10
402.36	3172.30
402.58	3076.05
402.79	3258.32
403.00	3207.12
403.21	3319.76
403.43	3313.61
403.64	3317.71
403.85	3307.47
404.06	3250.13
404.27	3180.50
404.49	3284.94
404.70	3168.21
404.91	3518.41
405.12	3405.77
405.34	3340.24
405.55	3551.18
405.76	3248.08
405.97	3274.70
406.19	3499.98
406.40	3338.19
406.61	3413.96
406.82	3397.58
407.03	3356.62
407.25	3395.53
407.46	3588.04
407.67	3432.40
407.88	3491.79
408.09	3342.28
408.31	3418.06
408.52	3440.59
408.73	3469.26
408.94	3524.55
409.15	3545.03
409.37	3606.47
409.58	3610.57
409.79	3483.59
410.00	3573.71
410.21	3491.79
410.43	3559.37
410.64	3592.14
410.85	3692.49
411.06	3768.26
411.27	3717.06
411.48	3608.52
411.70	3600.33
411.91	3649.48
412.12	3817.41
412.33	3643.34
412.54	3659.72
412.76	3874.76
412.97	3641.29
413.18	3708.87
413.39	3735.50
413.60	3782.60
413.81	3696.58
414.03	3809.22
414.24	3796.93
414.45	3866.56
414.66	3645.38
414.87	3809.22
415.08	3807.17
415.30	3766.21
415.51	3880.90
415.72	3692.49
415.93	3745.73
416.14	3839.94
416.35	3938.24
416.56	3852.23
416.78	3899.33
416.99	3981.25
417.20	3911.62
417.41	3971.01
417.62	4093.89
417.83	4134.85
418.04	3936.20
418.26	4048.83
418.47	4038.59
418.68	4003.78
418.89	3958.72
419.10	4272.06
419.31	4159.42
419.52	4132.80
419.73	4153.28
419.95	4229.06
420.16	3989.44
420.37	4046.79
420.58	4194.24
420.79	3911.62
421.00	4188.10
421.21	4143.04
421.42	4100.03
421.63	4222.91
421.85	4179.90
422.06	4292.54
422.27	4323.26
422.48	4255.68
422.69	4298.69
422.90	4272.06
423.11	4372.41
423.32	4493.24
423.53	4554.68
423.75	4429.76
423.96	4573.11
424.17	4601.79
424.38	4517.82
424.59	4501.44
424.80	4687.80
425.01	4634.55
425.22	4519.87
425.43	4612.03
425.64	4745.14
425.85	4706.23
426.06	4825.01
426.28	4636.60
426.49	4519.87
426.70	4657.08
426.91	4675.51
427.12	4816.82
427.33	4818.87
427.54	4755.38
427.75	4771.77
427.96	4933.56
428.17	4822.97
428.38	4908.98
428.59	5046.20
428.80	4927.41
429.01	4968.37
429.23	4863.93
429.44	5232.56
429.65	5109.68
429.86	5218.22
430.07	5023.67
430.28	5085.11
430.49	5183.41
430.70	5265.33
430.91	5214.13
431.12	5171.12
431.33	5343.15
431.54	5318.57
431.75	5275.57
431.96	5230.51
432.17	5242.80
432.38	5347.25
432.59	5500.84
432.80	5580.71
433.01	5316.53
433.22	5443.50
433.43	5390.25
433.64	5466.03
433.85	5402.54
434.06	5554.09
434.27	5400.49
434.49	5627.82
434.70	5869.48
434.91	5740.46
435.12	5627.82
435.33	5617.58
435.54	5539.76
435.75	5545.90
435.96	5531.56
436.17	5513.13
436.38	5695.40
436.59	5859.24
436.80	5730.22
437.01	5949.35
437.22	5959.59
437.43	5853.09
437.64	5636.01
437.85	5928.87
438.06	5939.11
438.27	5988.26
438.48	5752.74
438.69	6160.29
438.90	5939.11
439.11	5959.59
439.32	6086.56
439.53	5978.02
439.74	6002.60
439.95	6098.85
440.16	6215.59
440.37	6053.80
440.57	6150.05
440.78	6219.68
440.99	6197.15
441.20	6082.47
441.41	5947.30
441.62	6320.03
441.83	6016.93
442.04	6360.99
442.25	6346.66
442.46	6340.51
442.67	6528.92
442.88	6639.51
443.09	6158.24
443.30	6422.43
443.51	6535.07
443.72	6467.49
443.93	6293.41
444.14	6565.79
444.35	6490.01
444.56	6647.71
444.77	6408.09
444.98	6569.88
445.19	6696.86
445.40	6545.31
445.61	6520.73
445.81	6797.21
446.02	6727.58
446.23	6541.21
446.44	6610.84
446.65	6825.88
446.86	6924.18
447.07	6856.60
447.28	7042.96
447.49	6954.90
447.70	6754.20
447.91	6735.77
448.12	6870.94
448.33	6875.03
448.54	7067.54
448.74	6983.57
448.95	6948.76
449.16	6954.90
449.37	7387.02
449.58	7110.55
449.79	7198.61
450.00	7038.87
450.21	7106.45
450.42	7237.52
450.63	7407.50
450.84	7239.57
451.05	7221.14
451.25	7229.33
451.46	7233.43
451.67	7368.59
451.88	7489.42
452.09	7399.31
452.30	7235.47
452.51	7415.69
452.72	7520.14
452.93	7694.22
453.13	7368.59
453.34	7540.62
453.55	7475.09
453.76	7630.73
453.97	7958.41
454.18	7686.03
454.39	7806.86
454.60	7808.90
454.81	7712.65
455.01	7937.93
455.22	7679.88
455.43	7937.93
455.64	8200.07
455.85	8159.11
456.06	8171.40
456.27	8087.43
456.48	8191.88
456.68	8073.09
456.89	8040.33
457.10	8300.42
457.31	8281.99
457.52	8204.16
457.73	8359.81
457.94	8415.10
458.14	8228.74
458.35	8738.68
458.56	8449.92
458.77	8449.92
458.98	8611.71
459.19	8513.41
459.39	8701.82
459.60	8931.19
459.81	8697.72
460.02	8857.46
460.23	8808.31
460.44	9080.69
460.65	9133.94
460.85	9080.69
461.06	9142.13
461.27	8984.44
461.48	9377.65
461.69	9191.28
461.89	9150.32
462.10	9135.99
462.31	9121.65
462.52	9174.90
462.73	9406.32
462.94	9600.88
463.14	9400.18
463.35	9416.56
463.56	9942.89
463.77	9774.95
463.98	9561.97
464.18	9781.10
464.39	9781.10
464.60	9969.51
464.81	10022.76
465.02	9871.21
465.23	10217.32
465.43	9922.41
465.64	10362.72
465.85	10241.89
466.06	10096.49
466.27	10397.54
466.47	10260.32
466.68	10381.15
466.89	10266.47
467.10	10710.88
467.30	10340.19
467.51	10717.02
467.72	10815.32
467.93	10592.09
468.14	10778.46
468.34	10880.86
468.55	10788.70
468.76	10870.62
468.97	10862.43
469.17	11171.67
469.38	11165.53
469.59	11353.94
469.80	11255.64
470.01	11341.65
470.21	11355.99
470.42	11388.75
470.63	11804.49
470.84	11542.35
471.04	11503.44
471.25	11718.48
471.46	11675.47
471.67	12060.49
471.87	11816.78
472.08	12031.82
472.29	12148.55
472.50	11921.23
472.70	12365.64
472.91	12166.98
473.12	12322.63
473.33	12263.24
473.53	12666.69
473.74	12697.41
473.95	12726.08
474.16	12898.11
474.36	12851.00
474.57	13018.94
474.78	13184.82
474.99	13076.28
475.19	13063.99
475.40	13346.61
475.61	13477.68
475.81	13602.61
476.02	13745.97
476.23	13561.65
476.44	13684.53
476.64	14008.11
476.85	14022.44
477.06	13981.48
477.27	14221.10
477.47	14278.44
477.68	14333.73
477.89	14546.72
478.09	14575.39
478.30	14462.76
478.51	14716.70
478.71	14870.30
478.92	15005.47
479.13	15165.21
479.34	15195.93
479.54	15224.60
479.75	15046.43
479.96	15222.55
480.16	15214.36
480.37	15525.65
480.58	15554.32
480.78	16021.26
480.99	15838.99
481.20	15920.91
481.41	15845.13
481.61	16060.17
481.82	16330.50
482.03	16303.88
482.23	16248.58
482.44	16604.93
482.65	16695.04
482.85	16834.30
483.06	16789.25
483.27	16672.51
483.47	16805.63
483.68	16981.76
483.89	17276.66
484.09	17235.70
484.30	17450.74
484.51	17487.61
484.71	17483.51
484.92	17514.23
485.13	17768.18
485.33	17784.56
485.54	17762.03
485.75	18341.61
485.95	18284.26
486.16	18190.06
486.37	18300.65
486.57	18421.48
486.78	18403.05
486.98	18484.97
487.19	18636.52
487.40	18820.83
487.60	18654.95
487.81	19222.23
488.02	18599.65
488.22	18853.60
488.43	19478.23
488.64	19289.82
488.84	19422.94
489.05	19365.59
489.25	19521.24
489.46	19543.77
489.67	19721.94
489.87	19783.38
490.08	20387.53
490.29	20025.04
490.49	20178.64
490.70	20041.42
490.90	20426.44
491.11	20395.72
491.32	20405.96
491.52	20451.02
491.73	20790.98
491.94	21024.45
492.14	20831.94
492.35	20836.03
492.55	21126.85
492.76	21382.84
492.97	21266.11
493.17	21458.62
493.38	21466.81
493.58	21620.41
493.79	21481.14
494.00	21886.64
494.20	21790.39
494.41	22058.67
494.61	22027.95
494.82	21986.99
495.02	22122.16
495.23	22365.87
495.44	22216.36
495.64	22421.16
495.85	22548.14
496.05	22570.66
496.26	22539.94
496.47	22978.21
496.67	22687.40
496.88	22861.48
497.08	22734.50
497.29	23228.06
497.49	23078.56
497.70	23144.09
497.91	23439.00
498.11	23271.07
498.32	23447.19
498.52	23459.48
498.73	24170.13
498.93	23545.50
499.14	24182.42
499.34	24006.29
499.55	24151.70
499.76	24071.82
499.96	24284.81
500.17	23682.71
500.37	24467.08
500.58	24286.86
500.78	24436.36
500.99	24358.54
501.19	24544.91
501.40	24546.95
501.60	24673.93
501.81	24688.26
502.02	24860.29
502.22	24594.06
502.43	24929.92
502.63	25079.43
502.84	25112.19
503.04	25032.32
503.25	25378.43
503.45	25269.89
503.66	25626.23
503.86	25323.13
504.07	25560.70
504.27	25493.12
504.48	25867.89
504.68	25560.70
504.89	25982.58
505.09	26179.18
505.30	26291.82
505.50	25767.54
505.71	26056.31
505.91	26316.40
506.12	26218.10
506.32	26267.25
506.53	26312.30
506.73	26336.88
506.94	26705.51
507.14	26252.91
507.35	26635.88
507.55	26478.19
507.76	26855.01
507.96	26992.23
508.17	26848.87
508.37	26953.32
508.58	26809.96
508.78	27225.70
508.99	27268.70
509.19	27149.92
509.40	27268.70
509.60	27287.14
509.81	27668.06
510.01	27563.61
510.22	27328.10
510.42	27453.02
510.63	27475.55
510.83	27377.25
511.04	27580.00
511.24	27971.16
511.44	27782.74
511.65	27852.38
511.85	27942.49
512.06	27891.29
512.26	27786.84
512.47	27866.71
512.67	28118.61
512.88	28221.01
513.08	28055.12
513.29	28274.26
513.49	28282.45
513.69	28165.71
513.90	28278.35
514.10	28526.16
514.31	28898.89
514.51	29003.33
514.72	28806.73
514.92	28700.23
515.13	28696.14
515.33	28646.99
515.53	28814.92
515.74	28984.90
515.94	29138.50
516.15	29218.37
516.35	28978.76
516.56	29619.77
516.76	29140.55
516.96	29265.47
517.17	29326.91
517.37	29435.45
517.58	29564.48
517.78	29421.12
517.99	29705.79
518.19	30129.72
518.39	30119.48
518.60	30125.62
518.80	29572.67
519.01	29963.83
519.21	29922.87
519.41	30463.54
519.62	30189.11
519.82	30445.10
520.03	30287.41
520.23	30207.54
520.43	30432.82
520.64	30623.28
520.84	30901.80
521.05	30889.51
521.25	31106.60
521.45	30893.61
521.66	30719.53
521.86	30891.56
522.07	31061.54
522.27	31233.57
522.47	31133.22
522.68	31469.09
522.88	31200.80
523.08	31895.07
523.29	31290.91
523.49	31997.46
523.70	31526.43
523.90	31880.73
524.10	32089.62
524.31	32282.13
524.51	31612.45
524.71	32210.45
524.92	32232.98
525.12	32382.48
525.33	32048.66
525.53	32536.08
525.73	32470.54
525.94	32534.03
526.14	32640.53
526.34	32648.72
526.55	32927.24
526.75	32888.33
526.95	33371.65
527.16	33099.27
527.36	33072.65
527.56	33527.30
527.77	33578.50
527.97	32912.91
528.17	33295.88
528.38	33420.80
528.58	33811.96
528.78	33723.90
528.99	33691.13
529.19	34303.48
529.39	33871.36
529.60	34516.47
529.80	33807.87
530.00	34166.26
530.21	34528.75
530.41	34477.55
530.61	34412.02
530.82	34661.87
531.02	34598.38
531.22	34878.96
531.43	34960.87
531.63	34760.17
531.83	35622.37
532.04	35718.62
532.24	35003.88
532.44	35464.67
532.64	35673.57
532.85	35665.38
533.05	35333.60
533.25	35679.71
533.46	36062.68
533.66	36050.39
533.86	36156.89
534.07	36259.29
534.27	36185.56
534.47	36754.90
534.67	36576.72
534.88	36672.98
535.08	36830.67
535.28	36904.40
535.49	36683.22
535.69	36994.51
535.89	36908.49
536.09	37084.62
536.30	37160.39
536.50	37328.33
536.70	37531.08
536.91	37602.75
537.11	37389.77
537.31	37731.78
537.51	37494.21
537.72	38086.07
537.92	37901.76
538.12	38237.62
538.32	37985.72
538.53	38211.00
538.73	38188.47
538.93	38251.96
539.13	38268.34
539.34	38421.94
539.54	38530.48
539.74	38766.00
539.94	38837.68
540.15	38507.96
540.35	38944.17
540.55	38960.56
540.75	39077.29
540.96	39122.35
541.16	39009.71
541.36	39544.23
541.56	39359.91
541.77	39751.07
541.97	39359.91
542.17	39865.76
542.37	39771.55
542.58	39845.28
542.78	39894.43
542.98	39749.03
543.18	39888.29
543.38	40283.55
543.59	40134.04
543.79	39761.31
543.99	40144.28
544.19	39732.64
544.40	40017.31
544.60	40570.26
544.80	40041.88
545.00	40390.04
545.20	41217.42
545.41	40529.30
545.61	40422.81
545.81	40996.24
546.01	41063.82
546.21	40785.30
546.42	40992.14
546.62	41375.11
546.82	40977.81
547.02	41248.14
547.22	41395.59
547.43	41309.58
547.63	41555.33
547.83	41872.77
548.03	41448.84
548.23	41813.38
548.44	41989.50
548.64	42145.15
548.84	42065.28
549.04	41622.92
549.24	42304.89
549.45	42294.65
549.65	41835.91
549.85	41975.17
550.05	42116.48
550.25	41751.94
550.45	42405.24
550.66	42450.30
550.86	42337.66
551.06	42306.94
551.26	42769.78
551.46	42515.83
551.66	42718.58
551.87	42534.26
552.07	42603.89
552.27	42773.88
552.47	42866.03
552.67	43246.96
552.87	42818.93
553.07	42923.38
553.28	43414.89
553.48	43509.10
553.68	43031.92
553.88	43216.24
554.08	43521.38
554.28	43603.30
554.48	43144.56
554.69	43531.62
554.89	43459.94
555.09	43511.14
555.29	43285.87
555.49	43521.38
555.69	43914.59
555.89	43550.06
556.10	43586.92
556.30	43347.31
556.50	43691.37
556.70	43949.41
556.90	43924.83
557.10	44129.63
557.30	43908.45
557.50	44100.96
557.70	43947.36
557.91	44246.36
558.11	44293.47
558.31	44193.12
558.51	44578.14
558.71	44528.98
558.91	44379.48
559.11	44440.92
559.31	44199.26
559.51	44445.02
559.72	44559.70
559.92	44776.79
560.12	44774.74
560.32	44965.20
560.52	44680.53
560.72	44924.24
560.92	44889.43
561.12	44807.51
561.32	45253.97
561.52	45051.22
561.72	44983.63
561.93	45274.45
562.13	45151.57
562.33	44778.84
562.53	45606.22
562.73	44967.25
562.93	45151.57
563.13	45217.10
563.33	44471.64
563.53	45565.26
563.73	45153.62
563.93	45299.02
564.13	45550.92
564.33	45210.96
564.53	45638.98
564.74	45700.42
564.94	45552.97
565.14	45520.20
565.34	44965.20
565.54	45677.90
565.74	45573.45
565.94	45862.21
566.14	45620.55
566.34	45471.05
566.54	46249.28
566.74	45495.63
566.94	45972.80
567.14	46077.25
567.34	45743.43
567.54	45798.73
567.74	46015.81
567.94	46110.02
568.14	46423.36
568.34	46216.51
568.54	45978.95
568.74	46345.53
568.94	46073.15
569.14	46906.68
569.34	46818.61
569.54	46419.26
569.75	46335.29
569.95	46554.43
570.15	46728.50
570.35	46810.42
570.55	46368.06
570.75	46820.66
570.95	46568.76
571.15	46632.25
571.35	46685.50
571.55	47170.86
571.75	47043.89
571.95	47172.91
572.15	46785.85
572.35	47170.86
572.55	47160.62
572.75	47340.85
572.95	47346.99
573.15	47318.32
573.35	47357.23
573.55	46953.78
573.75	47183.15
573.95	47506.73
574.15	47504.68
574.35	47662.38
574.55	47334.70
574.75	47592.75
574.95	47826.21
575.15	47410.48
575.34	47609.13
575.54	47637.80
575.74	47570.22
575.94	48008.48
576.14	47721.77
576.34	48303.39
576.54	48233.76
576.74	48143.65
576.94	48219.42
577.14	47838.50
577.34	48166.18
577.54	48123.17
577.74	48416.03
577.94	48502.04
578.14	48727.32
578.34	48770.33
578.54	48149.79
578.74	48510.24
578.94	48547.10
579.14	48842.01
579.34	48764.18
579.54	48930.07
579.74	48997.65
579.94	49048.85
580.13	48915.73
580.33	48991.51
580.53	48985.36
580.73	49478.92
580.93	49233.17
581.13	49306.90
581.33	49345.81
581.53	49409.29
581.73	49519.88
581.93	49612.04
582.13	49691.91
582.33	49423.63
582.53	49581.32
582.73	49798.41
582.92	49607.95
583.12	49874.18
583.32	49718.54
583.52	49820.94
583.72	50294.02
583.92	49724.68
584.12	50058.50
584.32	50597.12
584.52	49853.70
584.72	50504.96
584.92	50449.66
585.11	50627.84
585.31	50490.62
585.51	50705.66
585.71	50273.54
585.91	50509.05
586.11	50447.61
586.31	50617.60
586.51	50433.28
586.71	50744.57
586.91	51115.25
587.10	50918.65
587.30	50973.94
587.50	50935.03
587.70	51223.79
587.90	51070.20
588.10	51102.96
588.30	51215.60
588.50	51655.92
