SpectraSuite Data File
++++++++++++++++++++++++++++++++++++
Date: Fri Jun 02 14:42:00 CEST 2017
User: INFO_000
Dark Spectrum Present: No
Reference Spectrum Present: No
Number of Sampled Component Spectra: 1
Spectrometers: USB4H00879
Integration Time (usec): 80000 (USB4H00879)
Spectra Averaged: 1 (USB4H00879)
Boxcar Smoothing: 0 (USB4H00879)
Correct for Electrical Dark: No (USB4H00879)
Strobe/Lamp Enabled: No (USB4H00879)
Correct for Detector Non-linearity: No (USB4H00879)
Correct for Stray Light: No (USB4H00879)
Number of Pixels in Processed Spectrum: 3648
>>>>>Begin Processed Spectral Data<<<<<
345.13	1296.36
345.34	1296.36
345.56	1296.36
345.78	1320.94
345.99	1216.49
346.21	1724.39
346.42	1679.33
346.64	1581.03
346.86	1751.01
347.07	1658.85
347.29	1640.42
347.50	1605.61
347.72	1718.25
347.94	1726.44
348.15	1601.51
348.37	1628.14
348.59	1722.34
348.80	1581.03
349.02	1759.21
349.23	1847.27
349.45	1814.50
349.67	1902.56
349.88	1863.65
350.10	1912.80
350.31	1816.55
350.53	1777.64
350.75	1929.19
350.96	1816.55
351.18	1843.17
351.39	1861.60
351.61	1761.25
351.82	1927.14
352.04	1935.33
352.26	1832.93
352.47	1939.43
352.69	1894.37
352.90	1810.40
353.12	1785.83
353.34	1843.17
353.55	1910.75
353.77	1908.71
353.98	1828.84
354.20	1900.52
354.41	1945.57
354.63	1970.15
354.85	1951.71
355.06	1904.61
355.28	1796.07
355.49	1869.80
355.71	1929.19
355.92	1902.56
356.14	1896.42
356.35	1865.70
356.57	1859.56
356.79	1964.00
357.00	1880.04
357.22	1916.90
357.43	1851.36
357.65	1935.33
357.86	1855.46
358.08	1867.75
358.29	1935.33
358.51	1976.29
358.72	1978.34
358.94	1968.10
359.16	1890.28
359.37	1951.71
359.59	1982.43
359.80	2004.96
360.02	1957.86
360.23	1949.67
360.45	2043.87
360.66	1890.28
360.88	1880.04
361.09	1961.95
361.31	1959.91
361.52	1945.57
361.74	2056.16
361.95	2056.16
362.17	1880.04
362.38	2107.36
362.60	2021.35
362.81	1970.15
363.03	1976.29
363.24	1920.99
363.46	2056.16
363.67	2072.54
363.89	1959.91
364.10	1974.24
364.32	1859.56
364.53	2017.25
364.75	1955.81
364.96	2105.31
365.18	2068.45
365.39	1968.10
365.61	1949.67
365.82	2140.13
366.04	2002.91
366.25	2023.39
366.47	2133.98
366.68	2164.70
366.90	2041.82
367.11	2097.12
367.33	2060.26
367.54	2093.02
367.76	1937.38
367.97	2062.30
368.19	2107.36
368.40	2090.98
368.62	2039.78
368.83	1986.53
369.05	2111.46
369.26	2011.11
369.48	1986.53
369.69	2002.91
369.91	2133.98
370.12	2052.06
370.33	2197.47
370.55	2021.35
370.76	2007.01
370.98	2084.83
371.19	2072.54
371.41	2029.54
371.62	2027.49
371.84	1982.43
372.05	2209.76
372.27	2041.82
372.48	2103.26
372.69	2131.94
372.91	2148.32
373.12	2133.98
373.34	2101.22
373.55	2158.56
373.77	2113.50
373.98	2183.13
374.20	2250.72
374.41	2291.68
374.62	2109.41
374.84	2183.13
375.05	2207.71
375.27	2142.18
375.48	2234.33
375.70	2209.76
375.91	2176.99
376.12	2271.20
376.34	2150.37
376.55	2217.95
376.77	2224.09
376.98	2160.61
377.19	2222.05
377.41	2095.07
377.62	2168.80
377.84	2271.20
378.05	2316.25
378.27	2265.05
378.48	2320.35
378.69	2334.68
378.91	2265.05
379.12	2224.09
379.34	2326.49
379.55	2365.40
379.76	2375.64
379.98	2238.43
380.19	2224.09
380.41	2291.68
380.62	2314.20
380.83	2283.49
381.05	2236.38
381.26	2432.99
381.47	2176.99
381.69	2226.14
381.90	2414.56
382.12	2344.92
382.33	2277.34
382.54	2267.10
382.76	2277.34
382.97	2289.63
383.19	2265.05
383.40	2373.60
383.61	2351.07
383.83	2205.66
384.04	2263.01
384.25	2373.60
384.47	2439.13
384.68	2367.45
384.89	2344.92
385.11	2355.16
385.32	2322.40
385.54	2383.84
385.75	2359.26
385.96	2387.93
386.18	2469.85
386.39	2363.36
386.60	2379.74
386.82	2469.85
387.03	2435.03
387.24	2625.50
387.46	2521.05
387.67	2492.38
387.88	2570.20
388.10	2475.99
388.31	2490.33
388.52	2658.26
388.74	2541.53
388.95	2590.68
389.16	2539.48
389.38	2498.52
389.59	2674.65
389.80	2605.02
390.02	2590.68
390.23	2668.50
390.44	2553.82
390.66	2559.96
390.87	2570.20
391.08	2658.26
391.30	2713.56
391.51	2709.46
391.72	2676.70
391.94	2705.37
392.15	2664.41
392.36	2645.98
392.58	2627.54
392.79	2707.41
393.00	2750.42
393.22	2764.76
393.43	2783.19
393.64	2863.06
393.85	2772.95
394.07	2738.13
394.28	2844.63
394.49	2834.39
394.71	2754.52
394.92	2901.97
395.13	2746.33
395.35	2805.72
395.56	2834.39
395.77	2936.79
395.98	2762.71
396.20	2834.39
396.41	2809.81
396.62	2852.82
396.84	2830.29
397.05	2938.84
397.26	2944.98
397.47	2998.23
397.69	2820.05
397.90	3049.43
398.11	3000.27
398.32	2924.50
398.54	2887.64
398.75	2944.98
398.96	3002.32
399.18	3088.34
399.39	3010.51
399.60	3016.66
399.81	2969.55
400.03	3033.04
400.24	3293.13
400.45	3022.80
400.66	3131.34
400.88	3086.29
401.09	3246.03
401.30	3180.50
401.51	3157.97
401.73	3186.64
401.94	3121.10
402.15	3270.61
402.36	3086.29
402.58	3223.50
402.79	3327.95
403.00	3174.35
403.21	3241.93
403.43	3305.42
403.64	3243.98
403.85	3053.52
404.06	3262.41
404.27	3162.06
404.49	3266.51
404.70	3215.31
404.91	3327.95
405.12	3256.27
405.34	3348.43
405.55	3469.26
405.76	3180.50
405.97	3272.65
406.19	3436.49
406.40	3284.94
406.61	3237.84
406.82	3418.06
407.03	3346.38
407.25	3456.97
407.46	3448.78
407.67	3596.23
407.88	3557.32
408.09	3459.02
408.31	3456.97
408.52	3379.15
408.73	3557.32
408.94	3450.83
409.15	3542.99
409.37	3610.57
409.58	3485.64
409.79	3588.04
410.00	3715.02
410.21	3565.51
410.43	3573.71
410.64	3575.75
410.85	3583.95
411.06	3657.67
411.27	3690.44
411.48	3719.11
411.70	3663.82
411.91	3614.66
412.12	3766.21
412.33	3629.00
412.54	3661.77
412.76	3588.04
412.97	3708.87
413.18	3729.35
413.39	3723.21
413.60	3702.73
413.81	3764.17
414.03	3819.46
414.24	3684.30
414.45	3823.56
414.66	3727.30
414.87	3837.89
415.08	3870.66
415.30	3745.73
415.51	3954.63
415.72	3805.13
415.93	3868.61
416.14	3950.53
416.35	3872.71
416.56	3891.14
416.78	3764.17
416.99	4005.83
417.20	3831.75
417.41	4057.03
417.62	3940.29
417.83	4050.88
418.04	3989.44
418.26	4093.89
418.47	3981.25
418.68	4102.08
418.89	4155.33
419.10	4149.18
419.31	4175.81
419.52	4206.53
419.73	4122.56
419.95	4343.74
420.16	4065.22
420.37	4026.31
420.58	4112.32
420.79	4067.27
421.00	4333.50
421.21	4138.94
421.42	4120.51
421.63	4292.54
421.85	4081.60
422.06	4358.08
422.27	4386.75
422.48	4245.44
422.69	4394.94
422.90	4362.17
423.11	4454.33
423.32	4507.58
423.53	4460.48
423.75	4515.77
423.96	4620.22
424.17	4530.11
424.38	4706.23
424.59	4458.43
424.80	4700.09
425.01	4542.39
425.22	4429.76
425.43	4562.87
425.64	4870.07
425.85	4831.16
426.06	4681.66
426.28	4669.37
426.49	4573.11
426.70	4716.47
426.91	4763.58
427.12	4939.70
427.33	4712.38
427.54	4820.92
427.75	4843.45
427.96	5056.43
428.17	4908.98
428.38	4872.12
428.59	5005.24
428.80	4982.71
429.01	5062.58
429.23	4999.09
429.44	5255.09
429.65	5068.72
429.86	5044.15
430.07	5023.67
430.28	4931.51
430.49	5113.78
430.70	5310.38
430.91	5337.01
431.12	5052.34
431.33	5386.16
431.54	5191.60
431.75	5328.81
431.96	5238.70
432.17	5228.46
432.38	5287.86
432.59	5662.63
432.80	5441.45
433.01	5377.97
433.22	5572.52
433.43	5472.17
433.64	5466.03
433.85	5384.11
434.06	5547.95
434.27	5353.39
434.49	5615.53
434.70	5681.07
434.91	5554.09
435.12	5625.77
435.33	5646.25
435.54	5584.81
435.75	5586.86
435.96	5603.24
436.17	5545.90
436.38	5666.73
436.59	5887.91
436.80	5738.41
437.01	6070.18
437.22	6006.69
437.43	5912.49
437.64	5578.67
437.85	5924.77
438.06	6090.66
438.27	5975.97
438.48	5869.48
438.69	6070.18
438.90	5959.59
439.11	5859.24
439.32	6092.71
439.53	6154.15
439.74	6199.20
439.95	6070.18
440.16	6008.74
440.37	6121.38
440.57	6002.60
440.78	6133.67
440.99	6274.98
441.20	6227.87
441.41	6100.90
441.62	6332.32
441.83	6045.60
442.04	6234.02
442.25	6391.71
442.46	6229.92
442.67	6254.50
442.88	6645.66
443.09	6322.08
443.30	6238.11
443.51	6295.46
443.72	6608.80
443.93	6365.09
444.14	6641.56
444.35	6465.44
444.56	6512.54
444.77	6434.72
444.98	6651.80
445.19	6635.42
445.40	6664.09
445.61	6530.97
445.81	6709.15
446.02	6811.54
446.23	6752.15
446.44	6557.60
446.65	6662.04
446.86	6743.96
447.07	6825.88
447.28	6815.64
447.49	6838.17
447.70	6741.91
447.91	6907.80
448.12	6922.13
448.33	7026.58
448.54	7004.05
448.74	6995.86
448.95	7104.40
449.16	7055.25
449.37	7235.47
449.58	6944.66
449.79	7327.63
450.00	6940.57
450.21	7188.37
450.42	7276.43
450.63	7217.04
450.84	7403.41
451.05	7276.43
451.25	7237.52
451.46	7280.53
451.67	7360.40
451.88	7444.37
452.09	7583.63
452.30	7333.78
452.51	7493.52
452.72	7540.62
452.93	7729.03
453.13	7403.41
453.34	7505.81
453.55	7614.35
453.76	7514.00
453.97	8077.19
454.18	7538.57
454.39	7866.25
454.60	7802.76
454.81	7802.76
455.01	8046.47
455.22	7784.33
455.43	7829.38
455.64	8208.26
455.85	7976.84
456.06	8204.16
456.27	8179.59
456.48	7880.58
456.68	8013.70
456.89	8032.13
457.10	8421.25
457.31	8288.13
457.52	8327.04
457.73	8243.07
457.94	8658.81
458.14	8208.26
458.35	8734.59
458.56	8544.13
458.77	8398.72
458.98	8740.73
459.19	8605.56
459.39	8701.82
459.60	8826.75
459.81	8677.24
460.02	8841.08
460.23	8683.39
460.44	8980.34
460.65	9056.12
460.85	9230.20
461.06	9185.14
461.27	8902.52
461.48	9342.83
461.69	9586.54
461.89	8961.91
462.10	9174.90
462.31	8996.73
462.52	9226.10
462.73	9336.69
462.94	9746.28
463.14	9502.58
463.35	9461.62
463.56	9850.73
463.77	9719.66
463.98	9580.40
464.18	9656.17
464.39	9934.70
464.60	9867.11
464.81	9852.78
465.02	9777.00
465.23	10284.90
465.43	9840.49
465.64	10153.83
465.85	10110.82
466.06	10170.21
466.27	10610.53
466.47	10411.87
466.68	10260.32
466.89	10340.19
467.10	10538.85
467.30	10491.74
467.51	10577.76
467.72	10798.94
467.93	10385.25
468.14	10749.79
468.34	11020.12
468.55	11011.93
468.76	11013.98
468.97	10598.24
469.17	11183.96
469.38	11274.07
469.59	11439.95
469.80	11149.14
470.01	11312.98
470.21	11398.99
470.42	11663.18
470.63	11571.02
470.84	11544.40
471.04	11792.20
471.25	11730.76
471.46	11661.13
471.67	12060.49
471.87	11784.01
472.08	12029.77
472.29	12347.20
472.50	12019.53
472.70	12228.42
472.91	12068.68
473.12	12404.55
473.33	12439.36
473.53	12775.23
473.74	12703.55
473.95	12650.30
474.16	12783.42
474.36	12767.04
474.57	13160.25
474.78	13223.73
474.99	13193.01
475.19	13027.13
475.40	13618.99
475.61	13625.14
475.81	13543.22
476.02	13883.18
476.23	13764.40
476.44	13817.65
476.64	13918.00
476.85	14255.91
477.06	13862.70
477.27	14188.33
477.47	14466.85
477.68	14292.77
477.89	14538.53
478.09	14386.98
478.30	14782.24
478.51	14485.28
478.71	14765.85
478.92	15011.61
479.13	14819.10
479.34	15165.21
479.54	15167.26
479.75	15126.30
479.96	15339.29
480.16	15519.51
480.37	15363.86
480.58	15814.41
480.78	15984.40
480.99	15781.65
481.20	15814.41
481.41	15957.77
481.61	16156.43
481.82	16645.89
482.03	16254.73
482.23	16291.59
482.44	16484.10
482.65	16957.18
482.85	16848.64
483.06	16785.15
483.27	16795.39
483.47	16922.37
483.68	16850.69
483.89	17094.40
484.09	17288.95
484.30	17366.78
484.51	17401.59
484.71	17743.60
484.92	17635.06
485.13	17590.00
485.33	17843.95
485.54	17772.27
485.75	17919.73
485.95	18015.98
486.16	18323.18
486.37	18421.48
486.57	18357.99
486.78	18556.64
486.98	18519.78
487.19	18554.60
487.40	18999.01
487.60	18863.84
487.81	18908.90
488.02	18771.68
488.22	19152.60
488.43	19656.40
488.64	19361.50
488.84	19648.21
489.05	19590.87
489.25	19637.97
489.46	19857.10
489.67	20051.66
489.87	19896.02
490.08	20063.95
490.29	20010.70
490.49	20489.93
490.70	20266.70
490.90	20508.36
491.11	20494.02
491.32	20637.38
491.52	20692.68
491.73	20629.19
491.94	20815.55
492.14	20680.39
492.35	21210.81
492.55	21114.56
492.76	21161.66
492.97	21460.66
493.17	21169.85
493.38	21409.47
493.58	21827.25
493.79	21544.63
494.00	21556.92
494.20	21872.31
494.41	21989.04
494.61	22103.73
494.82	22142.64
495.02	22107.82
495.23	22419.11
495.44	22494.89
495.64	22603.43
495.85	22484.65
496.05	22709.93
496.26	22359.72
496.47	22959.78
496.67	22693.54
496.88	23096.99
497.08	22955.68
497.29	23195.29
497.49	23033.50
497.70	23254.69
497.91	23219.87
498.11	23299.74
498.32	23250.59
498.52	23660.18
498.73	24022.67
498.93	23588.50
499.14	23776.92
499.34	23783.06
499.55	23852.69
499.76	24061.58
499.96	24063.63
500.17	24159.89
500.37	24329.87
500.58	24278.67
500.78	24444.56
500.99	24718.98
501.19	24663.69
501.40	24485.51
501.60	24530.57
501.81	24641.16
502.02	24917.64
502.22	24686.22
502.43	25095.81
502.63	25222.78
502.84	25147.01
503.04	25040.51
503.25	25126.53
503.45	25206.40
503.66	25454.20
503.86	25663.10
504.07	25755.26
504.27	25599.61
504.48	26025.59
504.68	25921.14
504.89	26068.59
505.09	25992.82
505.30	26105.46
505.50	26189.42
505.71	26302.06
505.91	26058.35
506.12	26367.60
506.32	26490.48
506.53	26347.12
506.73	26293.87
506.94	26728.04
507.14	26355.31
507.35	26754.66
507.55	26654.31
507.76	26840.68
507.96	26740.33
508.17	26795.62
508.37	26887.78
508.58	27004.52
508.78	27240.03
508.99	27211.36
509.19	27631.19
509.40	27350.62
509.60	27420.25
509.81	27387.49
510.01	27471.45
510.22	27604.57
510.42	27516.51
510.63	27706.97
510.83	27864.66
511.04	27969.11
511.24	27854.42
511.44	27944.53
511.65	28077.65
511.85	28169.81
512.06	28038.74
512.26	28223.06
512.47	28024.40
512.67	28218.96
512.88	28554.83
513.08	28280.40
513.29	28407.37
513.49	28249.68
513.69	28298.83
513.90	28634.70
514.10	28481.10
514.31	28657.23
514.51	28651.08
514.72	28663.37
514.92	28708.43
515.13	28917.32
515.33	28786.25
515.53	29056.58
515.74	29075.01
515.94	29142.60
516.15	28864.07
516.35	29072.96
516.56	29193.79
516.76	28993.09
516.96	29384.26
517.17	29572.67
517.37	29541.95
517.58	29617.72
517.78	29519.42
517.99	29683.26
518.19	29929.02
518.39	29644.35
518.60	30213.68
518.80	29716.03
519.01	30111.28
519.21	29984.31
519.41	29943.35
519.62	30150.20
519.82	30301.75
520.03	30467.63
520.23	30283.31
520.43	30473.78
520.64	30922.28
520.84	30903.85
521.05	30645.80
521.25	30965.29
521.45	30778.92
521.66	30787.11
521.86	30881.32
522.07	30819.88
522.27	31163.94
522.47	31174.18
522.68	31669.79
522.88	31180.32
523.08	31716.89
523.29	31364.64
523.49	31690.27
523.70	31901.21
523.90	31878.68
524.10	31976.98
524.31	32030.23
524.51	31870.49
524.71	32269.84
524.92	32548.37
525.12	32593.42
525.33	32534.03
525.53	32689.68
525.73	32978.44
525.94	32515.60
526.14	32673.29
526.34	32587.28
526.55	33115.65
526.75	32759.31
526.95	33175.05
527.16	33136.13
527.36	33050.12
527.56	33373.70
527.77	33369.60
527.97	33404.42
528.17	33541.63
528.38	33496.58
528.58	33506.82
528.78	33943.03
528.99	33684.99
529.19	34010.62
529.39	33881.60
529.60	33986.04
529.80	34131.45
530.00	34024.95
530.21	34452.98
530.41	34684.40
530.61	34678.25
530.82	34635.25
531.02	34665.97
531.22	34680.30
531.43	35223.01
531.63	35263.97
531.83	35288.55
532.04	35861.98
532.24	35165.67
532.44	35671.52
532.64	35851.74
532.85	35579.36
533.05	35755.49
533.25	35610.08
533.46	35663.33
533.66	36003.29
533.86	36120.02
534.07	36197.85
534.27	36038.11
534.47	36482.52
534.67	36261.33
534.88	36486.61
535.08	36287.96
535.28	36627.92
535.49	36713.94
535.69	37156.30
535.89	37299.65
536.09	37123.53
536.30	37408.20
536.50	37408.20
536.70	37565.89
536.91	37565.89
537.11	37526.98
537.31	37279.18
537.51	37506.50
537.72	37959.10
537.92	38170.04
538.12	38165.95
538.32	38071.74
538.53	38579.64
538.73	38206.90
538.93	38340.02
539.13	38454.71
539.34	38333.88
539.54	38677.94
539.74	38421.94
539.94	38741.42
540.15	38774.19
540.35	39169.45
540.55	38870.45
540.75	39364.01
540.96	39433.64
541.16	38751.66
541.36	39329.19
541.56	39632.29
541.77	39783.84
541.97	39425.45
542.17	39757.22
542.37	39646.63
542.58	40132.00
542.78	39904.67
542.98	40025.50
543.18	39933.34
543.38	40408.47
543.59	40424.86
543.79	40162.72
543.99	39962.01
544.19	40703.38
544.40	40127.90
544.60	40760.72
544.80	40328.60
545.00	41158.03
545.20	41088.40
545.41	40867.22
545.61	40852.88
545.81	41098.64
546.01	41207.18
546.21	41289.10
546.42	41012.62
546.62	41463.18
546.82	41184.65
547.02	41387.40
547.22	41706.88
547.43	41158.03
547.63	41557.38
547.83	41477.51
548.03	41491.85
548.23	41868.67
548.44	41309.58
548.64	41739.65
548.84	42096.00
549.04	41454.98
549.24	41954.69
549.45	42595.70
549.65	41821.57
549.85	42386.81
550.05	42304.89
550.25	42202.49
550.45	42460.54
550.66	42247.55
550.86	42646.90
551.06	42757.49
551.26	42595.70
551.46	42775.92
551.66	42995.06
551.87	42595.70
552.07	42579.32
552.27	43138.41
552.47	43134.32
552.67	43541.86
552.87	43349.35
553.07	42952.05
553.28	43251.05
553.48	43392.36
553.68	43242.86
553.88	43283.82
554.08	43328.87
554.28	43390.31
554.48	43201.90
554.69	43558.25
554.89	43654.50
555.09	43507.05
555.29	43093.36
555.49	43517.29
555.69	43793.76
555.89	43715.94
556.10	44043.62
556.30	43955.55
556.50	44062.05
556.70	43670.89
556.90	44211.55
557.10	44393.82
557.30	43949.41
557.50	44322.14
557.70	44072.29
557.91	44189.02
558.11	44119.39
558.31	44309.85
558.51	44262.75
558.71	44033.38
558.91	44520.79
559.11	44522.84
559.31	44772.69
559.51	44426.59
559.72	44698.97
559.92	45047.12
560.12	44612.95
560.32	44670.29
560.52	44799.32
560.72	44774.74
560.92	44795.22
561.12	44782.93
561.32	45344.08
561.52	44713.30
561.72	45167.95
561.93	45028.69
562.13	45151.57
562.33	44852.56
562.53	45473.10
562.73	45139.28
562.93	45217.10
563.13	45251.92
563.33	45133.14
563.53	45612.36
563.73	45077.84
563.93	45475.15
564.13	45534.54
564.33	45608.26
564.53	45339.98
564.74	45628.74
564.94	45301.07
565.14	45632.84
565.34	45649.22
565.54	46071.10
565.74	45686.09
565.94	46073.15
566.14	45600.07
566.34	45673.80
566.54	46363.96
566.74	45354.32
566.94	45905.22
567.14	46257.47
567.34	45806.92
567.54	46447.93
567.74	46153.02
567.94	46091.58
568.14	46368.06
568.34	46116.16
568.54	46513.47
568.74	46548.28
568.94	46476.60
569.14	46650.68
569.34	46458.17
569.54	46757.17
569.75	46372.16
569.95	46787.89
570.15	46601.53
570.35	46992.69
570.55	46748.98
570.75	46726.46
570.95	46953.78
571.15	47177.01
571.35	47252.78
571.55	47207.73
571.75	46503.23
571.95	47390.00
572.15	47121.71
572.35	47174.96
572.55	46824.76
572.75	47412.52
572.95	47390.00
573.15	47807.78
573.35	47215.92
573.55	47062.32
573.75	47336.75
573.95	48086.31
574.15	47177.01
574.35	47703.34
574.55	47576.36
574.75	47605.03
574.95	47951.14
575.15	47281.45
575.34	47764.78
575.54	47957.28
575.74	47975.72
575.94	48035.11
576.14	47713.58
576.34	48360.73
576.54	48182.56
576.74	48231.71
576.94	47797.54
577.14	48540.96
577.34	48588.06
577.54	48213.28
577.74	48467.23
577.94	48649.50
578.14	48221.47
578.34	48545.05
578.54	47822.12
578.74	48583.96
578.94	48860.44
579.14	48637.21
579.34	48530.72
579.54	48932.12
579.74	49122.58
579.94	48747.80
580.13	49143.06
580.33	49362.19
580.53	49188.11
580.73	49407.25
580.93	49288.46
581.13	49071.38
581.33	49884.42
581.53	49718.54
581.73	49276.18
581.93	49458.45
582.13	48968.98
582.33	50091.27
582.53	49423.63
582.73	49796.36
582.92	49587.47
583.12	49898.76
583.32	49587.47
583.52	49673.48
583.72	49915.14
583.92	49917.19
584.12	50289.92
584.32	50611.45
584.52	50124.04
584.72	50388.22
584.92	50681.08
585.11	50685.18
585.31	50490.62
585.51	50867.45
585.71	50105.60
585.91	51049.72
586.11	50425.09
586.31	50633.98
586.51	50515.20
586.71	50525.44
586.91	51160.31
587.10	50885.88
587.30	51053.81
587.50	51092.72
587.70	50910.46
587.90	50982.13
588.10	51199.22
588.30	51430.64
588.50	51494.13
