SpectraSuite Data File
++++++++++++++++++++++++++++++++++++
Date: Fri Jun 02 14:41:56 CEST 2017
User: INFO_000
Dark Spectrum Present: No
Reference Spectrum Present: No
Number of Sampled Component Spectra: 1
Spectrometers: USB4H00879
Integration Time (usec): 80000 (USB4H00879)
Spectra Averaged: 1 (USB4H00879)
Boxcar Smoothing: 0 (USB4H00879)
Correct for Electrical Dark: No (USB4H00879)
Strobe/Lamp Enabled: No (USB4H00879)
Correct for Detector Non-linearity: No (USB4H00879)
Correct for Stray Light: No (USB4H00879)
Number of Pixels in Processed Spectrum: 3648
>>>>>Begin Processed Spectral Data<<<<<
345.13	1241.07
345.34	1241.07
345.56	1241.07
345.78	1239.02
345.99	1318.89
346.21	1646.57
346.42	1740.77
346.64	1624.04
346.86	1796.07
347.07	1710.05
347.29	1703.91
347.50	1642.47
347.72	1675.24
347.94	1751.01
348.15	1587.18
348.37	1583.08
348.59	1705.96
348.80	1718.25
349.02	1761.25
349.23	1894.37
349.45	1812.45
349.67	1986.53
349.88	1787.88
350.10	1957.86
350.31	1853.41
350.53	1818.60
350.75	1925.09
350.96	1767.40
351.18	1929.19
351.39	1882.08
351.61	1794.02
351.82	1918.95
352.04	1820.64
352.26	1753.06
352.47	1804.26
352.69	1863.65
352.90	1753.06
353.12	1814.50
353.34	1916.90
353.55	1918.95
353.77	1875.94
353.98	1861.60
354.20	1877.99
354.41	1925.09
354.63	1974.24
354.85	2027.49
355.06	1890.28
355.28	1867.75
355.49	1947.62
355.71	1888.23
355.92	1859.56
356.14	1978.34
356.35	1877.99
356.57	1896.42
356.79	1920.99
357.00	1873.89
357.22	1947.62
357.43	1818.60
357.65	2004.96
357.86	1943.52
358.08	1888.23
358.29	2009.06
358.51	1908.71
358.72	1910.75
358.94	1976.29
359.16	1892.32
359.37	1953.76
359.59	1902.56
359.80	2054.11
360.02	1970.15
360.23	1943.52
360.45	2070.50
360.66	1982.43
360.88	1894.37
361.09	1900.52
361.31	1904.61
361.52	1949.67
361.74	1988.58
361.95	2131.94
362.17	1871.84
362.38	2123.74
362.60	1996.77
362.81	1961.95
363.03	1935.33
363.24	2017.25
363.46	2064.35
363.67	2039.78
363.89	1968.10
364.10	1986.53
364.32	2002.91
364.53	2101.22
364.75	1933.28
364.96	2033.63
365.18	2056.16
365.39	2027.49
365.61	1986.53
365.82	2082.78
366.04	2021.35
366.25	2056.16
366.47	2035.68
366.68	1994.72
366.90	2002.91
367.11	2090.98
367.33	2123.74
367.54	2011.11
367.76	2039.78
367.97	2062.30
368.19	2074.59
368.40	2052.06
368.62	1994.72
368.83	1988.58
369.05	2090.98
369.26	1955.81
369.48	1984.48
369.69	1984.48
369.91	2070.50
370.12	1994.72
370.33	2109.41
370.55	2017.25
370.76	2050.02
370.98	2144.22
371.19	2105.31
371.41	2037.73
371.62	1994.72
371.84	2050.02
372.05	2205.66
372.27	2090.98
372.48	2150.37
372.69	2082.78
372.91	2185.18
373.12	2234.33
373.34	2052.06
373.55	2203.61
373.77	2246.62
373.98	2109.41
374.20	2189.28
374.41	2285.53
374.62	2127.84
374.84	2127.84
375.05	2205.66
375.27	2170.85
375.48	2187.23
375.70	2201.57
375.91	2209.76
376.12	2285.53
376.34	2162.66
376.55	2252.77
376.77	2232.29
376.98	2150.37
377.19	2176.99
377.41	2113.50
377.62	2299.87
377.84	2351.07
378.05	2475.99
378.27	2217.95
378.48	2353.12
378.69	2355.16
378.91	2392.03
379.12	2310.11
379.34	2213.85
379.55	2324.44
379.76	2310.11
379.98	2189.28
380.19	2277.34
380.41	2328.54
380.62	2322.40
380.83	2250.72
381.05	2252.77
381.26	2389.98
381.47	2209.76
381.69	2199.52
381.90	2404.32
382.12	2301.92
382.33	2334.68
382.54	2342.88
382.76	2328.54
382.97	2406.36
383.19	2303.96
383.40	2467.80
383.61	2277.34
383.83	2242.53
384.04	2346.97
384.25	2359.26
384.47	2400.22
384.68	2426.84
384.89	2316.25
385.11	2381.79
385.32	2410.46
385.54	2396.12
385.75	2385.88
385.96	2408.41
386.18	2416.60
386.39	2523.10
386.60	2480.09
386.82	2541.53
387.03	2514.91
387.24	2523.10
387.46	2535.39
387.67	2488.28
387.88	2523.10
388.10	2465.75
388.31	2559.96
388.52	2586.58
388.74	2570.20
388.95	2576.34
389.16	2469.85
389.38	2564.06
389.59	2572.25
389.80	2615.26
390.02	2545.63
390.23	2590.68
390.44	2566.10
390.66	2596.82
390.87	2564.06
391.08	2627.54
391.30	2723.80
391.51	2645.98
391.72	2682.84
391.94	2617.30
392.15	2635.74
392.36	2635.74
392.58	2691.03
392.79	2736.09
393.00	2721.75
393.22	2781.14
393.43	2736.09
393.64	2826.20
393.85	2701.27
394.07	2658.26
394.28	2832.34
394.49	2775.00
394.71	2807.77
394.92	2867.16
395.13	2766.81
395.35	2779.09
395.56	2877.40
395.77	2775.00
395.98	2832.34
396.20	2953.17
396.41	2889.68
396.62	2861.01
396.84	2869.20
397.05	2908.12
397.26	2885.59
397.47	3067.86
397.69	2840.53
397.90	2985.94
398.11	2887.64
398.32	2977.75
398.54	2873.30
398.75	2961.36
398.96	2904.02
399.18	3153.87
399.39	2998.23
399.60	3039.19
399.81	2947.03
400.03	3006.42
400.24	3332.05
400.45	2998.23
400.66	3121.10
400.88	3076.05
401.09	3250.13
401.30	3133.39
401.51	3239.89
401.73	3252.17
401.94	3133.39
402.15	3188.69
402.36	3084.24
402.58	3241.93
402.79	3395.53
403.00	3215.31
403.21	3299.28
403.43	3233.74
403.64	3418.06
403.85	3266.51
404.06	3360.72
404.27	3237.84
404.49	3270.61
404.70	3217.36
404.91	3409.87
405.12	3344.33
405.34	3264.46
405.55	3487.69
405.76	3133.39
405.97	3313.61
406.19	3381.20
406.40	3323.85
406.61	3387.34
406.82	3416.01
407.03	3295.18
407.25	3489.74
407.46	3309.52
407.67	3499.98
407.88	3518.41
408.09	3446.73
408.31	3352.52
408.52	3518.41
408.73	3383.24
408.94	3407.82
409.15	3446.73
409.37	3682.25
409.58	3690.44
409.79	3538.89
410.00	3661.77
410.21	3698.63
410.43	3629.00
410.64	3469.26
410.85	3588.04
411.06	3573.71
411.27	3735.50
411.48	3612.62
411.70	3710.92
411.91	3774.41
412.12	3774.41
412.33	3723.21
412.54	3618.76
412.76	3776.45
412.97	3813.32
413.18	3715.02
413.39	3717.06
413.60	3911.62
413.81	3737.54
414.03	3784.65
414.24	3680.20
414.45	3905.48
414.66	3780.55
414.87	3831.75
415.08	3764.17
415.30	3796.93
415.51	3913.67
415.72	3809.22
415.93	3921.86
416.14	3911.62
416.35	4020.16
416.56	3909.57
416.78	4011.97
416.99	3885.00
417.20	4014.02
417.41	4087.75
417.62	4016.07
417.83	4059.07
418.04	3944.39
418.26	4036.55
418.47	3966.92
418.68	4097.99
418.89	4024.26
419.10	4231.10
419.31	4040.64
419.52	4126.66
419.73	4118.47
419.95	4206.53
420.16	4022.21
420.37	4157.38
420.58	4274.11
420.79	4032.45
421.00	4263.87
421.21	4261.82
421.42	4124.61
421.63	4313.02
421.85	4280.25
422.06	4343.74
422.27	4343.74
422.48	4388.80
422.69	4388.80
422.90	4267.97
423.11	4296.64
423.32	4450.24
423.53	4540.35
423.75	4575.16
423.96	4505.53
424.17	4526.01
424.38	4591.55
424.59	4560.83
424.80	4614.07
425.01	4521.92
425.22	4550.59
425.43	4661.18
425.64	4757.43
425.85	4790.20
426.06	4642.75
426.28	4718.52
426.49	4577.21
426.70	4599.74
426.91	4861.88
427.12	4769.72
427.33	4925.36
427.54	4845.49
427.75	4747.19
427.96	4954.04
428.17	4954.04
428.38	4978.61
428.59	5089.20
428.80	4843.45
429.01	5040.05
429.23	4865.97
429.44	5193.65
429.65	5009.33
429.86	5089.20
430.07	5070.77
430.28	5033.91
430.49	5103.54
430.70	5148.59
430.91	5386.16
431.12	5267.38
431.33	5255.09
431.54	5353.39
431.75	5320.62
431.96	5345.20
432.17	5197.74
432.38	5298.10
432.59	5500.84
432.80	5418.93
433.01	5449.64
433.22	5480.36
433.43	5425.07
433.64	5468.08
433.85	5279.66
434.06	5699.50
434.27	5494.70
434.49	5459.88
434.70	5758.89
434.91	5558.19
435.12	5646.25
435.33	5629.87
435.54	5662.63
435.75	5502.89
435.96	5543.85
436.17	5523.37
436.38	5789.61
436.59	5879.72
436.80	5590.95
437.01	5926.82
437.22	6004.64
437.43	6002.60
437.64	5730.22
437.85	5973.92
438.06	5971.88
438.27	5932.97
438.48	5830.57
438.69	5859.24
438.90	5965.73
439.11	5885.86
439.32	5967.78
439.53	6043.56
439.74	6074.28
439.95	6215.59
440.16	6025.12
440.37	6041.51
440.57	5963.68
440.78	6045.60
440.99	6129.57
441.20	6234.02
441.41	6139.81
441.62	6104.99
441.83	6057.89
442.04	6277.02
442.25	6352.80
442.46	6299.55
442.67	6401.95
442.88	6748.06
443.09	6354.85
443.30	6377.37
443.51	6434.72
443.72	6653.85
443.93	6332.32
444.14	6733.72
444.35	6309.79
444.56	6543.26
444.77	6670.23
444.98	6655.90
445.19	6664.09
445.40	6535.07
445.61	6586.27
445.81	6803.35
446.02	6713.24
446.23	6612.89
446.44	6539.16
446.65	6741.91
446.86	6735.77
447.07	6762.39
447.28	6920.09
447.49	6938.52
447.70	6975.38
447.91	6748.06
448.12	6832.02
448.33	7053.20
448.54	6899.61
448.74	6852.50
448.95	7012.24
449.16	7004.05
449.37	7192.47
449.58	6870.94
449.79	7223.19
450.00	7067.54
450.21	7184.27
450.42	7417.74
450.63	7323.54
450.84	7239.57
451.05	7247.76
451.25	7358.35
451.46	7137.17
451.67	7391.12
451.88	7346.06
452.09	7411.60
452.30	7434.13
452.51	7317.39
452.72	7407.50
452.93	7679.88
453.13	7374.74
453.34	7489.42
453.55	7571.34
453.76	7538.57
453.97	7839.62
454.18	7794.57
454.39	7817.10
454.60	7726.99
454.81	7739.27
455.01	7890.82
455.22	7511.95
455.43	7909.26
455.64	8122.24
455.85	8163.20
456.06	8228.74
456.27	7907.21
456.48	8025.99
456.68	8296.32
456.89	8226.69
457.10	8415.10
457.31	8112.00
457.52	8116.10
457.73	8314.75
457.94	8540.03
458.14	8200.07
458.35	8636.28
458.56	8501.12
458.77	8585.08
458.98	8486.78
459.19	8490.88
459.39	8775.55
459.60	8789.88
459.81	8738.68
460.02	8814.46
460.23	8877.94
460.44	9207.67
460.65	9015.16
460.85	8994.68
461.06	9090.93
461.27	8816.51
461.48	9416.56
461.69	9353.07
461.89	8957.82
462.10	9367.41
462.31	9127.80
462.52	9179.00
462.73	9351.03
462.94	9398.13
463.14	9359.22
463.35	9371.50
463.56	9918.31
463.77	9662.32
463.98	9541.49
464.18	9815.91
464.39	9772.91
464.60	9946.98
464.81	9873.26
465.02	10108.77
465.23	10080.10
465.43	9920.36
465.64	10219.36
465.85	10139.49
466.06	9936.74
466.27	10377.06
466.47	10272.61
466.68	10248.04
466.89	10231.65
467.10	10682.20
467.30	10446.69
467.51	10637.15
467.72	10741.60
467.93	10559.33
468.14	10622.81
468.34	11099.99
468.55	10858.33
468.76	10993.50
468.97	10684.25
469.17	11300.69
469.38	11341.65
469.59	11374.42
469.80	11190.10
470.01	11276.12
470.21	11186.01
470.42	11601.74
470.63	11839.31
470.84	11532.11
471.04	11583.31
471.25	11945.80
471.46	11552.59
471.67	12048.20
471.87	11904.84
472.08	11984.71
472.29	12353.35
472.50	11945.80
472.70	12146.50
472.91	12253.00
473.12	12435.27
473.33	12373.83
473.53	12758.85
473.74	12568.38
473.95	12865.34
474.16	12836.67
474.36	12848.96
474.57	13160.25
474.78	13137.72
474.99	12982.07
475.19	12994.36
475.40	13412.15
475.61	13406.00
475.81	13668.14
476.02	13614.90
476.23	13309.75
476.44	13844.27
476.64	14069.55
476.85	14085.93
477.06	14087.98
477.27	14409.51
477.47	14436.13
477.68	14352.16
477.89	14520.10
478.09	14503.71
478.30	14487.33
478.51	14755.61
478.71	14839.58
478.92	14876.44
479.13	14874.40
479.34	15245.08
479.54	15277.85
479.75	15398.68
479.96	15367.96
480.16	15349.53
480.37	15619.86
480.58	15664.91
480.78	15767.31
480.99	16174.86
481.20	15939.34
481.41	16226.06
481.61	16224.01
481.82	16400.13
482.03	16097.03
482.23	16158.47
482.44	16508.68
482.65	16645.89
482.85	16768.77
483.06	16723.71
483.27	16754.43
483.47	16944.89
483.68	17135.35
483.89	17200.89
484.09	17102.59
484.30	17395.45
484.51	17360.63
484.71	17692.40
484.92	17463.03
485.13	17813.23
485.33	18022.12
485.54	17991.41
485.75	17934.06
485.95	18267.88
486.16	18321.13
486.37	18294.50
486.57	18190.06
486.78	18386.66
486.98	18325.22
487.19	18702.05
487.40	18812.64
487.60	18927.33
487.81	19042.01
488.02	19152.60
488.22	19171.04
488.43	19252.95
488.64	19508.95
488.84	19699.41
489.05	19349.21
489.25	19504.85
489.46	19795.67
489.67	19816.15
489.87	19963.60
490.08	20000.46
490.29	20145.87
490.49	20270.79
490.70	20373.19
490.90	20395.72
491.11	20172.49
491.32	20356.81
491.52	20643.52
491.73	20604.61
491.94	20434.63
492.14	20573.89
492.35	20907.71
492.55	21034.69
492.76	21073.60
492.97	21446.33
493.17	21587.64
493.38	21493.43
493.58	21759.67
493.79	21835.44
494.00	21634.74
494.20	21943.99
494.41	21993.14
494.61	22087.34
494.82	22277.80
495.02	22089.39
495.23	22073.01
495.44	22027.95
495.64	22498.98
495.85	22470.31
496.05	22773.41
496.26	22656.68
496.47	22849.19
496.67	22773.41
496.88	22990.50
497.08	22865.57
497.29	23273.12
497.49	22918.82
497.70	23322.27
497.91	23316.12
498.11	23457.43
498.32	23738.01
498.52	23578.26
498.73	24098.45
498.93	23735.96
499.14	23772.82
499.34	23725.72
499.55	24028.82
499.76	23848.60
499.96	24069.78
500.17	24252.05
500.37	24096.40
500.58	24327.82
500.78	24663.69
500.99	24467.08
501.19	24897.16
501.40	24809.09
501.60	24643.21
501.81	24721.03
502.02	24964.74
502.22	24641.16
502.43	25036.42
502.63	25398.91
502.84	25181.82
503.04	25247.36
503.25	25654.90
503.45	25476.73
503.66	25816.69
503.86	25499.26
504.07	25929.33
504.27	25704.06
504.48	26015.35
504.68	25749.11
504.89	25882.23
505.09	25917.04
505.30	25949.81
505.50	25663.10
505.71	25923.19
505.91	26259.06
506.12	26248.82
506.32	26566.25
506.53	26562.15
506.73	26388.08
506.94	26525.29
507.14	26578.54
507.35	26693.22
507.55	26828.39
507.76	26936.93
507.96	26865.25
508.17	26924.65
508.37	26783.34
508.58	27147.87
508.78	26938.98
508.99	27147.87
509.19	27160.16
509.40	27094.63
509.60	27117.15
509.81	27633.24
510.01	27354.72
510.22	27358.81
510.42	27280.99
510.63	27299.42
510.83	28126.80
511.04	27575.90
511.24	27997.78
511.44	27717.21
511.65	27848.28
511.85	28042.84
512.06	27991.64
512.26	28063.32
512.47	27831.90
512.67	28247.63
512.88	28317.26
513.08	28161.62
513.29	28513.87
513.49	28165.71
513.69	28513.87
513.90	28417.61
514.10	28511.82
514.31	28495.44
514.51	28710.47
514.72	28862.02
514.92	28866.12
515.13	28821.06
515.33	29044.29
515.53	28784.20
515.74	28747.34
515.94	29261.38
516.15	29034.05
516.35	29097.54
516.56	29191.75
516.76	29216.32
516.96	29593.15
517.17	29533.76
517.37	29206.08
517.58	29220.42
517.78	29699.64
517.99	29904.44
518.19	29566.52
518.39	29797.95
518.60	30195.25
518.80	29550.14
519.01	30058.04
519.21	29918.78
519.41	30324.27
519.62	30316.08
519.82	30504.49
520.03	30426.67
520.23	30363.18
520.43	30357.04
520.64	30572.08
520.84	30422.58
521.05	30576.17
521.25	31004.20
521.45	30823.98
521.66	31176.23
521.86	30557.74
522.07	31125.03
522.27	31110.69
522.47	30991.91
522.68	31499.81
522.88	31088.17
523.08	31405.60
523.29	31499.81
523.49	31766.04
523.70	31411.74
523.90	31839.77
524.10	31817.24
524.31	32026.14
524.51	31731.23
524.71	32245.27
524.92	32267.80
525.12	32318.99
525.33	32071.19
525.53	32392.72
525.73	32443.92
525.94	32749.07
526.14	32704.01
526.34	32671.25
526.55	32886.28
526.75	32964.10
526.95	33238.53
527.16	32861.71
527.36	33170.95
527.56	33062.41
527.77	33322.50
527.97	33306.12
528.17	33299.97
528.38	33566.21
528.58	33431.04
528.78	33914.36
528.99	33582.59
529.19	34176.50
529.39	33754.62
529.60	34625.01
529.80	34252.28
530.00	34059.77
530.21	34760.17
530.41	34700.78
530.61	34313.72
530.82	34774.51
531.02	34633.20
531.22	34631.15
531.43	34807.28
531.63	35046.89
531.83	35120.62
532.04	35436.00
532.24	34895.34
532.44	35493.35
532.64	35476.96
532.85	36107.74
533.05	35681.76
533.25	35644.90
533.46	35716.58
533.66	35915.23
533.86	35997.15
534.07	36322.77
534.27	36257.24
534.47	36431.32
534.67	36523.47
534.88	36099.55
535.08	36607.44
535.28	36994.51
535.49	36705.74
535.69	37344.71
535.89	37068.23
536.09	37246.41
536.30	37414.34
536.50	37211.59
536.70	37393.86
536.91	37357.00
537.11	37680.58
537.31	37780.93
537.51	37518.79
537.72	37928.38
537.92	37946.81
538.12	38385.08
538.32	38120.89
538.53	38505.91
538.73	38116.79
538.93	38233.53
539.13	38317.50
539.34	38079.93
539.54	38538.68
539.74	38778.29
539.94	38573.49
540.15	38725.04
540.35	38659.51
540.55	38997.42
540.75	39013.80
540.96	39316.90
541.16	39202.22
541.36	39277.99
541.56	39116.20
541.77	39816.61
541.97	39484.84
542.17	39843.23
542.37	39933.34
542.58	40039.84
542.78	39794.08
542.98	39904.67
543.18	40297.88
543.38	39978.40
543.59	40293.79
543.79	39966.11
543.99	40009.12
544.19	40396.18
544.40	40349.08
544.60	40633.75
544.80	40609.17
545.00	40646.04
545.20	40762.77
545.41	40693.14
545.61	41117.07
545.81	40842.64
546.01	41401.74
546.21	40885.65
546.42	41158.03
546.62	41450.89
546.82	41434.50
547.02	41350.54
547.22	41516.42
547.43	41334.15
547.63	41629.06
547.83	41422.22
548.03	41698.69
548.23	42024.32
548.44	41598.34
548.64	41676.16
548.84	41801.09
549.04	41840.00
549.24	42290.55
549.45	42610.04
549.65	41880.96
549.85	41956.74
550.05	42243.45
550.25	42265.98
550.45	42708.34
550.66	42304.89
550.86	42462.58
551.06	42579.32
551.26	42730.87
551.46	42673.52
551.66	42878.32
551.87	42841.46
552.07	42947.95
552.27	42890.61
552.47	43097.45
552.67	42995.06
552.87	42702.20
553.07	43119.98
553.28	43195.76
553.48	43543.91
553.68	43021.68
553.88	43761.00
554.08	43287.92
554.28	43009.39
554.48	43275.63
554.69	44008.80
554.89	43607.40
555.09	43654.50
555.29	43392.36
555.49	43701.61
555.69	43969.89
555.89	43713.89
556.10	43580.78
556.30	43703.65
556.50	43908.45
556.70	43943.27
556.90	44217.69
557.10	44184.93
557.30	43914.59
557.50	44371.29
557.70	44055.90
557.91	44588.38
558.11	44612.95
558.31	44660.05
558.51	44381.53
558.71	44563.80
558.91	44191.07
559.11	44602.71
559.31	44426.59
559.51	44561.75
559.72	44580.18
559.92	44539.22
560.12	44600.66
560.32	45053.26
560.52	44651.86
560.72	44881.24
560.92	45081.94
561.12	44776.79
561.32	45112.66
561.52	45024.59
561.72	45217.10
561.93	45118.80
562.13	45135.18
562.33	44475.74
562.53	45126.99
562.73	45036.88
562.93	44981.59
563.13	45006.16
563.33	44721.49
563.53	45317.45
563.73	44680.53
563.93	45548.87
564.13	45892.93
564.33	45448.52
564.53	45614.41
564.74	45602.12
564.94	45385.04
565.14	45802.82
565.34	45491.53
565.54	45608.26
565.74	45647.18
565.94	46032.19
566.14	45749.57
566.34	45839.68
566.54	46142.78
566.74	45948.23
566.94	46073.15
567.14	46136.64
567.34	45856.07
567.54	46386.49
567.74	45755.72
567.94	45983.04
568.14	46482.75
568.34	46769.46
568.54	46009.67
568.74	46398.78
568.94	46300.48
569.14	46914.87
569.34	46515.51
569.54	46609.72
569.75	46474.55
569.95	46728.50
570.15	47183.15
570.35	46568.76
570.55	46591.29
570.75	46736.69
570.95	46789.94
571.15	47209.78
571.35	47043.89
571.55	47217.97
571.75	46939.44
571.95	46835.00
572.15	46974.26
572.35	47232.30
572.55	47174.96
572.75	47068.47
572.95	47158.58
573.15	47226.16
573.35	47170.86
573.55	46921.01
573.75	47322.41
573.95	47367.47
574.15	47355.18
574.35	47461.68
574.55	47627.56
574.75	47473.96
574.95	47476.01
575.15	47691.05
575.34	47885.61
575.54	47476.01
575.74	47865.13
575.94	48076.07
576.14	47703.34
576.34	47971.62
576.54	48127.27
576.74	48053.54
576.94	47439.15
577.14	48454.94
577.34	48940.31
577.54	48155.94
577.74	48459.04
577.94	48381.21
578.14	48469.28
578.34	48436.51
578.54	47789.35
578.74	48739.61
578.94	48614.68
579.14	48301.34
579.34	48651.55
579.54	49022.23
579.74	48848.15
579.94	48964.88
580.13	48983.32
580.33	48889.11
580.53	49222.93
580.73	49673.48
580.93	49378.57
581.13	48547.10
581.33	49702.15
581.53	49585.42
581.73	49820.94
581.93	49483.02
582.13	49648.91
582.33	49751.30
582.53	49382.67
582.73	49274.13
582.92	49321.23
583.12	49622.28
583.32	49769.74
583.52	49890.57
583.72	50222.34
583.92	50011.40
584.12	49863.94
584.32	50091.27
584.52	50676.99
584.72	50527.48
584.92	50156.80
585.11	50861.30
585.31	50513.15
585.51	50881.78
585.71	50230.53
585.91	50883.83
586.11	50459.90
586.31	50468.09
586.51	50578.68
586.71	50681.08
586.91	50615.55
587.10	51019.00
587.30	50969.85
587.50	51152.12
587.70	50988.28
587.90	51389.68
588.10	50912.50
588.30	50914.55
588.50	51516.65
