SpectraSuite Data File
++++++++++++++++++++++++++++++++++++
Date: Fri Jun 02 14:41:54 CEST 2017
User: INFO_000
Dark Spectrum Present: No
Reference Spectrum Present: No
Number of Sampled Component Spectra: 1
Spectrometers: USB4H00879
Integration Time (usec): 80000 (USB4H00879)
Spectra Averaged: 1 (USB4H00879)
Boxcar Smoothing: 0 (USB4H00879)
Correct for Electrical Dark: No (USB4H00879)
Strobe/Lamp Enabled: No (USB4H00879)
Correct for Detector Non-linearity: No (USB4H00879)
Correct for Stray Light: No (USB4H00879)
Number of Pixels in Processed Spectrum: 3648
>>>>>Begin Processed Spectral Data<<<<<
345.13	1304.56
345.34	1304.56
345.56	1304.56
345.78	1232.88
345.99	1236.97
346.21	1662.95
346.42	1685.48
346.64	1624.04
346.86	1767.40
347.07	1652.71
347.29	1728.49
347.50	1570.79
347.72	1699.81
347.94	1716.20
348.15	1597.42
348.37	1589.22
348.59	1656.81
348.80	1611.75
349.02	1796.07
349.23	1886.18
349.45	1796.07
349.67	1939.43
349.88	1800.16
350.10	1945.57
350.31	1904.61
350.53	1789.92
350.75	1939.43
350.96	1777.64
351.18	1798.12
351.39	1834.98
351.61	1820.64
351.82	1814.50
352.04	1918.95
352.26	1830.88
352.47	1888.23
352.69	1912.80
352.90	1865.70
353.12	1847.27
353.34	1828.84
353.55	1886.18
353.77	1920.99
353.98	1877.99
354.20	1853.41
354.41	1916.90
354.63	1945.57
354.85	2068.45
355.06	1918.95
355.28	1796.07
355.49	1843.17
355.71	1980.39
355.92	1855.46
356.14	1964.00
356.35	1861.60
356.57	1888.23
356.79	1871.84
357.00	1859.56
357.22	1951.71
357.43	1841.12
357.65	1974.24
357.86	1877.99
358.08	1886.18
358.29	1914.85
358.51	2013.15
358.72	1984.48
358.94	1920.99
359.16	1855.46
359.37	1937.38
359.59	1964.00
359.80	1974.24
360.02	2037.73
360.23	1976.29
360.45	1959.91
360.66	1943.52
360.88	1896.42
361.09	1890.28
361.31	2009.06
361.52	2056.16
361.74	2088.93
361.95	2090.98
362.17	1943.52
362.38	2142.18
362.60	2093.02
362.81	2025.44
363.03	1861.60
363.24	2029.54
363.46	2101.22
363.67	2045.92
363.89	1953.76
364.10	1970.15
364.32	1937.38
364.53	1994.72
364.75	1845.22
364.96	2101.22
365.18	2084.83
365.39	2076.64
365.61	1982.43
365.82	2131.94
366.04	1918.95
366.25	1927.14
366.47	2045.92
366.68	2107.36
366.90	1992.67
367.11	2072.54
367.33	2064.35
367.54	2148.32
367.76	2043.87
367.97	2058.21
368.19	2062.30
368.40	2078.69
368.62	1994.72
368.83	1927.14
369.05	2107.36
369.26	2047.97
369.48	1986.53
369.69	2011.11
369.91	2058.21
370.12	1984.48
370.33	2027.49
370.55	1943.52
370.76	2019.30
370.98	2162.66
371.19	2115.55
371.41	2033.63
371.62	2060.26
371.84	2068.45
372.05	2187.23
372.27	2072.54
372.48	2142.18
372.69	2025.44
372.91	2183.13
373.12	2189.28
373.34	2158.56
373.55	2138.08
373.77	2174.94
373.98	2117.60
374.20	2209.76
374.41	2228.19
374.62	2183.13
374.84	2197.47
375.05	2158.56
375.27	2201.57
375.48	2217.95
375.70	2217.95
375.91	2224.09
376.12	2228.19
376.34	2138.08
376.55	2232.29
376.77	2185.18
376.98	2138.08
377.19	2158.56
377.41	2166.75
377.62	2168.80
377.84	2220.00
378.05	2297.82
378.27	2242.53
378.48	2299.87
378.69	2363.36
378.91	2271.20
379.12	2220.00
379.34	2269.15
379.55	2256.86
379.76	2295.77
379.98	2238.43
380.19	2303.96
380.41	2310.11
380.62	2342.88
380.83	2306.01
381.05	2183.13
381.26	2439.13
381.47	2277.34
381.69	2273.25
381.90	2387.93
382.12	2351.07
382.33	2318.30
382.54	2299.87
382.76	2342.88
382.97	2336.73
383.19	2236.38
383.40	2338.78
383.61	2340.83
383.83	2308.06
384.04	2303.96
384.25	2387.93
384.47	2379.74
384.68	2316.25
384.89	2297.82
385.11	2349.02
385.32	2385.88
385.54	2344.92
385.75	2387.93
385.96	2447.32
386.18	2435.03
386.39	2504.67
386.60	2459.61
386.82	2537.43
387.03	2453.47
387.24	2494.43
387.46	2488.28
387.67	2555.86
387.88	2564.06
388.10	2426.84
388.31	2514.91
388.52	2547.67
388.74	2592.73
388.95	2617.30
389.16	2508.76
389.38	2516.95
389.59	2666.46
389.80	2756.57
390.02	2525.15
390.23	2619.35
390.44	2547.67
390.66	2576.34
390.87	2660.31
391.08	2729.94
391.30	2789.33
391.51	2693.08
391.72	2729.94
391.94	2686.94
392.15	2580.44
392.36	2584.54
392.58	2656.22
392.79	2756.57
393.00	2721.75
393.22	2775.00
393.43	2768.85
393.64	2815.96
393.85	2834.39
394.07	2715.61
394.28	2781.14
394.49	2801.62
394.71	2799.57
394.92	2858.96
395.13	2861.01
395.35	2713.56
395.56	2815.96
395.77	2813.91
395.98	2787.29
396.20	2877.40
396.41	2975.70
396.62	2928.60
396.84	2899.92
397.05	2924.50
397.26	2910.16
397.47	2969.55
397.69	2873.30
397.90	3006.42
398.11	2996.18
398.32	2959.31
398.54	2807.77
398.75	2895.83
398.96	2965.46
399.18	3098.58
399.39	2936.79
399.60	3080.14
399.81	3028.95
400.03	3045.33
400.24	3252.17
400.45	3071.95
400.66	3207.12
400.88	3106.77
401.09	3184.59
401.30	3096.53
401.51	3151.82
401.73	3196.88
401.94	3299.28
402.15	3164.11
402.36	3227.60
402.58	3188.69
402.79	3209.17
403.00	3223.50
403.21	3256.27
403.43	3256.27
403.64	3362.76
403.85	3078.10
404.06	3383.24
404.27	3200.98
404.49	3211.22
404.70	3196.88
404.91	3319.76
405.12	3282.89
405.34	3262.41
405.55	3434.44
405.76	3229.65
405.97	3227.60
406.19	3465.16
406.40	3303.37
406.61	3362.76
406.82	3409.87
407.03	3282.89
407.25	3387.34
407.46	3426.25
407.67	3467.21
407.88	3493.83
408.09	3497.93
408.31	3483.59
408.52	3555.27
408.73	3391.44
408.94	3432.40
409.15	3600.33
409.37	3514.31
409.58	3555.27
409.79	3497.93
410.00	3598.28
410.21	3452.88
410.43	3538.89
410.64	3487.69
410.85	3688.39
411.06	3553.23
411.27	3622.86
411.48	3704.78
411.70	3573.71
411.91	3669.96
412.12	3760.07
412.33	3659.72
412.54	3579.85
412.76	3819.46
412.97	3770.31
413.18	3694.54
413.39	3667.91
413.60	3776.45
413.81	3727.30
414.03	3819.46
414.24	3770.31
414.45	3901.38
414.66	3639.24
414.87	3887.04
415.08	3784.65
415.30	3882.95
415.51	3891.14
415.72	3751.88
415.93	3786.69
416.14	3928.00
416.35	3762.12
416.56	3934.15
416.78	3862.47
416.99	3878.85
417.20	3848.13
417.41	4018.11
417.62	3952.58
417.83	3911.62
418.04	3985.35
418.26	4102.08
418.47	3919.81
418.68	4145.09
418.89	4022.21
419.10	4204.48
419.31	4112.32
419.52	4255.68
419.73	4120.51
419.95	4231.10
420.16	4016.07
420.37	4100.03
420.58	4048.83
420.79	4159.42
421.00	4257.73
421.21	4171.71
421.42	4097.99
421.63	4077.51
421.85	4050.88
422.06	4306.88
422.27	4194.24
422.48	4288.45
422.69	4335.55
422.90	4360.13
423.11	4310.97
423.32	4327.36
423.53	4433.85
423.75	4554.68
423.96	4523.96
424.17	4585.40
424.38	4628.41
424.59	4523.96
424.80	4687.80
425.01	4452.28
425.22	4646.84
425.43	4579.26
425.64	4761.53
425.85	4687.80
426.06	4911.03
426.28	4636.60
426.49	4589.50
426.70	4652.98
426.91	4714.42
427.12	4753.34
427.33	4859.83
427.54	4753.34
427.75	4886.45
427.96	5042.10
428.17	4835.25
428.38	4906.93
428.59	4947.89
428.80	4786.10
429.01	4827.06
429.23	4968.37
429.44	5289.90
429.65	4992.95
429.86	5169.07
430.07	4997.04
430.28	5072.82
430.49	5271.47
430.70	5259.18
430.91	5314.48
431.12	5189.55
431.33	5236.66
431.54	5328.81
431.75	5392.30
431.96	5334.96
432.17	5320.62
432.38	5250.99
432.59	5519.28
432.80	5386.16
433.01	5468.08
433.22	5361.58
433.43	5494.70
433.64	5429.17
433.85	5466.03
434.06	5554.09
434.27	5377.97
434.49	5519.28
434.70	5685.16
434.91	5783.46
435.12	5713.83
435.33	5789.61
435.54	5713.83
435.75	5394.35
435.96	5767.08
436.17	5459.88
436.38	5789.61
436.59	5947.30
436.80	5791.66
437.01	6025.12
437.22	6039.46
437.43	5775.27
437.64	5844.90
437.85	5955.49
438.06	6043.56
438.27	5799.85
438.48	5767.08
438.69	5994.40
438.90	5881.77
439.11	5840.81
439.32	6164.39
439.53	6107.04
439.74	5996.45
439.95	6164.39
440.16	6055.84
440.37	6070.18
440.57	5992.36
440.78	6219.68
440.99	6270.88
441.20	6107.04
441.41	6041.51
441.62	6229.92
441.83	6209.44
442.04	6330.27
442.25	6129.57
442.46	6258.59
442.67	6528.92
442.88	6803.35
443.09	6340.51
443.30	6315.94
443.51	6326.18
443.72	6594.46
443.93	6225.82
444.14	6662.04
444.35	6467.49
444.56	6545.31
444.77	6508.44
444.98	6563.74
445.19	6723.48
445.40	6596.51
445.61	6510.49
445.81	6692.76
446.02	6653.85
446.23	6756.25
446.44	6379.42
446.65	6793.11
446.86	6635.42
447.07	6862.74
447.28	6789.02
447.49	7010.20
447.70	6739.87
447.91	7098.26
448.12	6926.23
448.33	7004.05
448.54	7047.06
448.74	6911.89
448.95	7073.68
449.16	6836.12
449.37	7413.65
449.58	7094.16
449.79	7188.37
450.00	6809.50
450.21	7321.49
450.42	7262.10
450.63	7296.91
450.84	7266.19
451.05	7294.86
451.25	7214.99
451.46	7243.67
451.67	7444.37
451.88	7516.05
452.09	7360.40
452.30	7368.59
452.51	7380.88
452.72	7669.64
452.93	7815.05
453.13	7407.50
453.34	7577.48
453.55	7675.79
453.76	7647.12
453.97	7843.72
454.18	7741.32
454.39	7778.19
454.60	7679.88
454.81	7620.49
455.01	7976.84
455.22	7712.65
455.43	7778.19
455.64	8191.88
455.85	8173.44
456.06	8255.36
456.27	8091.52
456.48	8097.67
456.68	8114.05
456.89	8183.68
457.10	8136.58
457.31	8322.94
457.52	8331.14
457.73	8394.62
457.94	8570.75
458.14	8169.35
458.35	8720.25
458.56	8368.00
458.77	8468.35
458.98	8580.99
459.19	8474.49
459.39	8726.39
459.60	8755.07
459.81	8761.21
460.02	8769.40
460.23	8937.34
460.44	9013.11
460.65	9058.17
460.85	9107.32
461.06	9090.93
461.27	8857.46
461.48	9275.25
461.69	9303.92
461.89	9060.21
462.10	9234.29
462.31	9183.09
462.52	9047.93
462.73	9310.07
462.94	9570.16
463.14	9406.32
463.35	9561.97
463.56	9793.39
463.77	9768.81
463.98	9398.13
464.18	9703.28
464.39	9854.83
464.60	10098.53
464.81	9820.01
465.02	10002.28
465.23	10305.38
465.43	10063.72
465.64	10329.95
465.85	10282.85
466.06	9946.98
466.27	10432.35
466.47	10356.58
466.68	10465.12
466.89	10239.84
467.10	10596.19
467.30	10274.66
467.51	10686.30
467.72	10874.71
467.93	10522.46
468.14	10903.39
468.34	10870.62
468.55	10932.06
468.76	10977.11
468.97	10710.88
469.17	11241.30
469.38	11292.50
469.59	11548.50
469.80	11077.46
470.01	11216.72
470.21	11284.31
470.42	11671.37
470.63	11732.81
470.84	11439.95
471.04	11736.91
471.25	11704.14
471.46	11773.77
471.67	12171.08
471.87	11910.99
472.08	12054.34
472.29	12343.11
472.50	11958.09
472.70	11923.27
472.91	12154.69
473.12	12488.51
473.33	12615.49
473.53	12595.01
473.74	12488.51
473.95	12824.38
474.16	12853.05
474.36	12726.08
474.57	13063.99
474.78	13221.69
474.99	12984.12
475.19	13014.84
475.40	13557.55
475.61	13674.29
475.81	13547.31
476.02	13657.90
476.23	13516.59
476.44	13938.48
476.64	13920.04
476.85	13928.24
477.06	13852.46
477.27	14438.18
477.47	14266.15
477.68	14255.91
477.89	14389.03
478.09	14378.79
478.30	14423.84
478.51	14538.53
478.71	14712.61
478.92	14685.98
479.13	14958.36
479.34	15306.52
479.54	15269.66
479.75	15103.77
479.96	15398.68
480.16	15386.39
480.37	15482.64
480.58	15658.77
480.78	15890.19
480.99	15965.96
481.20	16123.66
481.41	16146.19
481.61	16183.05
481.82	16404.23
482.03	16289.54
482.23	16287.50
482.44	16668.42
482.65	16910.08
482.85	16852.73
483.06	16482.05
483.27	16830.21
483.47	16932.61
483.68	17002.24
483.89	17164.03
484.09	17184.51
484.30	17389.30
484.51	17424.12
484.71	17626.87
484.92	17483.51
485.13	17557.24
485.33	18063.08
485.54	17923.82
485.75	18183.91
485.95	18247.40
486.16	18097.90
486.37	18284.26
486.57	18052.84
486.78	18263.79
486.98	18296.55
487.19	18470.63
487.40	18931.42
487.60	18743.01
487.81	19125.98
488.02	18781.92
488.22	18865.89
488.43	19275.48
488.64	19271.39
488.84	19255.00
489.05	19582.68
489.25	19603.16
489.46	19760.85
489.67	19508.95
489.87	19631.83
490.08	20123.34
490.29	19920.59
490.49	20532.93
490.70	20250.32
490.90	20661.96
491.11	20424.39
491.32	20373.19
491.52	20604.61
491.73	20930.24
491.94	20932.29
492.14	20756.16
492.35	21173.95
492.55	21157.57
492.76	21032.64
492.97	21472.95
493.17	21391.03
493.38	21456.57
493.58	21749.43
493.79	21454.52
494.00	21581.49
494.20	21780.15
494.41	21941.94
494.61	21692.08
494.82	22230.70
495.02	22013.62
495.23	22185.65
495.44	22267.56
495.64	22613.67
495.85	22455.98
496.05	22804.13
496.26	22595.24
496.47	22795.94
496.67	22531.75
496.88	23031.46
497.08	22800.04
497.29	23008.93
497.49	22984.35
497.70	23365.28
497.91	23211.68
498.11	23330.46
498.32	23852.69
498.52	23580.31
498.73	23592.60
498.93	24209.04
499.14	23860.88
499.34	23733.91
499.55	24149.65
499.76	23918.23
499.96	23838.36
500.17	24221.33
500.37	24206.99
500.58	24696.46
500.78	24190.61
500.99	24290.96
501.19	24907.40
501.40	24647.30
501.60	24766.09
501.81	24452.75
502.02	24805.00
502.22	24716.93
502.43	25198.21
502.63	25341.57
502.84	25249.41
503.04	24831.62
503.25	25089.67
503.45	25204.35
503.66	25446.01
503.86	25484.92
504.07	25798.26
504.27	25308.80
504.48	25908.85
504.68	25984.63
504.89	26070.64
505.09	26179.18
505.30	26076.79
505.50	26248.82
505.71	25919.09
505.91	26361.45
506.12	26308.21
506.32	26267.25
506.53	26693.22
506.73	26398.32
506.94	26424.94
507.14	26668.65
507.35	26500.72
507.55	26556.01
507.76	26865.25
507.96	26990.18
508.17	26951.27
508.37	27090.53
508.58	26756.71
508.78	26889.83
508.99	27156.07
509.19	27272.80
509.40	27254.37
509.60	27235.94
509.81	27440.73
510.01	27108.96
510.22	27401.82
510.42	27616.86
510.63	27461.21
510.83	27483.74
511.04	27815.51
511.24	27788.89
511.44	27817.56
511.65	27756.12
511.85	27866.71
512.06	28026.45
512.26	27993.68
512.47	28032.60
512.67	28077.65
512.88	28321.36
513.08	28116.56
513.29	28102.23
513.49	28321.36
513.69	28393.04
513.90	28493.39
514.10	28687.95
514.31	28733.00
514.51	28515.92
514.72	28923.46
514.92	28620.36
515.13	28853.83
515.33	28866.12
515.53	28888.65
515.74	29138.50
515.94	29075.01
516.15	29122.12
516.35	28976.71
516.56	29650.49
516.76	29480.51
516.96	29079.11
517.17	29584.96
517.37	29353.54
517.58	29582.91
517.78	29668.92
517.99	29781.56
518.19	29912.63
518.39	29591.10
518.60	30039.61
518.80	29734.46
519.01	29949.50
519.21	30176.82
519.41	30139.96
519.62	30066.23
519.82	30076.47
520.03	30244.40
520.23	30504.49
520.43	30099.00
520.64	30596.65
520.84	31079.97
521.05	30586.41
521.25	30959.14
521.45	30694.96
521.66	31151.65
521.86	30854.70
522.07	30936.62
522.27	31202.85
522.47	31399.46
522.68	31438.37
522.88	31282.72
523.08	31821.34
523.29	31512.10
523.49	31538.72
523.70	31813.15
523.90	31964.70
524.10	31749.66
524.31	32142.87
524.51	31446.56
524.71	32255.51
524.92	31845.91
525.12	32466.45
525.33	32308.76
525.53	32359.95
525.73	32620.05
525.94	32716.30
526.14	32615.95
526.34	32552.46
526.55	33000.97
526.75	32826.89
526.95	33144.33
527.16	33162.76
527.36	33011.21
527.56	33379.84
527.77	33238.53
527.97	33371.65
528.17	33375.75
528.38	33648.13
528.58	33633.79
528.78	33697.28
528.99	33836.54
529.19	34348.53
529.39	33857.02
529.60	34434.55
529.80	33957.37
530.00	34358.77
530.21	34946.54
530.41	34512.37
530.61	34475.51
530.82	34457.07
531.02	34416.11
531.22	34647.54
531.43	34813.42
531.63	35007.98
531.83	35255.78
532.04	35798.49
532.24	34905.58
532.44	35794.40
532.64	35517.92
532.85	35708.38
533.05	35728.86
533.25	35677.66
533.46	35603.94
533.66	36300.25
533.86	35859.93
534.07	36306.39
534.27	36031.96
534.47	36429.27
534.67	36623.83
534.88	36613.59
535.08	36660.69
535.28	36939.21
535.49	36687.31
535.69	37109.19
535.89	36679.12
536.09	37350.85
536.30	37404.10
536.50	37326.28
536.70	37406.15
536.91	37641.67
537.11	37334.47
537.31	37541.32
537.51	37721.54
537.72	38440.37
537.92	37973.44
538.12	38561.20
538.32	38292.92
538.53	38532.53
538.73	38264.25
538.93	38413.75
539.13	38573.49
539.34	38352.31
539.54	38573.49
539.74	38995.37
539.94	38559.16
540.15	38442.42
540.35	38725.04
540.55	39251.37
540.75	38966.70
540.96	39359.91
541.16	39173.55
541.36	39409.06
541.56	39267.75
541.77	39482.79
541.97	39374.25
542.17	39620.00
542.37	39554.47
542.58	39802.27
542.78	39738.79
542.98	39712.16
543.18	39818.66
543.38	39968.16
543.59	40531.35
543.79	40000.93
543.99	40101.28
544.19	40594.84
544.40	40279.45
544.60	40895.89
544.80	40439.19
545.00	40687.00
545.20	40697.24
545.41	40752.53
545.61	40992.14
545.81	41147.79
546.01	41115.02
546.21	40951.18
546.42	40949.14
546.62	41201.04
546.82	41440.65
547.02	41239.95
547.22	40994.19
547.43	41227.66
547.63	41299.34
547.83	41760.13
548.03	41565.57
548.23	41553.29
548.44	41514.37
548.64	42018.17
548.84	41706.88
549.04	41792.90
549.24	42358.14
549.45	42513.78
549.65	41985.41
549.85	42124.67
550.05	42491.26
550.25	42282.36
550.45	42530.17
550.66	42524.02
550.86	42196.35
551.06	42999.15
551.26	42569.08
551.46	42571.13
551.66	42478.97
551.87	42478.97
552.07	42519.93
552.27	42956.14
552.47	42483.06
552.67	42976.62
552.87	42749.30
553.07	42927.47
553.28	43269.48
553.48	42911.09
553.68	42997.10
553.88	43388.27
554.08	42956.14
554.28	43421.03
554.48	43074.93
554.69	43560.30
554.89	44049.76
555.09	43537.77
555.29	43179.37
555.49	43513.19
555.69	43498.86
555.89	43509.10
556.10	43666.79
556.30	43705.70
556.50	44012.90
556.70	43896.16
556.90	44240.22
557.10	43935.07
557.30	43986.27
557.50	44201.31
557.70	44549.46
557.91	44250.46
558.11	44277.08
558.31	44387.67
558.51	43840.87
558.71	44160.35
558.91	44318.04
559.11	44330.33
559.31	44471.64
559.51	44057.95
559.72	44496.22
559.92	45057.36
560.12	44197.21
560.32	44440.92
560.52	44574.04
560.72	44905.81
560.92	45063.50
561.12	44817.75
561.32	45288.78
561.52	45096.27
561.72	45008.21
561.93	45176.14
562.13	45065.55
562.33	44858.71
562.53	45593.93
562.73	45102.42
562.93	45004.11
563.13	45184.33
563.33	45194.57
563.53	45794.63
563.73	45172.05
563.93	45282.64
564.13	46189.89
564.33	45716.81
564.53	45309.26
564.74	45761.86
564.94	45159.76
565.14	45864.26
565.34	45221.20
565.54	45679.94
565.74	45966.66
565.94	45833.54
566.14	45735.24
566.34	45612.36
566.54	46089.54
566.74	45665.61
566.94	46036.29
567.14	46253.37
567.34	45952.32
567.54	46017.86
567.74	45880.64
567.94	46277.95
568.14	46525.75
568.34	46320.96
568.54	46009.67
568.74	46470.46
568.94	46179.65
569.14	46638.39
569.34	46331.20
569.54	46830.90
569.75	46105.92
569.95	46288.19
570.15	47123.76
570.35	46535.99
570.55	46890.29
570.75	46843.19
570.95	46961.97
571.15	47029.55
571.35	46925.11
571.55	47017.27
571.75	46634.30
571.95	47289.65
572.15	46845.24
572.35	47340.85
572.55	47279.41
572.75	47322.41
572.95	47004.98
573.15	47338.80
573.35	46966.07
573.55	47117.62
573.75	47035.70
573.95	48049.44
574.15	47209.78
574.35	47199.54
574.55	47580.46
574.75	47682.86
574.95	47764.78
575.15	47596.84
575.34	47654.18
575.54	48010.53
575.74	47797.54
575.94	48094.50
576.14	47725.86
576.34	48340.25
576.54	48463.13
576.74	48362.78
576.94	48203.04
577.14	48160.03
577.34	48340.25
577.54	47951.14
577.74	48170.27
577.94	48434.46
578.14	48399.65
578.34	48629.02
578.54	47932.71
578.74	48090.40
578.94	48749.85
579.14	48092.45
579.34	49001.75
579.54	48567.58
579.74	48831.77
579.94	48917.78
580.13	49397.01
580.33	49104.15
580.53	49130.77
580.73	48950.55
580.93	49151.25
581.13	49038.61
581.33	49255.70
581.53	49171.73
581.73	49526.03
581.93	49566.99
582.13	49435.92
582.33	49513.74
582.53	49591.56
582.73	49632.52
582.92	49591.56
583.12	49949.96
583.32	49698.06
583.52	49669.39
583.72	49800.46
583.92	49859.85
584.12	49810.70
584.32	50461.95
584.52	50388.22
584.72	50187.52
584.92	50349.31
585.11	50713.85
585.31	50205.95
585.51	50590.97
585.71	50593.02
585.91	51004.66
586.11	50758.91
586.31	50765.05
586.51	50298.11
586.71	50644.22
586.91	50945.27
587.10	50988.28
587.30	51053.81
587.50	51160.31
587.70	51219.70
587.90	50861.30
588.10	51023.09
588.30	50975.99
588.50	51346.67
