SpectraSuite Data File
++++++++++++++++++++++++++++++++++++
Date: Fri Jun 02 14:44:36 CEST 2017
User: INFO_000
Dark Spectrum Present: No
Reference Spectrum Present: No
Number of Sampled Component Spectra: 1
Spectrometers: USB4H00879
Integration Time (usec): 80000 (USB4H00879)
Spectra Averaged: 1 (USB4H00879)
Boxcar Smoothing: 0 (USB4H00879)
Correct for Electrical Dark: No (USB4H00879)
Strobe/Lamp Enabled: No (USB4H00879)
Correct for Detector Non-linearity: No (USB4H00879)
Correct for Stray Light: No (USB4H00879)
Number of Pixels in Processed Spectrum: 3648
>>>>>Begin Processed Spectral Data<<<<<
345.13	1275.88
345.34	1275.88
345.56	1275.88
345.78	1269.74
345.99	1259.50
346.21	1683.43
346.42	1675.24
346.64	1687.53
346.86	1808.36
347.07	1748.97
347.29	1660.90
347.50	1548.26
347.72	1638.38
347.94	1681.38
348.15	1607.66
348.37	1617.90
348.59	1671.14
348.80	1617.90
349.02	1740.77
349.23	1834.98
349.45	1810.40
349.67	1880.04
349.88	1871.84
350.10	1867.75
350.31	1847.27
350.53	1871.84
350.75	1988.58
350.96	1820.64
351.18	1867.75
351.39	1857.51
351.61	1798.12
351.82	1865.70
352.04	1849.32
352.26	1843.17
352.47	1910.75
352.69	1906.66
352.90	1830.88
353.12	1843.17
353.34	1847.27
353.55	1978.34
353.77	1904.61
353.98	1791.97
354.20	1830.88
354.41	1861.60
354.63	1902.56
354.85	2072.54
355.06	1896.42
355.28	1789.92
355.49	1935.33
355.71	1863.65
355.92	1884.13
356.14	1943.52
356.35	1933.28
356.57	1830.88
356.79	1970.15
357.00	1845.22
357.22	1961.95
357.43	1927.14
357.65	1984.48
357.86	1853.41
358.08	1875.94
358.29	2035.68
358.51	1947.62
358.72	2041.82
358.94	1912.80
359.16	1912.80
359.37	1941.47
359.59	1970.15
359.80	1957.86
360.02	1920.99
360.23	1957.86
360.45	1980.39
360.66	1931.23
360.88	1894.37
361.09	1923.04
361.31	1935.33
361.52	2011.11
361.74	2035.68
361.95	2062.30
362.17	1916.90
362.38	1976.29
362.60	2027.49
362.81	1970.15
363.03	2041.82
363.24	1943.52
363.46	2072.54
363.67	2023.39
363.89	2056.16
364.10	2009.06
364.32	1998.82
364.53	2019.30
364.75	1900.52
364.96	2076.64
365.18	1986.53
365.39	1945.57
365.61	2002.91
365.82	2117.60
366.04	2093.02
366.25	2015.20
366.47	2058.21
366.68	2027.49
366.90	1912.80
367.11	2156.51
367.33	2033.63
367.54	2076.64
367.76	2037.73
367.97	2027.49
368.19	2066.40
368.40	2101.22
368.62	1888.23
368.83	1906.66
369.05	2078.69
369.26	2047.97
369.48	1992.67
369.69	1947.62
369.91	2078.69
370.12	2021.35
370.33	2129.89
370.55	1953.76
370.76	2084.83
370.98	2093.02
371.19	2007.01
371.41	2068.45
371.62	2086.88
371.84	2000.87
372.05	2170.85
372.27	2050.02
372.48	2099.17
372.69	2107.36
372.91	2207.71
373.12	2166.75
373.34	2179.04
373.55	2158.56
373.77	2172.89
373.98	2121.70
374.20	2185.18
374.41	2338.78
374.62	2166.75
374.84	2183.13
375.05	2183.13
375.27	2090.98
375.48	2127.84
375.70	2164.70
375.91	2215.90
376.12	2308.06
376.34	2123.74
376.55	2183.13
376.77	2256.86
376.98	2174.94
377.19	2146.27
377.41	2142.18
377.62	2191.33
377.84	2215.90
378.05	2396.12
378.27	2199.52
378.48	2275.29
378.69	2342.88
378.91	2346.97
379.12	2281.44
379.34	2224.09
379.55	2220.00
379.76	2256.86
379.98	2146.27
380.19	2162.66
380.41	2217.95
380.62	2279.39
380.83	2246.62
381.05	2160.61
381.26	2398.17
381.47	2306.01
381.69	2256.86
381.90	2316.25
382.12	2336.73
382.33	2369.50
382.54	2213.85
382.76	2330.59
382.97	2297.82
383.19	2383.84
383.40	2242.53
383.61	2336.73
383.83	2283.49
384.04	2385.88
384.25	2420.70
384.47	2400.22
384.68	2432.99
384.89	2373.60
385.11	2418.65
385.32	2242.53
385.54	2322.40
385.75	2344.92
385.96	2416.60
386.18	2408.41
386.39	2408.41
386.60	2303.96
386.82	2527.19
387.03	2447.32
387.24	2453.47
387.46	2478.04
387.67	2426.84
387.88	2576.34
388.10	2539.48
388.31	2541.53
388.52	2602.97
388.74	2506.71
388.95	2420.70
389.16	2537.43
389.38	2443.23
389.59	2588.63
389.80	2592.73
390.02	2582.49
390.23	2645.98
390.44	2541.53
390.66	2592.73
390.87	2529.24
391.08	2619.35
391.30	2648.02
391.51	2629.59
391.72	2600.92
391.94	2643.93
392.15	2645.98
392.36	2609.11
392.58	2566.10
392.79	2625.50
393.00	2662.36
393.22	2703.32
393.43	2785.24
393.64	2725.85
393.85	2756.57
394.07	2734.04
394.28	2734.04
394.49	2799.57
394.71	2748.37
394.92	2799.57
395.13	2721.75
395.35	2715.61
395.56	2762.71
395.77	2770.90
395.98	2869.20
396.20	2910.16
396.41	2766.81
396.62	2914.26
396.84	2748.37
397.05	2852.82
397.26	2963.41
397.47	2901.97
397.69	2920.40
397.90	3008.47
398.11	2936.79
398.32	2932.69
398.54	2928.60
398.75	2824.15
398.96	2875.35
399.18	3028.95
399.39	2947.03
399.60	3022.80
399.81	2969.55
400.03	2918.36
400.24	3321.81
400.45	2969.55
400.66	3184.59
400.88	2967.51
401.09	3084.24
401.30	3018.71
401.51	3153.87
401.73	3076.05
401.94	3061.71
402.15	3086.29
402.36	3020.75
402.58	3178.45
402.79	3131.34
403.00	3243.98
403.21	3121.10
403.43	3182.54
403.64	3272.65
403.85	3164.11
404.06	3237.84
404.27	3117.01
404.49	3184.59
404.70	3225.55
404.91	3246.03
405.12	3256.27
405.34	3215.31
405.55	3487.69
405.76	3151.82
405.97	3223.50
406.19	3307.47
406.40	3229.65
406.61	3305.42
406.82	3356.62
407.03	3403.72
407.25	3362.76
407.46	3424.20
407.67	3436.49
407.88	3534.79
408.09	3360.72
408.31	3207.12
408.52	3483.59
408.73	3448.78
408.94	3407.82
409.15	3377.10
409.37	3557.32
409.58	3448.78
409.79	3561.42
410.00	3567.56
410.21	3463.12
410.43	3489.74
410.64	3436.49
410.85	3672.01
411.06	3536.84
411.27	3612.62
411.48	3626.95
411.70	3581.90
411.91	3719.11
412.12	3725.26
412.33	3596.23
412.54	3690.44
412.76	3641.29
412.97	3749.83
413.18	3510.22
413.39	3682.25
413.60	3766.21
413.81	3723.21
414.03	3657.67
414.24	3690.44
414.45	3788.74
414.66	3629.00
414.87	3772.36
415.08	3659.72
415.30	3739.59
415.51	3835.85
415.72	3620.81
415.93	3762.12
416.14	3848.13
416.35	3803.08
416.56	3848.13
416.78	3882.95
416.99	3841.99
417.20	3907.52
417.41	3796.93
417.62	3831.75
417.83	3944.39
418.04	3989.44
418.26	3962.82
418.47	3870.66
418.68	3932.10
418.89	3907.52
419.10	4095.94
419.31	4079.55
419.52	4052.93
419.73	4085.70
419.95	4083.65
420.16	4044.74
420.37	4034.50
420.58	4196.29
420.79	4071.36
421.00	4104.13
421.21	4032.45
421.42	4071.36
421.63	4140.99
421.85	4253.63
422.06	4190.14
422.27	4106.18
422.48	4132.80
422.69	4325.31
422.90	4284.35
423.11	4196.29
423.32	4267.97
423.53	4200.38
423.75	4329.41
423.96	4493.24
424.17	4376.51
424.38	4444.09
424.59	4571.07
424.80	4483.00
425.01	4474.81
425.22	4362.17
425.43	4519.87
425.64	4722.62
425.85	4618.17
426.06	4784.06
426.28	4655.03
426.49	4413.37
426.70	4470.72
426.91	4636.60
427.12	4622.27
427.33	4556.73
427.54	4587.45
427.75	4698.04
427.96	4874.17
428.17	4679.61
428.38	4859.83
428.59	4796.34
428.80	4741.05
429.01	4878.26
429.23	4698.04
429.44	4923.32
429.65	4724.66
429.86	4999.09
430.07	4837.30
430.28	4743.10
430.49	4911.03
430.70	5083.06
430.91	5087.15
431.12	4878.26
431.33	5103.54
431.54	5261.23
431.75	5042.10
431.96	5058.48
432.17	5003.19
432.38	5111.73
432.59	5304.24
432.80	5382.06
433.01	5306.29
433.22	5328.81
433.43	5326.77
433.64	5277.62
433.85	5138.35
434.06	5365.68
434.27	5269.42
434.49	5406.64
434.70	5543.85
434.91	5443.50
435.12	5613.48
435.33	5435.31
435.54	5574.57
435.75	5287.86
435.96	5377.97
436.17	5506.99
436.38	5726.12
436.59	5607.34
436.80	5513.13
437.01	5859.24
437.22	5867.43
437.43	5779.37
437.64	5427.12
437.85	5924.77
438.06	5836.71
438.27	5726.12
438.48	5750.70
438.69	5916.58
438.90	5881.77
439.11	5719.98
439.32	5939.11
439.53	5920.68
439.74	5824.42
439.95	5961.64
440.16	5926.82
440.37	6037.41
440.57	5937.06
440.78	6145.95
440.99	6082.47
441.20	6090.66
441.41	5898.15
441.62	5967.78
441.83	5943.21
442.04	6152.10
442.25	6315.94
442.46	6137.76
442.67	6301.60
442.88	6541.21
443.09	6109.09
443.30	6223.78
443.51	6287.26
443.72	6743.96
443.93	6326.18
444.14	6586.27
444.35	6242.21
444.56	6406.05
444.77	6410.14
444.98	6334.37
445.19	6426.53
445.40	6324.13
445.61	6533.02
445.81	6721.43
446.02	6557.60
446.23	6506.40
446.44	6326.18
446.65	6473.63
446.86	6590.36
447.07	6639.51
447.28	6739.87
447.49	6500.25
447.70	6698.91
447.91	6778.78
448.12	6528.92
448.33	6750.10
448.54	6840.22
448.74	6803.35
448.95	6670.23
449.16	6784.92
449.37	6975.38
449.58	6895.51
449.79	7034.77
450.00	6793.11
450.21	6926.23
450.42	6928.28
450.63	7139.22
450.84	6975.38
451.05	7073.68
451.25	7104.40
451.46	6915.99
451.67	7165.84
451.88	7212.95
452.09	7325.58
452.30	7169.94
452.51	7063.44
452.72	7200.66
452.93	7552.91
453.13	7171.99
453.34	7159.70
453.55	7198.61
453.76	7376.78
453.97	7462.80
454.18	7473.04
454.39	7423.89
454.60	7557.00
454.81	7483.28
455.01	7686.03
455.22	7360.40
455.43	7524.24
455.64	7722.89
455.85	7911.30
456.06	8019.85
456.27	7788.43
456.48	7708.55
456.68	7724.94
456.89	7872.39
457.10	7937.93
457.31	8019.85
457.52	7831.43
457.73	7917.45
457.94	8157.06
458.14	7968.65
458.35	8370.05
458.56	7999.37
458.77	8009.61
458.98	8394.62
459.19	8175.49
459.39	8257.41
459.60	8429.44
459.81	8331.14
460.02	8619.90
460.23	8443.78
460.44	8636.28
460.65	8628.09
460.85	8611.71
461.06	8675.20
461.27	8388.48
461.48	9037.69
461.69	8978.30
461.89	8712.06
462.10	8859.51
462.31	8679.29
462.52	8908.66
462.73	9072.50
462.94	9291.63
463.14	9148.28
463.35	8884.09
463.56	9402.22
463.77	9217.91
463.98	9414.51
464.18	9260.91
464.39	9600.88
464.60	9756.52
464.81	9441.14
465.02	9664.36
465.23	9834.35
465.43	9619.31
465.64	9860.97
465.85	9789.29
466.06	9588.59
466.27	10194.79
466.47	10143.59
466.68	10162.02
466.89	10139.49
467.10	10108.77
467.30	10110.82
467.51	10377.06
467.72	10436.45
467.93	10274.66
468.14	10624.86
468.34	10706.78
468.55	10538.85
468.76	10712.92
468.97	10411.87
469.17	10690.40
469.38	10899.29
469.59	11038.55
469.80	10674.01
470.01	10968.92
470.21	11026.26
470.42	11386.71
470.63	11341.65
470.84	11140.95
471.04	11308.88
471.25	11587.41
471.46	11519.82
471.67	11710.29
471.87	11669.33
472.08	11661.13
472.29	12126.02
472.50	11628.37
472.70	11974.47
472.91	12037.96
473.12	12078.92
473.33	12080.97
473.53	12197.70
473.74	12238.66
473.95	12459.84
474.16	12615.49
474.36	12541.76
474.57	12808.00
474.78	12848.96
474.99	12808.00
475.19	12826.43
475.40	13160.25
475.61	13276.98
475.81	13301.56
476.02	13403.96
476.23	13334.32
476.44	13315.89
476.64	13602.61
476.85	13791.02
477.06	13780.78
477.27	14004.01
477.47	14255.91
477.68	14004.01
477.89	14284.58
478.09	14145.32
478.30	14176.04
478.51	14176.04
478.71	14561.06
478.92	14456.61
479.13	14677.79
479.34	14706.46
479.54	14784.29
479.75	14808.86
479.96	14835.49
480.16	14886.68
480.37	14966.56
480.58	15191.83
480.78	15496.98
480.99	15488.79
481.20	15451.92
481.41	15494.93
481.61	15761.17
481.82	15736.59
482.03	15699.73
482.23	15585.04
482.44	15894.29
482.65	16127.75
482.85	16258.82
483.06	16338.69
483.27	16334.60
483.47	16131.85
483.68	16332.55
483.89	16674.56
484.09	16381.70
484.30	16750.34
484.51	16774.91
484.71	16994.04
484.92	16979.71
485.13	16940.80
485.33	17166.07
485.54	16975.61
485.75	17385.21
485.95	17559.28
486.16	17460.98
486.37	17583.86
486.57	17708.79
486.78	17778.42
486.98	17829.62
487.19	17923.82
487.40	18122.48
487.60	18071.28
487.81	18376.42
488.02	18110.19
488.22	18216.68
488.43	18333.42
488.64	18362.09
488.84	18527.97
489.05	18872.03
489.25	18734.82
489.46	18953.95
489.67	18812.64
489.87	18929.38
490.08	18958.05
490.29	18996.96
490.49	19388.12
490.70	19539.67
490.90	19566.29
491.11	19519.19
491.32	19586.77
491.52	19457.75
491.73	19523.29
491.94	19699.41
492.14	19701.46
492.35	20008.65
492.55	19838.67
492.76	20289.23
492.97	20307.66
493.17	20199.12
493.38	20477.64
493.58	20512.46
493.79	20598.47
494.00	20467.40
494.20	20545.22
494.41	20926.14
494.61	21020.35
494.82	20844.23
495.02	20842.18
495.23	21010.11
495.44	21327.55
495.64	21159.61
495.85	21126.85
496.05	21335.74
496.26	21333.69
496.47	22087.34
496.67	21388.99
496.88	21980.85
497.08	21620.41
497.29	21986.99
497.49	21806.77
497.70	22152.88
497.91	22093.49
498.11	22396.59
498.32	22322.86
498.52	22498.98
498.73	22765.22
498.93	22679.21
499.14	22935.20
499.34	22714.02
499.55	23060.13
499.76	22771.36
499.96	23076.51
500.17	22924.96
500.37	22957.73
500.58	23041.70
500.78	23269.02
500.99	23469.72
501.19	23707.29
501.40	23514.78
501.60	23520.92
501.81	23740.05
502.02	23643.80
502.22	23789.20
502.43	24067.73
502.63	24227.47
502.84	24585.86
503.04	24313.48
503.25	24293.01
503.45	24424.08
503.66	24512.14
503.86	24598.15
504.07	24733.32
504.27	24383.12
504.48	25251.45
504.68	25030.27
504.89	25167.49
505.09	25206.40
505.30	24956.55
505.50	25349.76
505.71	25351.81
505.91	25572.99
506.12	25407.10
506.32	25478.78
506.53	25491.07
506.73	25581.18
506.94	25622.14
507.14	25792.12
507.35	25902.71
507.55	25951.86
507.76	25773.69
507.96	26089.07
508.17	26119.79
508.37	26281.58
508.58	26234.48
508.78	26588.78
508.99	26519.15
509.19	26521.20
509.40	26611.31
509.60	26818.15
509.81	27006.56
510.01	26373.74
510.22	26685.03
510.42	26998.37
510.63	26877.54
510.83	27070.05
511.04	27100.77
511.24	27166.31
511.44	27428.45
511.65	27264.61
511.85	27141.73
512.06	27319.90
512.26	27500.12
512.47	27504.22
512.67	27612.76
512.88	27442.78
513.08	27410.01
513.29	27881.05
513.49	27614.81
513.69	27721.30
513.90	27764.31
514.10	27745.88
514.31	27965.01
514.51	28034.64
514.72	27995.73
514.92	28077.65
515.13	28399.18
515.33	28517.96
515.53	28370.51
515.74	28556.88
515.94	28644.94
516.15	28919.37
516.35	28792.39
516.56	28423.76
516.76	28153.43
516.96	28595.79
517.17	28495.44
517.37	28966.47
517.58	28821.06
517.78	29044.29
517.99	29138.50
518.19	28995.14
518.39	29378.11
518.60	29236.80
518.80	29132.36
519.01	29249.09
519.21	29111.88
519.41	29222.47
519.62	29126.21
519.82	29468.22
520.03	29392.45
520.23	29668.92
520.43	29165.12
520.64	29775.42
520.84	29548.09
521.05	29644.35
521.25	29853.24
521.45	29851.19
521.66	30049.85
521.86	29894.20
522.07	30242.35
522.27	30262.83
522.47	29972.02
522.68	30338.61
522.88	30346.80
523.08	30076.47
523.29	30449.20
523.49	30371.38
523.70	30565.93
523.90	30713.39
524.10	30551.60
524.31	31034.92
524.51	30643.76
524.71	31149.60
524.92	31211.04
525.12	31241.76
525.33	30694.96
525.53	31063.59
525.73	31225.38
525.94	31194.66
526.14	31358.50
526.34	31268.39
526.55	31559.20
526.75	31381.03
526.95	31659.55
527.16	31913.50
527.36	31401.50
527.56	31897.11
527.77	32009.75
527.97	32034.33
528.17	31741.47
528.38	32202.26
528.58	32114.20
528.78	32245.27
528.99	32093.72
529.19	32505.36
529.39	32308.76
529.60	32509.46
529.80	32425.49
530.00	32402.96
530.21	32724.49
530.41	32783.88
530.61	32912.91
530.82	33015.30
531.02	32966.15
531.22	33222.15
531.43	33254.92
531.63	33115.65
531.83	33234.44
532.04	33885.69
532.24	33213.96
532.44	33723.90
532.64	33443.33
532.85	33629.69
533.05	33893.88
533.25	33828.35
533.46	33670.65
533.66	34395.64
533.86	33938.94
534.07	34360.82
534.27	34119.16
534.47	34534.90
534.67	34217.46
534.88	34645.49
535.08	34512.37
535.28	35026.41
535.49	34967.02
535.69	35286.50
535.89	35227.11
536.09	34903.53
536.30	35399.14
536.50	35190.25
536.70	35511.78
536.91	35393.00
537.11	35657.18
537.31	35673.57
537.51	35638.75
537.72	35958.24
537.92	36091.35
538.12	36312.53
538.32	36451.80
538.53	36214.23
538.73	36136.41
538.93	36435.41
539.13	36132.31
539.34	36455.89
539.54	36476.37
539.74	36732.37
539.94	36615.63
540.15	37062.09
540.35	37266.89
540.55	37361.09
540.75	37146.06
540.96	37041.61
541.16	37135.82
541.36	37416.39
541.56	37449.16
541.77	37656.00
541.97	37533.12
542.17	37907.90
542.37	37950.91
542.58	37885.37
542.78	37496.26
542.98	37866.94
543.18	38096.31
543.38	38366.65
543.59	38389.17
543.79	38303.16
543.99	38864.30
544.19	38442.42
544.40	38567.35
544.60	39421.35
544.80	38639.03
545.00	39308.71
545.20	39202.22
545.41	38899.12
545.61	39163.31
545.81	39142.83
546.01	39517.60
546.21	39228.84
546.42	38974.89
546.62	39511.46
546.82	39753.12
547.02	39540.13
547.22	39886.24
547.43	39515.56
547.63	40125.85
547.83	39878.05
548.03	39820.70
548.23	40168.86
548.44	40154.52
548.64	40334.74
548.84	40398.23
549.04	40379.80
549.24	40924.56
549.45	41112.97
549.65	40502.68
549.85	41246.09
550.05	40895.89
550.25	41123.21
550.45	41479.56
550.66	41229.71
550.86	41045.39
551.06	41287.05
551.26	41469.32
551.46	41659.78
551.66	41313.67
551.87	41602.44
552.07	41868.67
552.27	41653.64
552.47	42014.08
552.67	41969.02
552.87	42022.27
553.07	42204.54
553.28	42243.45
553.48	42407.29
553.68	42036.61
553.88	42345.85
554.08	42501.50
554.28	42397.05
554.48	42143.10
554.69	42376.57
554.89	42372.47
555.09	42055.04
555.29	42220.92
555.49	42595.70
555.69	43036.02
555.89	42607.99
556.10	42933.62
556.30	42933.62
556.50	43070.83
556.70	42845.55
556.90	43271.53
557.10	43302.25
557.30	43251.05
557.50	43357.55
557.70	43279.72
557.91	43580.78
558.11	43271.53
558.31	43758.95
558.51	43478.38
558.71	43531.62
558.91	43543.91
559.11	43332.97
559.31	43488.62
559.51	43425.13
559.72	43832.68
559.92	43914.59
560.12	43355.50
560.32	44174.69
560.52	44021.09
560.72	44103.01
560.92	44213.60
561.12	43459.94
561.32	44258.65
561.52	43840.87
561.72	44598.62
561.93	44094.82
562.13	44211.55
562.33	43971.94
562.53	44383.58
562.73	43957.60
562.93	44590.42
563.13	44305.76
563.33	44191.07
563.53	44504.41
563.73	43902.31
563.93	44381.53
564.13	45004.11
564.33	44279.13
564.53	44457.31
564.74	44815.70
564.94	44027.23
565.14	44651.86
565.34	44232.03
565.54	44643.67
565.74	44741.97
565.94	45509.96
566.14	44698.97
566.34	44793.17
566.54	44891.48
566.74	44676.44
566.94	44713.30
567.14	45147.47
567.34	44471.64
567.54	44817.75
567.74	44586.33
567.94	44533.08
568.14	45204.81
568.34	44660.05
568.54	44991.83
568.74	44930.39
568.94	45094.22
569.14	45374.80
569.34	44940.63
569.54	45036.88
569.75	45251.92
569.95	45317.45
570.15	45579.59
570.35	44774.74
570.55	45126.99
570.75	45161.81
570.95	45219.15
571.15	45206.86
571.35	45311.31
571.55	45548.87
571.75	45524.30
571.95	45170.00
572.15	44854.61
572.35	45561.16
572.55	45151.57
572.75	45626.70
572.95	45796.68
573.15	45190.48
573.35	45333.84
573.55	45167.95
573.75	45868.36
573.95	45501.77
574.15	45460.81
574.35	45464.91
574.55	45440.33
574.75	45423.95
574.95	45542.73
575.15	45231.44
575.34	45860.16
575.54	45794.63
575.74	45858.12
575.94	45610.31
576.14	45528.39
576.34	46228.80
576.54	46142.78
576.74	45878.60
576.94	45655.37
577.14	46052.67
577.34	46097.73
577.54	46036.29
577.74	45854.02
577.94	46236.99
578.14	46171.46
578.34	46535.99
578.54	45671.75
578.74	46191.94
578.94	46118.21
579.14	46032.19
579.34	46511.42
579.54	46419.26
579.74	46673.21
579.94	46497.08
580.13	46503.23
580.33	46456.12
580.53	46812.47
580.73	46851.38
580.93	46585.15
581.13	46492.99
581.33	46875.96
581.53	46689.59
581.73	46497.08
581.93	46959.92
582.13	46902.58
582.33	46906.68
582.53	47189.30
582.73	46873.91
582.92	46941.49
583.12	47314.22
583.32	46964.02
583.52	46697.78
583.72	47054.13
583.92	47447.34
584.12	47238.45
584.32	47777.06
584.52	47654.18
584.72	47467.82
584.92	47535.40
585.11	47580.46
585.31	47895.85
585.51	47658.28
585.71	47822.12
585.91	48239.90
586.11	47879.46
586.31	47899.94
586.51	47502.64
586.71	47959.33
586.91	48792.86
587.10	48366.88
587.30	47830.31
587.50	48203.04
587.70	48153.89
587.90	48633.11
588.10	48524.57
588.30	48577.82
588.50	48551.20
