SpectraSuite Data File
++++++++++++++++++++++++++++++++++++
Date: Fri Jun 02 14:44:33 CEST 2017
User: INFO_000
Dark Spectrum Present: No
Reference Spectrum Present: No
Number of Sampled Component Spectra: 1
Spectrometers: USB4H00879
Integration Time (usec): 80000 (USB4H00879)
Spectra Averaged: 1 (USB4H00879)
Boxcar Smoothing: 0 (USB4H00879)
Correct for Electrical Dark: No (USB4H00879)
Strobe/Lamp Enabled: No (USB4H00879)
Correct for Detector Non-linearity: No (USB4H00879)
Correct for Stray Light: No (USB4H00879)
Number of Pixels in Processed Spectrum: 3648
>>>>>Begin Processed Spectral Data<<<<<
345.13	1267.69
345.34	1267.69
345.56	1267.69
345.78	1314.80
345.99	1370.09
346.21	1708.01
346.42	1691.62
346.64	1646.57
346.86	1794.02
347.07	1675.24
347.29	1722.34
347.50	1617.90
347.72	1660.90
347.94	1728.49
348.15	1591.27
348.37	1597.42
348.59	1658.85
348.80	1679.33
349.02	1791.97
349.23	1914.85
349.45	1738.73
349.67	1847.27
349.88	1808.36
350.10	1935.33
350.31	1849.32
350.53	1824.74
350.75	1927.14
350.96	1796.07
351.18	1869.80
351.39	1806.31
351.61	1804.26
351.82	1884.13
352.04	1914.85
352.26	1847.27
352.47	1945.57
352.69	1900.52
352.90	1841.12
353.12	1900.52
353.34	1804.26
353.55	1847.27
353.77	1820.64
353.98	1869.80
354.20	1863.65
354.41	1890.28
354.63	1871.84
354.85	1964.00
355.06	1953.76
355.28	1787.88
355.49	1757.16
355.71	1861.60
355.92	1802.21
356.14	1849.32
356.35	1937.38
356.57	1867.75
356.79	1859.56
357.00	1826.79
357.22	2004.96
357.43	1877.99
357.65	2019.30
357.86	1898.47
358.08	1863.65
358.29	1925.09
358.51	2027.49
358.72	1982.43
358.94	1884.13
359.16	1943.52
359.37	1955.81
359.59	1939.43
359.80	1929.19
360.02	1923.04
360.23	1970.15
360.45	1984.48
360.66	2050.02
360.88	1851.36
361.09	1861.60
361.31	2025.44
361.52	1927.14
361.74	2095.07
361.95	2041.82
362.17	1937.38
362.38	2086.88
362.60	2021.35
362.81	1959.91
363.03	1865.70
363.24	2011.11
363.46	2082.78
363.67	2023.39
363.89	1990.63
364.10	1935.33
364.32	1929.19
364.53	2050.02
364.75	1906.66
364.96	2017.25
365.18	1988.58
365.39	1980.39
365.61	1982.43
365.82	2129.89
366.04	2074.59
366.25	2002.91
366.47	1990.63
366.68	2023.39
366.90	2019.30
367.11	2109.41
367.33	2148.32
367.54	2060.26
367.76	2056.16
367.97	2047.97
368.19	2078.69
368.40	2062.30
368.62	1980.39
368.83	1943.52
369.05	2054.11
369.26	1980.39
369.48	1953.76
369.69	2025.44
369.91	2123.74
370.12	2004.96
370.33	2080.74
370.55	1972.19
370.76	2052.06
370.98	2097.12
371.19	2047.97
371.41	2013.15
371.62	2017.25
371.84	1986.53
372.05	2197.47
372.27	2033.63
372.48	2107.36
372.69	2119.65
372.91	2142.18
373.12	2097.12
373.34	2113.50
373.55	2027.49
373.77	2107.36
373.98	2136.03
374.20	2101.22
374.41	2260.96
374.62	2156.51
374.84	2230.24
375.05	2088.93
375.27	2205.66
375.48	2256.86
375.70	2224.09
375.91	2170.85
376.12	2310.11
376.34	2119.65
376.55	2185.18
376.77	2236.38
376.98	2191.33
377.19	2115.55
377.41	2119.65
377.62	2201.57
377.84	2238.43
378.05	2269.15
378.27	2121.70
378.48	2260.96
378.69	2314.20
378.91	2283.49
379.12	2181.09
379.34	2183.13
379.55	2254.81
379.76	2252.77
379.98	2238.43
380.19	2199.52
380.41	2246.62
380.62	2342.88
380.83	2187.23
381.05	2254.81
381.26	2465.75
381.47	2213.85
381.69	2244.57
381.90	2418.65
382.12	2263.01
382.33	2277.34
382.54	2385.88
382.76	2295.77
382.97	2265.05
383.19	2260.96
383.40	2375.64
383.61	2232.29
383.83	2316.25
384.04	2338.78
384.25	2387.93
384.47	2416.60
384.68	2303.96
384.89	2332.64
385.11	2310.11
385.32	2346.97
385.54	2457.56
385.75	2418.65
385.96	2389.98
386.18	2422.75
386.39	2420.70
386.60	2338.78
386.82	2432.99
387.03	2400.22
387.24	2486.23
387.46	2506.71
387.67	2549.72
387.88	2559.96
388.10	2527.19
388.31	2435.03
388.52	2613.21
388.74	2531.29
388.95	2537.43
389.16	2535.39
389.38	2533.34
389.59	2629.59
389.80	2660.31
390.02	2590.68
390.23	2590.68
390.44	2588.63
390.66	2478.04
390.87	2506.71
391.08	2576.34
391.30	2713.56
391.51	2605.02
391.72	2672.60
391.94	2666.46
392.15	2709.46
392.36	2572.25
392.58	2557.91
392.79	2619.35
393.00	2723.80
393.22	2684.89
393.43	2844.63
393.64	2871.25
393.85	2750.42
394.07	2676.70
394.28	2772.95
394.49	2729.94
394.71	2752.47
394.92	2813.91
395.13	2674.65
395.35	2723.80
395.56	2713.56
395.77	2856.92
395.98	2811.86
396.20	2877.40
396.41	2906.07
396.62	2852.82
396.84	2848.72
397.05	2760.66
397.26	2838.48
397.47	3020.75
397.69	2873.30
397.90	2973.65
398.11	2963.41
398.32	2856.92
398.54	2813.91
398.75	2830.29
398.96	2912.21
399.18	2961.36
399.39	3012.56
399.60	3008.47
399.81	2944.98
400.03	2877.40
400.24	3295.18
400.45	3037.14
400.66	3043.28
400.88	2975.70
401.09	3184.59
401.30	2969.55
401.51	3141.58
401.73	3067.86
401.94	3104.72
402.15	3108.82
402.36	3147.73
402.58	3147.73
402.79	3153.87
403.00	3106.77
403.21	3270.61
403.43	3162.06
403.64	3243.98
403.85	3026.90
404.06	3211.22
404.27	3200.98
404.49	3229.65
404.70	3149.78
404.91	3227.60
405.12	3157.97
405.34	3252.17
405.55	3391.44
405.76	3125.20
405.97	3186.64
406.19	3305.42
406.40	3221.45
406.61	3246.03
406.82	3426.25
407.03	3295.18
407.25	3301.33
407.46	3448.78
407.67	3465.16
407.88	3524.55
408.09	3383.24
408.31	3428.30
408.52	3418.06
408.73	3452.88
408.94	3428.30
409.15	3483.59
409.37	3508.17
409.58	3477.45
409.79	3598.28
410.00	3530.70
410.21	3518.41
410.43	3510.22
410.64	3469.26
410.85	3553.23
411.06	3416.01
411.27	3475.40
411.48	3579.85
411.70	3643.34
411.91	3686.34
412.12	3643.34
412.33	3649.48
412.54	3684.30
412.76	3629.00
412.97	3774.41
413.18	3530.70
413.39	3698.63
413.60	3620.81
413.81	3678.15
414.03	3669.96
414.24	3651.53
414.45	3897.28
414.66	3801.03
414.87	3772.36
415.08	3647.43
415.30	3739.59
415.51	3823.56
415.72	3751.88
415.93	3772.36
416.14	3762.12
416.35	3770.31
416.56	3837.89
416.78	3862.47
416.99	3878.85
417.20	3878.85
417.41	3975.11
417.62	3958.72
417.83	4007.87
418.04	3889.09
418.26	3993.54
418.47	3887.04
418.68	4007.87
418.89	4011.97
419.10	4102.08
419.31	4040.64
419.52	4095.94
419.73	3975.11
419.95	4149.18
420.16	3981.25
420.37	3987.40
420.58	4030.40
420.79	3815.37
421.00	4110.27
421.21	4163.52
421.42	3985.35
421.63	4184.00
421.85	4124.61
422.06	4227.01
422.27	4188.10
422.48	4198.34
422.69	4353.98
422.90	4241.34
423.11	4140.99
423.32	4155.33
423.53	4233.15
423.75	4409.28
423.96	4448.19
424.17	4353.98
424.38	4431.80
424.59	4440.00
424.80	4591.55
425.01	4456.38
425.22	4378.56
425.43	4409.28
425.64	4605.88
425.85	4618.17
426.06	4659.13
426.28	4523.96
426.49	4575.16
426.70	4519.87
426.91	4579.26
427.12	4659.13
427.33	4765.62
427.54	4534.20
427.75	4646.84
427.96	4810.68
428.17	4763.58
428.38	4726.71
428.59	4939.70
428.80	4808.63
429.01	4784.06
429.23	4853.69
429.44	5050.29
429.65	5050.29
429.86	4927.41
430.07	4870.07
430.28	4980.66
430.49	4990.90
430.70	5177.26
430.91	4972.47
431.12	5195.70
431.33	5246.90
431.54	5081.01
431.75	5156.79
431.96	5005.24
432.17	4997.04
432.38	5119.92
432.59	5377.97
432.80	5318.57
433.01	5324.72
433.22	5443.50
433.43	5406.64
433.64	5334.96
433.85	5277.62
434.06	5476.27
434.27	5304.24
434.49	5427.12
434.70	5543.85
434.91	5496.75
435.12	5523.37
435.33	5646.25
435.54	5480.36
435.75	5437.36
435.96	5539.76
436.17	5468.08
436.38	5705.64
436.59	5699.50
436.80	5713.83
437.01	5746.60
437.22	5853.09
437.43	5711.78
437.64	5541.80
437.85	5752.74
438.06	5775.27
438.27	5769.13
438.48	5777.32
438.69	5928.87
438.90	5801.90
439.11	5756.84
439.32	6064.04
439.53	6000.55
439.74	5957.54
439.95	6033.32
440.16	5930.92
440.37	6002.60
440.57	5892.01
440.78	5949.35
440.99	6223.78
441.20	6049.70
441.41	5906.34
441.62	6098.85
441.83	6033.32
442.04	6156.19
442.25	6229.92
442.46	6018.98
442.67	6205.35
442.88	6741.91
443.09	6117.28
443.30	6156.19
443.51	6279.07
443.72	6320.03
443.93	6209.44
444.14	6492.06
444.35	6295.46
444.56	6399.90
444.77	6453.15
444.98	6440.86
445.19	6471.58
445.40	6399.90
445.61	6363.04
445.81	6498.20
446.02	6492.06
446.23	6465.44
446.44	6350.75
446.65	6514.59
446.86	6371.23
447.07	6571.93
447.28	6705.05
447.49	6692.76
447.70	6610.84
447.91	6733.72
448.12	6614.94
448.33	6819.74
448.54	6821.78
448.74	6610.84
448.95	6688.67
449.16	6721.43
449.37	7069.59
449.58	6829.98
449.79	6911.89
450.00	6670.23
450.21	6905.75
450.42	7065.49
450.63	6999.96
450.84	6938.52
451.05	6928.28
451.25	6995.86
451.46	6922.13
451.67	6991.77
451.88	7178.13
452.09	7196.56
452.30	7153.55
452.51	7198.61
452.72	7284.62
452.93	7481.23
453.13	7178.13
453.34	7221.14
453.55	7432.08
453.76	7366.54
453.97	7663.50
454.18	7350.16
454.39	7524.24
454.60	7407.50
454.81	7563.15
455.01	7536.52
455.22	7186.32
455.43	7718.79
455.64	7841.67
455.85	7784.33
456.06	7987.08
456.27	7753.61
456.48	7782.28
456.68	7878.54
456.89	7989.13
457.10	8204.16
457.31	7931.78
457.52	7942.02
457.73	8142.72
457.94	8339.33
458.14	8101.76
458.35	8411.01
458.56	8210.31
458.77	8146.82
458.98	8300.42
459.19	8437.63
459.39	8417.15
459.60	8556.41
459.81	8644.48
460.02	8753.02
460.23	8662.91
460.44	8726.39
460.65	8841.08
460.85	8843.13
461.06	8824.70
461.27	8511.36
461.48	8974.20
461.69	9039.73
461.89	8904.57
462.10	9006.97
462.31	8839.03
462.52	8904.57
462.73	9121.65
462.94	9363.31
463.14	9389.94
463.35	9168.76
463.56	9811.82
463.77	9437.04
463.98	9344.88
464.18	9529.20
464.39	9609.07
464.60	9938.79
464.81	9672.56
465.02	9736.04
465.23	10037.09
465.43	9711.47
465.64	10030.95
465.85	9992.04
466.06	9807.72
466.27	10436.45
466.47	10149.73
466.68	10258.28
466.89	10043.24
467.10	10454.88
467.30	10030.95
467.51	10368.87
467.72	10456.93
467.93	10176.36
468.14	10624.86
468.34	10504.03
468.55	10551.14
468.76	10792.80
468.97	10579.81
469.17	10803.04
469.38	10856.28
469.59	11018.07
469.80	10688.35
470.01	10870.62
470.21	10956.63
470.42	11312.98
470.63	11235.16
470.84	11198.29
471.04	11409.23
471.25	11308.88
471.46	11425.62
471.67	11700.05
471.87	11554.64
472.08	11593.55
472.29	11896.65
472.50	11638.61
472.70	11644.75
472.91	11882.31
473.12	11980.62
473.33	12003.14
473.53	12085.06
473.74	11982.67
473.95	12250.95
474.16	12502.85
474.36	12318.53
474.57	12472.13
474.78	12767.04
474.99	12457.79
475.19	12336.96
475.40	12814.14
475.61	12977.98
475.81	13182.77
476.02	13283.13
476.23	13076.28
476.44	12977.98
476.64	13526.83
476.85	13614.90
477.06	13307.70
477.27	13715.25
477.47	13596.46
477.68	13637.42
477.89	13834.03
478.09	13700.91
478.30	13868.84
478.51	13797.17
478.71	13977.39
478.92	14151.46
479.13	14229.29
479.34	14462.76
479.54	14423.84
479.75	14436.13
479.96	14337.83
480.16	14751.52
480.37	14319.40
480.58	14958.36
480.78	15019.80
480.99	15214.36
481.20	15161.11
481.41	15582.99
481.61	15374.10
481.82	15456.02
482.03	15527.70
482.23	15537.94
482.44	15810.32
482.65	15927.05
482.85	16123.66
483.06	15916.81
483.27	16291.59
483.47	15922.96
483.68	16293.64
483.89	16453.38
484.09	16391.94
484.30	16465.67
484.51	16758.53
484.71	16928.51
484.92	16789.25
485.13	17104.64
485.33	17045.24
485.54	17090.30
485.75	17561.33
485.95	17336.06
486.16	17331.96
486.37	17657.59
486.57	17706.74
486.78	17837.81
486.98	17909.49
487.19	18056.94
487.40	18302.70
487.60	17723.12
487.81	18314.98
488.02	18155.24
488.22	18314.98
488.43	18392.81
488.64	18722.53
488.84	18765.54
489.05	18867.94
489.25	18906.85
489.46	19195.61
489.67	18980.57
489.87	19353.30
490.08	19263.19
490.29	19246.81
490.49	19803.86
490.70	19642.07
490.90	19605.20
491.11	19525.33
491.32	19805.91
491.52	20158.16
491.73	20037.33
491.94	20074.19
492.14	20299.47
492.35	20610.76
492.55	20498.12
492.76	20475.59
492.97	20680.39
493.17	20684.48
493.38	20799.17
493.58	21094.08
493.79	21124.80
494.00	21153.47
494.20	21104.32
494.41	21362.36
494.61	21624.50
494.82	21722.80
495.02	21524.15
495.23	21745.33
495.44	21726.90
495.64	21823.16
495.85	21872.31
496.05	22171.31
496.26	21679.80
496.47	22212.27
496.67	22052.53
496.88	22685.35
497.08	22257.32
497.29	22662.82
497.49	22292.14
497.70	22843.04
497.91	22830.76
498.11	22884.00
498.32	23090.85
498.52	22906.53
498.73	23146.14
498.93	23183.01
499.14	23183.01
499.34	23133.86
499.55	23690.90
499.76	23533.21
499.96	23553.69
500.17	23545.50
500.37	23756.44
500.58	23746.20
500.78	23709.33
500.99	23858.84
501.19	24012.43
501.40	24106.64
501.60	23852.69
501.81	23973.52
502.02	24264.33
502.22	24092.30
502.43	24260.24
502.63	24585.86
502.84	24446.60
503.04	24295.05
503.25	24432.27
503.45	24518.28
503.66	24757.89
503.86	24665.74
504.07	24798.85
504.27	24559.24
504.48	24991.36
504.68	24880.77
504.89	25050.75
505.09	25210.50
505.30	24952.45
505.50	25181.82
505.71	25081.47
505.91	25349.76
506.12	25489.02
506.32	25204.35
506.53	25575.03
506.73	25423.48
506.94	25441.92
507.14	25343.61
507.35	25536.12
507.55	25685.62
507.76	25669.24
507.96	25687.67
508.17	25824.89
508.37	25964.15
508.58	25728.63
508.78	25904.76
508.99	26242.67
509.19	26191.47
509.40	25929.33
509.60	25964.15
509.81	25904.76
510.01	26193.52
510.22	26381.93
510.42	26461.80
510.63	26199.66
510.83	26373.74
511.04	26369.65
511.24	26572.39
511.44	26328.69
511.65	26441.32
511.85	26730.09
512.06	26654.31
512.26	26852.97
512.47	26820.20
512.67	26844.77
512.88	26941.03
513.08	26687.08
513.29	27369.05
513.49	27223.65
513.69	26990.18
513.90	27022.95
514.10	27022.95
514.31	27256.42
514.51	27057.76
514.72	26924.65
514.92	27094.63
515.13	27295.33
515.33	27252.32
515.53	27532.89
515.74	27627.10
515.94	27510.36
516.15	27596.38
516.35	27428.45
516.56	27950.68
516.76	27559.52
516.96	27866.71
517.17	27805.27
517.37	27788.89
517.58	27797.08
517.78	27922.01
517.99	27760.22
518.19	28325.46
518.39	28702.28
518.60	28513.87
518.80	28235.35
519.01	28710.47
519.21	28720.71
519.41	28733.00
519.62	28517.96
519.82	29167.17
520.03	29036.10
520.23	29146.69
520.43	29079.11
520.64	29554.24
520.84	29636.16
521.05	29234.75
521.25	29425.22
521.45	29560.38
521.66	29525.57
521.86	29630.01
522.07	29462.08
522.27	29740.60
522.47	29746.75
522.68	30459.44
522.88	30189.11
523.08	30264.88
523.29	30252.59
523.49	30686.76
523.70	30381.62
523.90	30647.85
524.10	30979.62
524.31	31016.49
524.51	30594.61
524.71	31366.69
524.92	30924.33
525.12	31202.85
525.33	31176.23
525.53	31381.03
525.73	31538.72
525.94	31626.78
526.14	31618.59
526.34	31809.05
526.55	31895.07
526.75	31706.65
526.95	32165.40
527.16	31897.11
527.36	32003.61
527.56	32550.42
527.77	32564.75
527.97	32472.59
528.17	32488.98
528.38	32820.75
528.58	32722.44
528.78	33064.46
528.99	32982.54
529.19	33308.16
529.39	32917.00
529.60	33281.54
529.80	33148.42
530.00	32964.10
530.21	33523.20
530.41	33900.03
530.61	33283.59
530.82	33934.84
531.02	34051.58
531.22	34260.47
531.43	34131.45
531.63	34651.63
531.83	34491.89
532.04	34706.93
532.24	34295.28
532.44	34967.02
532.64	34594.29
532.85	35042.79
533.05	35079.66
533.25	34987.50
533.46	34962.92
533.66	35493.35
533.86	35071.46
534.07	35468.77
534.27	35368.42
534.47	35921.37
534.67	35735.01
534.88	35904.99
535.08	35847.64
535.28	36054.49
535.49	36216.28
535.69	36449.75
535.89	36167.13
536.09	36341.21
536.30	36668.88
536.50	36771.28
536.70	36791.76
536.91	36636.11
537.11	36715.98
537.31	36951.50
537.51	36861.39
537.72	37363.14
537.92	37545.41
538.12	37451.20
538.32	37062.09
538.53	37357.00
538.73	37162.44
538.93	37260.74
539.13	37582.27
539.34	37461.44
539.54	37479.88
539.74	37529.03
539.94	37483.97
540.15	37725.63
540.35	38038.97
540.55	37938.62
540.75	37533.12
540.96	37897.66
541.16	37887.42
541.36	38104.51
541.56	38565.30
541.77	38401.46
541.97	38282.68
542.17	38309.30
542.37	38444.47
542.58	38303.16
542.78	38870.45
542.98	38317.50
543.18	38290.87
543.38	39378.34
543.59	38725.04
543.79	38426.04
543.99	38421.94
544.19	38964.65
544.40	38831.54
544.60	39120.30
544.80	38935.98
545.00	39208.36
545.20	39376.30
545.41	38913.45
545.61	39095.72
545.81	39323.05
546.01	39841.18
546.21	39194.03
546.42	39480.74
546.62	39697.83
546.82	39224.75
547.02	39321.00
547.22	39306.66
547.43	39740.83
547.63	39830.94
547.83	40031.65
548.03	39355.82
548.23	40000.93
548.44	39710.11
548.64	40183.19
548.84	39841.18
549.04	39927.20
549.24	40037.79
549.45	40240.54
549.65	39736.74
549.85	39781.79
550.05	40285.59
550.25	39990.69
550.45	40770.96
550.66	40136.09
550.86	40344.98
551.06	40381.85
551.26	40820.11
551.46	40697.24
551.66	40822.16
551.87	40531.35
552.07	40869.26
552.27	40557.97
552.47	40658.32
552.67	40957.33
552.87	40914.32
553.07	40875.41
553.28	40736.15
553.48	41221.52
553.68	40906.13
553.88	41043.34
554.08	40830.35
554.28	41155.98
554.48	41078.16
554.69	41244.04
554.89	41491.85
555.09	41135.50
555.29	41452.94
555.49	41733.51
555.69	41270.67
555.89	41203.08
556.10	41657.73
556.30	41596.29
556.50	41827.71
556.70	41139.60
556.90	42177.92
557.10	42071.42
557.30	41717.12
557.50	41821.57
557.70	42225.02
557.91	42085.76
558.11	41620.87
558.31	42198.40
558.51	42057.09
558.71	42550.65
558.91	42493.30
559.11	42567.03
559.31	42446.20
559.51	42175.87
559.72	42571.13
559.92	42415.48
560.12	42468.73
560.32	42681.72
560.52	42386.81
560.72	42487.16
560.92	42790.26
561.12	42857.84
561.32	42849.65
561.52	42837.36
561.72	43175.28
561.93	42829.17
562.13	43296.11
562.33	43111.79
562.53	43591.01
562.73	43033.97
562.93	43375.98
563.13	43240.81
563.33	43208.04
563.53	43588.97
563.73	43505.00
563.93	43593.06
564.13	44021.09
564.33	43834.72
564.53	43818.34
564.74	44324.19
564.94	43679.08
565.14	43820.39
565.34	43818.34
565.54	44066.14
565.74	44053.86
565.94	44854.61
566.14	44336.48
566.34	44119.39
566.54	45026.64
566.74	44217.69
566.94	44672.34
567.14	44760.40
567.34	44094.82
567.54	44713.30
567.74	44410.20
567.94	44492.12
568.14	44932.43
568.34	44957.01
568.54	44965.20
568.74	45217.10
568.94	44866.90
569.14	46036.29
569.34	45393.23
569.54	45471.05
569.75	45249.87
569.95	45174.09
570.15	45634.89
570.35	45831.49
570.55	45272.40
570.75	45761.86
570.95	45587.78
571.15	45651.27
571.35	45768.01
571.55	46079.30
571.75	46030.15
571.95	45512.01
572.15	45360.46
572.35	46134.59
572.55	45671.75
572.75	45978.95
572.95	46026.05
573.15	46540.09
573.35	46361.92
573.55	46458.17
573.75	46447.93
573.95	46366.01
574.15	46159.17
574.35	47052.08
574.55	46613.82
574.75	46308.67
574.95	47197.49
575.15	46789.94
575.34	46470.46
575.54	46785.85
575.74	46822.71
575.94	46830.90
576.14	47047.99
576.34	47199.54
576.54	47256.88
576.74	47396.14
576.94	47113.52
577.14	46986.55
577.34	47752.49
577.54	47064.37
577.74	47443.24
577.94	47306.03
578.14	47183.15
578.34	47502.64
578.54	46878.00
578.74	47269.17
578.94	47801.64
579.14	47676.71
579.34	47785.25
579.54	48051.49
579.74	48239.90
579.94	47719.72
580.13	48080.16
580.33	48125.22
580.53	48084.26
580.73	48141.60
580.93	47787.30
581.13	48047.39
581.33	48395.55
581.53	48098.59
581.73	48168.22
581.93	48518.43
582.13	48141.60
582.33	48469.28
582.53	48440.60
582.73	48524.57
582.92	48635.16
583.12	48672.03
583.32	48481.56
583.52	48444.70
583.72	48526.62
583.92	48254.24
584.12	48925.97
584.32	49110.29
584.52	48469.28
584.72	48696.60
584.92	49057.04
585.11	49173.78
585.31	48913.69
585.51	49212.69
585.71	48930.07
585.91	49466.64
586.11	48870.68
586.31	48911.64
586.51	49114.39
586.71	49286.42
586.91	49612.04
587.10	49272.08
587.30	49157.39
587.50	49108.24
587.70	48915.73
587.90	49304.85
588.10	49442.06
588.30	49480.97
588.50	49427.73
