SpectraSuite Data File
++++++++++++++++++++++++++++++++++++
Date: Fri Jun 02 14:44:31 CEST 2017
User: INFO_000
Dark Spectrum Present: No
Reference Spectrum Present: No
Number of Sampled Component Spectra: 1
Spectrometers: USB4H00879
Integration Time (usec): 80000 (USB4H00879)
Spectra Averaged: 1 (USB4H00879)
Boxcar Smoothing: 0 (USB4H00879)
Correct for Electrical Dark: No (USB4H00879)
Strobe/Lamp Enabled: No (USB4H00879)
Correct for Detector Non-linearity: No (USB4H00879)
Correct for Stray Light: No (USB4H00879)
Number of Pixels in Processed Spectrum: 3648
>>>>>Begin Processed Spectral Data<<<<<
345.13	1300.46
345.34	1300.46
345.56	1300.46
345.78	1263.60
345.99	1314.80
346.21	1683.43
346.42	1708.01
346.64	1699.81
346.86	1744.87
347.07	1621.99
347.29	1613.80
347.50	1654.76
347.72	1679.33
347.94	1699.81
348.15	1597.42
348.37	1650.66
348.59	1675.24
348.80	1660.90
349.02	1740.77
349.23	1728.49
349.45	1638.38
349.67	1732.58
349.88	1587.18
350.10	1849.32
350.31	1689.57
350.53	1695.72
350.75	1822.69
350.96	1685.48
351.18	1783.78
351.39	1699.81
351.61	1628.14
351.82	1667.05
352.04	1759.21
352.26	1701.86
352.47	1783.78
352.69	1720.29
352.90	1681.38
353.12	1683.43
353.34	1685.48
353.55	1740.77
353.77	1710.05
353.98	1665.00
354.20	1691.62
354.41	1775.59
354.63	1789.92
354.85	1918.95
355.06	1724.39
355.28	1650.66
355.49	1691.62
355.71	1794.02
355.92	1748.97
356.14	1695.72
356.35	1689.57
356.57	1638.38
356.79	1771.49
357.00	1642.47
357.22	1779.68
357.43	1605.61
357.65	1728.49
357.86	1650.66
358.08	1705.96
358.29	1689.57
358.51	1785.83
358.72	1765.35
358.94	1753.06
359.16	1765.35
359.37	1726.44
359.59	1828.84
359.80	1816.55
360.02	1777.64
360.23	1748.97
360.45	1847.27
360.66	1695.72
360.88	1687.53
361.09	1734.63
361.31	1779.68
361.52	1720.29
361.74	1806.31
361.95	1884.13
362.17	1683.43
362.38	1845.22
362.60	1789.92
362.81	1638.38
363.03	1730.53
363.24	1716.20
363.46	1755.11
363.67	1722.34
363.89	1671.14
364.10	1722.34
364.32	1691.62
364.53	1759.21
364.75	1613.80
364.96	1708.01
365.18	1759.21
365.39	1665.00
365.61	1646.57
365.82	1812.45
366.04	1740.77
366.25	1654.76
366.47	1724.39
366.68	1773.54
366.90	1671.14
367.11	1703.91
367.33	1814.50
367.54	1703.91
367.76	1710.05
367.97	1814.50
368.19	1773.54
368.40	1697.77
368.62	1597.42
368.83	1556.46
369.05	1734.63
369.26	1689.57
369.48	1613.80
369.69	1634.28
369.91	1785.83
370.12	1740.77
370.33	1734.63
370.55	1585.13
370.76	1685.48
370.98	1789.92
371.19	1675.24
371.41	1716.20
371.62	1695.72
371.84	1611.75
372.05	1820.64
372.27	1654.76
372.48	1658.85
372.69	1751.01
372.91	1771.49
373.12	1822.69
373.34	1705.96
373.55	1783.78
373.77	1728.49
373.98	1695.72
374.20	1816.55
374.41	1859.56
374.62	1748.97
374.84	1691.62
375.05	1712.10
375.27	1701.86
375.48	1720.29
375.70	1703.91
375.91	1765.35
376.12	1830.88
376.34	1654.76
376.55	1693.67
376.77	1767.40
376.98	1699.81
377.19	1656.81
377.41	1611.75
377.62	1703.91
377.84	1761.25
378.05	1873.89
378.27	1755.11
378.48	1789.92
378.69	1853.41
378.91	1906.66
379.12	1808.36
379.34	1759.21
379.55	1769.44
379.76	1791.97
379.98	1728.49
380.19	1742.82
380.41	1808.36
380.62	1785.83
380.83	1679.33
381.05	1652.71
381.26	1898.47
381.47	1648.61
381.69	1705.96
381.90	1904.61
382.12	1800.16
382.33	1757.16
382.54	1726.44
382.76	1804.26
382.97	1738.73
383.19	1714.15
383.40	1773.54
383.61	1732.58
383.83	1757.16
384.04	1777.64
384.25	1861.60
384.47	1828.84
384.68	1722.34
384.89	1714.15
385.11	1757.16
385.32	1738.73
385.54	1738.73
385.75	1720.29
385.96	1667.05
386.18	1695.72
386.39	1675.24
386.60	1652.71
386.82	1730.53
387.03	1789.92
387.24	1763.30
387.46	1751.01
387.67	1769.44
387.88	1820.64
388.10	1849.32
388.31	1818.60
388.52	1837.03
388.74	1798.12
388.95	1714.15
389.16	1728.49
389.38	1695.72
389.59	1798.12
389.80	1767.40
390.02	1775.59
390.23	1816.55
390.44	1734.63
390.66	1806.31
390.87	1675.24
391.08	1810.40
391.30	1937.38
391.51	1888.23
391.72	1863.65
391.94	1810.40
392.15	1734.63
392.36	1763.30
392.58	1757.16
392.79	1824.74
393.00	1765.35
393.22	1837.03
393.43	1869.80
393.64	1882.08
393.85	1918.95
394.07	1814.50
394.28	1884.13
394.49	1812.45
394.71	1933.28
394.92	1923.04
395.13	1765.35
395.35	1730.53
395.56	1761.25
395.77	1871.84
395.98	1906.66
396.20	1886.18
396.41	1775.59
396.62	1884.13
396.84	1828.84
397.05	1806.31
397.26	1798.12
397.47	1959.91
397.69	1830.88
397.90	1982.43
398.11	1869.80
398.32	1841.12
398.54	1839.08
398.75	1798.12
398.96	1904.61
399.18	1982.43
399.39	1849.32
399.60	1925.09
399.81	1798.12
400.03	1855.46
400.24	1988.58
400.45	1853.41
400.66	1841.12
400.88	1837.03
401.09	1976.29
401.30	1808.36
401.51	1990.63
401.73	1798.12
401.94	1910.75
402.15	2019.30
402.36	2047.97
402.58	1947.62
402.79	2052.06
403.00	1937.38
403.21	1931.23
403.43	2029.54
403.64	2019.30
403.85	1945.57
404.06	2011.11
404.27	1929.19
404.49	2007.01
404.70	1902.56
404.91	1996.77
405.12	1955.81
405.34	2004.96
405.55	2060.26
405.76	1834.98
405.97	2017.25
406.19	2187.23
406.40	1912.80
406.61	1966.05
406.82	1943.52
407.03	1984.48
407.25	1853.41
407.46	2097.12
407.67	1937.38
407.88	2191.33
408.09	1978.34
408.31	1918.95
408.52	2074.59
408.73	2017.25
408.94	1984.48
409.15	2068.45
409.37	2058.21
409.58	2148.32
409.79	1964.00
410.00	2183.13
410.21	1968.10
410.43	2115.55
410.64	1945.57
410.85	2099.17
411.06	2140.13
411.27	2105.31
411.48	2121.70
411.70	2160.61
411.91	2115.55
412.12	2287.58
412.33	2250.72
412.54	1986.53
412.76	2254.81
412.97	2207.71
413.18	2017.25
413.39	2019.30
413.60	2232.29
413.81	2099.17
414.03	2138.08
414.24	2131.94
414.45	2363.36
414.66	2064.35
414.87	2234.33
415.08	2058.21
415.30	2158.56
415.51	2183.13
415.72	2062.30
415.93	2297.82
416.14	2019.30
416.35	2109.41
416.56	2273.25
416.78	2279.39
416.99	2144.22
417.20	2158.56
417.41	2357.21
417.62	2217.95
417.83	2295.77
418.04	2199.52
418.26	2457.56
418.47	2248.67
418.68	2306.01
418.89	2279.39
419.10	2541.53
419.31	2357.21
419.52	2248.67
419.73	2209.76
419.95	2588.63
420.16	2224.09
420.37	2252.77
420.58	2150.37
420.79	2119.65
421.00	2168.80
421.21	2107.36
421.42	2394.08
421.63	2326.49
421.85	2332.64
422.06	2301.92
422.27	2445.27
422.48	2320.35
422.69	2344.92
422.90	2445.27
423.11	2334.68
423.32	2482.14
423.53	2516.95
423.75	2342.88
423.96	2478.04
424.17	2527.19
424.38	2678.74
424.59	2457.56
424.80	2494.43
425.01	2594.78
425.22	2342.88
425.43	2492.38
425.64	2693.08
425.85	2938.84
426.06	2867.16
426.28	2643.93
426.49	2332.64
426.70	2498.52
426.91	2572.25
427.12	2828.24
427.33	2854.87
427.54	2777.05
427.75	2756.57
427.96	2871.25
428.17	2871.25
428.38	2658.26
428.59	2715.61
428.80	2787.29
429.01	2801.62
429.23	2797.53
429.44	2625.50
429.65	3002.32
429.86	2910.16
430.07	3010.51
430.28	2924.50
430.49	2934.74
430.70	2906.07
430.91	3188.69
431.12	2981.84
431.33	2879.44
431.54	3125.20
431.75	2897.88
431.96	2979.79
432.17	2971.60
432.38	3098.58
432.59	3194.83
432.80	3260.37
433.01	3157.97
433.22	3059.67
433.43	3074.00
433.64	3256.27
433.85	3209.17
434.06	3200.98
434.27	3162.06
434.49	3094.48
434.70	3364.81
434.91	3225.55
435.12	3319.76
435.33	3229.65
435.54	3188.69
435.75	2918.36
435.96	3078.10
436.17	3219.41
436.38	3344.33
436.59	3389.39
436.80	3147.73
437.01	3420.11
437.22	3377.10
437.43	3420.11
437.64	3192.78
437.85	3444.68
438.06	3588.04
438.27	2994.13
438.48	3409.87
438.69	3254.22
438.90	3350.48
439.11	3444.68
439.32	3688.39
439.53	3416.01
439.74	3495.88
439.95	3647.43
440.16	3506.12
440.37	3581.90
440.57	3475.40
440.78	3639.24
440.99	3794.89
441.20	3473.36
441.41	3639.24
441.62	3456.97
441.83	3665.86
442.04	3635.14
442.25	3696.58
442.46	3710.92
442.67	3629.00
442.88	3987.40
443.09	3594.19
443.30	3577.80
443.51	3688.39
443.72	3960.77
443.93	3686.34
444.14	3993.54
444.35	3565.51
444.56	3823.56
444.77	3616.71
444.98	3997.64
445.19	4046.79
445.40	3936.20
445.61	3837.89
445.81	3833.80
446.02	4044.74
446.23	3776.45
446.44	3841.99
446.65	3968.96
446.86	4091.84
447.07	4198.34
447.28	4120.51
447.49	4059.07
447.70	4169.66
447.91	4200.38
448.12	3962.82
448.33	4194.24
448.54	4130.75
448.74	3946.44
448.95	4253.63
449.16	4124.61
449.37	4327.36
449.58	4104.13
449.79	4280.25
450.00	4173.76
450.21	4327.36
450.42	4333.50
450.63	4276.16
450.84	4108.23
451.05	4337.60
451.25	4325.31
451.46	4286.40
451.67	4319.17
451.88	4501.44
452.09	4401.08
452.30	4372.41
452.51	4286.40
452.72	4560.83
452.93	4661.18
453.13	4138.94
453.34	4337.60
453.55	4448.19
453.76	4485.05
453.97	4788.15
454.18	4360.13
454.39	4554.68
454.60	4591.55
454.81	4655.03
455.01	4556.73
455.22	4382.65
455.43	4691.90
455.64	4939.70
455.85	4900.79
456.06	4890.55
456.27	4892.60
456.48	4786.10
456.68	4792.25
456.89	4833.21
457.10	4892.60
457.31	4792.25
457.52	4722.62
457.73	4800.44
457.94	5040.05
458.14	4757.43
458.35	5078.96
458.56	4958.13
458.77	5023.67
458.98	5128.11
459.19	5048.24
459.39	5121.97
459.60	5308.34
459.81	5128.11
460.02	5222.32
460.23	5068.72
460.44	5257.14
460.65	5269.42
460.85	5269.42
461.06	5140.40
461.27	5199.79
461.48	5296.05
461.69	5263.28
461.89	5232.56
462.10	5437.36
462.31	5382.06
462.52	5310.38
462.73	5513.13
462.94	5617.58
463.14	5396.40
463.35	5486.51
463.56	5728.17
463.77	5580.71
463.98	5574.57
464.18	5613.48
464.39	5875.62
464.60	5822.38
464.81	5838.76
465.02	5816.23
465.23	6088.61
465.43	5863.33
465.64	5967.78
465.85	5826.47
466.06	5801.90
466.27	6098.85
466.47	6066.08
466.68	6092.71
466.89	6037.41
467.10	6057.89
467.30	6074.28
467.51	6131.62
467.72	6240.16
467.93	6049.70
468.14	6045.60
468.34	6422.43
468.55	6236.06
468.76	6369.18
468.97	6315.94
469.17	6576.03
469.38	6477.73
469.59	6576.03
469.80	6483.87
470.01	6557.60
470.21	6500.25
470.42	6594.46
470.63	6766.49
470.84	6647.71
471.04	6635.42
471.25	6729.63
471.46	6768.54
471.67	7002.01
471.87	6799.26
472.08	6879.13
472.29	7128.98
472.50	6858.65
472.70	6903.70
472.91	6825.88
473.12	7135.12
473.33	6967.19
473.53	7223.19
473.74	7059.35
473.95	7202.71
474.16	7184.27
474.36	7255.95
474.57	7489.42
474.78	7481.23
474.99	7475.09
475.19	7313.30
475.40	7563.15
475.61	7569.29
475.81	7624.59
476.02	7628.68
476.23	7696.27
476.44	7884.68
476.64	7739.27
476.85	7923.59
477.06	7876.49
477.27	8009.61
477.47	8036.23
477.68	8204.16
477.89	8003.46
478.09	8327.04
478.30	8208.26
478.51	8011.65
478.71	8101.76
478.92	8406.91
479.13	8435.58
479.34	8349.57
479.54	8443.78
479.75	8505.21
479.96	8425.34
480.16	8587.13
480.37	8470.40
480.58	8662.91
480.78	8923.00
480.99	8720.25
481.20	8896.38
481.41	8933.24
481.61	8943.48
481.82	9111.41
482.03	9043.83
482.23	9047.93
482.44	9369.46
482.65	9377.65
482.85	9394.03
483.06	9326.45
483.27	9398.13
483.47	9473.90
483.68	9500.53
483.89	9498.48
484.09	9594.73
484.30	9473.90
484.51	9752.43
484.71	9621.36
484.92	9674.60
485.13	9770.86
485.33	9684.84
485.54	9848.68
485.75	10022.76
485.95	10069.86
486.16	9996.14
486.37	10084.20
486.57	9934.70
486.78	9992.04
486.98	10260.32
487.19	10264.42
487.40	10356.58
487.60	10344.29
487.81	10411.87
488.02	10512.22
488.22	10403.68
488.43	10647.39
488.64	10714.97
488.84	10512.22
489.05	10698.59
489.25	10731.36
489.46	10837.85
489.67	10667.87
489.87	10825.56
490.08	10964.82
490.29	10915.67
490.49	11274.07
490.70	10934.11
490.90	10970.97
491.11	11210.58
491.32	11269.97
491.52	11251.54
491.73	11173.72
491.94	11382.61
492.14	11368.27
492.35	11507.54
492.55	11528.02
492.76	11810.64
492.97	11751.24
493.17	11597.65
493.38	11890.51
493.58	11853.64
493.79	11849.55
494.00	11906.89
494.20	11730.76
494.41	12076.87
494.61	12025.67
494.82	12070.73
495.02	12099.40
495.23	11884.36
495.44	12228.42
495.64	12150.60
495.85	12181.32
496.05	12322.63
496.26	12304.20
496.47	12367.68
496.67	12158.79
496.88	12556.10
497.08	12271.43
497.29	12590.91
497.49	12427.07
497.70	12769.09
497.91	12756.80
498.11	12904.25
498.32	12975.93
498.52	12869.44
498.73	13016.89
498.93	12945.21
499.14	13082.42
499.34	13147.96
499.55	13250.36
499.76	13084.47
499.96	13176.63
500.17	12969.79
500.37	13246.26
500.58	13145.91
500.78	13264.69
500.99	13233.97
501.19	13459.25
501.40	13401.91
501.60	13242.17
501.81	13436.72
502.02	13502.26
502.22	13363.00
502.43	13469.49
502.63	13541.17
502.84	13709.10
503.04	13575.98
503.25	13678.38
503.45	13831.98
503.66	13838.12
503.86	13635.38
504.07	14163.75
504.27	13659.95
504.48	14139.18
504.68	13795.12
504.89	14143.27
505.09	14051.11
505.30	14018.35
505.50	14124.84
505.71	14321.45
505.91	14020.39
506.12	14352.16
506.32	14159.66
506.53	13999.91
506.73	14311.21
506.94	14393.12
507.14	14536.48
507.35	14606.11
507.55	14444.32
507.76	14419.75
507.96	14358.31
508.17	14624.54
508.37	14589.73
508.58	14597.92
508.78	14667.55
508.99	14755.61
509.19	14663.46
509.40	14634.78
509.60	14821.15
509.81	14976.80
510.01	14788.38
510.22	14823.20
510.42	14937.88
510.63	14929.69
510.83	14786.33
511.04	14982.94
511.24	14946.08
511.44	15054.62
511.65	14974.75
511.85	15038.23
512.06	14974.75
512.26	14978.84
512.47	15386.39
512.67	15249.18
512.88	15189.78
513.08	15116.06
513.29	15447.83
513.49	15185.69
513.69	15413.01
513.90	15150.87
514.10	15542.03
514.31	15595.28
514.51	15372.05
514.72	15525.65
514.92	15417.11
515.13	15392.53
515.33	15449.88
515.53	15752.98
515.74	15550.23
515.94	15761.17
516.15	15533.84
516.35	15552.27
516.56	15564.56
516.76	15644.43
516.96	15705.87
517.17	15986.44
517.37	15752.98
517.58	15875.85
517.78	16099.08
517.99	15925.00
518.19	16088.84
518.39	16115.47
518.60	16164.62
518.80	15830.80
519.01	16146.19
519.21	16164.62
519.41	16246.54
519.62	16105.23
519.82	16518.92
520.03	16525.06
520.23	16369.41
520.43	16205.58
520.64	16639.75
520.84	16627.46
521.05	16500.48
521.25	16801.54
521.45	16480.00
521.66	16615.17
521.86	16609.03
522.07	16574.21
522.27	16480.00
522.47	16596.74
522.68	16914.17
522.88	16770.82
523.08	17116.92
523.29	16942.85
523.49	16711.42
523.70	16959.23
523.90	17088.25
524.10	16858.88
524.31	17250.04
524.51	16989.95
524.71	17272.57
524.92	17331.96
525.12	17395.45
525.33	17493.75
525.53	17379.06
525.73	17624.82
525.94	17497.84
526.14	17377.01
526.34	17846.00
526.55	17686.26
526.75	17827.57
526.95	17813.23
527.16	17600.24
527.36	17837.81
527.56	17846.00
527.77	18142.96
527.97	18071.28
528.17	17942.25
528.38	17899.25
528.58	18028.27
528.78	18167.53
528.99	18087.66
529.19	18349.80
529.39	18245.35
529.60	18355.94
529.80	18169.58
530.00	18099.95
530.21	18421.48
530.41	18480.87
530.61	18505.45
530.82	18527.97
531.02	18417.38
531.22	18511.59
531.43	18507.49
531.63	18560.74
531.83	18917.09
532.04	19025.63
532.24	18927.33
532.44	19162.84
532.64	18986.72
532.85	19015.39
533.05	19197.66
533.25	19248.86
533.46	19156.70
533.66	19267.29
533.86	18951.90
534.07	19545.81
534.27	19179.23
534.47	19619.54
534.67	19619.54
534.88	19435.22
535.08	19341.02
535.28	19783.38
535.49	19721.94
535.69	19703.51
535.89	19953.36
536.09	19807.95
536.30	20238.03
536.50	19928.78
536.70	20080.33
536.91	19855.06
537.11	19982.03
537.31	20254.41
537.51	20059.85
537.72	20346.57
537.92	20227.79
538.12	20494.02
538.32	20362.95
538.53	20737.73
538.73	20252.36
538.93	20666.05
539.13	20711.11
539.34	20518.60
539.54	20444.87
539.74	20831.94
539.94	20846.27
540.15	20821.70
540.35	20575.94
540.55	20704.96
540.75	20743.88
540.96	20897.47
541.16	21055.17
541.36	20946.62
541.56	21030.59
541.77	21233.34
541.97	21135.04
542.17	21159.61
542.37	21323.45
542.58	21294.78
542.78	20958.91
542.98	21276.35
543.18	21481.14
543.38	21831.35
543.59	21573.30
543.79	21380.79
543.99	21237.44
544.19	21579.45
544.40	21755.57
544.60	21644.98
544.80	22001.33
545.00	21849.78
545.20	21837.49
545.41	21694.13
545.61	22013.62
545.81	22177.45
546.01	21665.46
546.21	21980.85
546.42	21915.31
546.62	22046.38
546.82	21860.02
547.02	22034.10
547.22	22189.74
547.43	22042.29
547.63	22300.33
547.83	22408.87
548.03	22206.13
548.23	22427.31
548.44	22390.44
548.64	22347.44
548.84	22292.14
549.04	22564.52
549.24	22720.17
549.45	22730.41
549.65	22668.97
549.85	22406.83
550.05	22576.81
550.25	22417.07
550.45	22992.55
550.66	22740.64
550.86	22613.67
551.06	22904.48
551.26	22697.64
551.46	22986.40
551.66	22789.80
551.87	22916.77
552.07	23002.78
552.27	22605.48
552.47	23074.46
552.67	22826.66
552.87	22843.04
553.07	23125.66
553.28	23258.78
553.48	23223.97
553.68	23148.19
553.88	23359.13
554.08	23140.00
554.28	23103.14
554.48	23178.91
554.69	23361.18
554.89	22986.40
555.09	23189.15
555.29	22939.30
555.49	23228.06
555.69	23412.38
555.89	23404.19
556.10	23273.12
556.30	23285.40
556.50	23717.53
556.70	23465.63
556.90	23445.15
557.10	23488.15
557.30	23510.68
557.50	23682.71
557.70	23641.75
557.91	23932.56
558.11	23539.35
558.31	23727.77
558.51	23742.10
558.71	23774.87
558.91	23901.84
559.11	23547.54
559.31	23651.99
559.51	23830.16
559.72	23879.32
559.92	23936.66
560.12	23764.63
560.32	23895.70
560.52	23854.74
560.72	24276.62
560.92	24094.35
561.12	23748.25
561.32	24176.27
561.52	23838.36
561.72	23969.43
561.93	24139.41
562.13	24065.68
562.33	23905.94
562.53	24184.46
562.73	24075.92
562.93	24376.97
563.13	24174.22
563.33	24233.61
563.53	24336.01
563.73	24129.17
563.93	24254.09
564.13	24321.68
564.33	24491.66
564.53	24338.06
564.74	24628.87
564.94	24403.60
565.14	24462.99
565.34	24465.03
565.54	24415.88
565.74	24299.15
565.94	24794.76
566.14	24626.82
566.34	24512.14
566.54	24716.93
566.74	24338.06
566.94	24776.33
567.14	25132.67
567.34	24661.64
567.54	24886.92
567.74	24788.61
567.94	24479.37
568.14	24667.78
568.34	24956.55
568.54	24530.57
568.74	24940.16
568.94	24510.09
569.14	25104.00
569.34	25124.48
569.54	25003.65
569.75	24977.03
569.95	25099.90
570.15	25110.14
570.35	25101.95
570.55	24917.64
570.75	25222.78
570.95	24880.77
571.15	25124.48
571.35	25069.19
571.55	25321.09
571.75	25144.96
571.95	25515.64
572.15	25179.78
572.35	25310.85
572.55	25337.47
572.75	24913.54
572.95	25241.21
573.15	25470.59
573.35	25577.08
573.55	25409.15
573.75	25466.49
573.95	25341.57
574.15	25210.50
574.35	25255.55
574.55	25673.34
574.75	25691.77
574.95	25501.31
575.15	25484.92
575.34	25575.03
575.54	25826.93
575.74	25742.97
575.94	25812.60
576.14	25613.95
576.34	25974.39
576.54	25798.26
576.74	25728.63
576.94	25949.81
577.14	25747.06
577.34	26187.38
577.54	25960.05
577.74	26066.55
577.94	26066.55
578.14	26263.15
578.34	26072.69
578.54	25575.03
578.74	25794.17
578.94	26015.35
579.14	25747.06
579.34	25806.45
579.54	26140.27
579.74	26459.76
579.94	26312.30
580.13	26494.57
580.33	26551.91
580.53	26470.00
580.73	26617.45
580.93	26533.48
581.13	26383.98
581.33	26691.18
581.53	26654.31
581.73	26756.71
581.93	26537.58
582.13	26707.56
582.33	26580.59
582.53	27129.44
582.73	26777.19
582.92	26572.39
583.12	26824.29
583.32	26867.30
583.52	26470.00
583.72	26803.82
583.92	26662.51
584.12	26818.15
584.32	26992.23
584.52	26871.40
584.72	27127.39
584.92	26713.70
585.11	27147.87
585.31	27168.35
585.51	27020.90
585.71	27113.06
585.91	27379.29
586.11	27272.80
586.31	27383.39
586.51	27379.29
586.71	27455.07
586.91	27418.21
587.10	27127.39
587.30	27160.16
587.50	27190.88
587.70	27244.13
587.90	27649.63
588.10	27473.50
588.30	27367.01
588.50	27479.64
588.69	27729.50
588.89	27338.33
589.09	27772.50
589.29	27547.23
589.49	27516.51
589.69	27502.17
