SpectraSuite Data File
++++++++++++++++++++++++++++++++++++
Date: Fri Jun 02 14:44:32 CEST 2017
User: INFO_000
Dark Spectrum Present: No
Reference Spectrum Present: No
Number of Sampled Component Spectra: 1
Spectrometers: USB4H00879
Integration Time (usec): 80000 (USB4H00879)
Spectra Averaged: 1 (USB4H00879)
Boxcar Smoothing: 0 (USB4H00879)
Correct for Electrical Dark: No (USB4H00879)
Strobe/Lamp Enabled: No (USB4H00879)
Correct for Detector Non-linearity: No (USB4H00879)
Correct for Stray Light: No (USB4H00879)
Number of Pixels in Processed Spectrum: 3648
>>>>>Begin Processed Spectral Data<<<<<
345.13	1279.98
345.34	1279.98
345.56	1279.98
345.78	1298.41
345.99	1271.79
346.21	1642.47
346.42	1703.91
346.64	1644.52
346.86	1794.02
347.07	1572.84
347.29	1634.28
347.50	1601.51
347.72	1695.72
347.94	1767.40
348.15	1492.97
348.37	1581.03
348.59	1703.91
348.80	1624.04
349.02	1683.43
349.23	1796.07
349.45	1834.98
349.67	1822.69
349.88	1818.60
350.10	2009.06
350.31	1806.31
350.53	1855.46
350.75	1929.19
350.96	1757.16
351.18	1859.56
351.39	1890.28
351.61	1748.97
351.82	1847.27
352.04	1791.97
352.26	1843.17
352.47	1920.99
352.69	1888.23
352.90	1708.01
353.12	1761.25
353.34	1877.99
353.55	1931.23
353.77	1822.69
353.98	1757.16
354.20	1884.13
354.41	1896.42
354.63	2027.49
354.85	2007.01
355.06	1888.23
355.28	1689.57
355.49	1898.47
355.71	1877.99
355.92	1804.26
356.14	1867.75
356.35	1826.79
356.57	1802.21
356.79	1918.95
357.00	1839.08
357.22	1974.24
357.43	1857.51
357.65	1968.10
357.86	1791.97
358.08	1896.42
358.29	1918.95
358.51	1961.95
358.72	1970.15
358.94	1843.17
359.16	1937.38
359.37	1970.15
359.59	1867.75
359.80	1998.82
360.02	1902.56
360.23	1945.57
360.45	2019.30
360.66	1851.36
360.88	1789.92
361.09	1884.13
361.31	1970.15
361.52	1927.14
361.74	2082.78
361.95	2080.74
362.17	1849.32
362.38	2027.49
362.60	1957.86
362.81	2000.87
363.03	1937.38
363.24	1906.66
363.46	2037.73
363.67	1955.81
363.89	1980.39
364.10	1984.48
364.32	1918.95
364.53	2050.02
364.75	1896.42
364.96	1970.15
365.18	2056.16
365.39	1970.15
365.61	2041.82
365.82	2066.40
366.04	1986.53
366.25	1968.10
366.47	1996.77
366.68	1974.24
366.90	1972.19
367.11	2072.54
367.33	2037.73
367.54	2086.88
367.76	2000.87
367.97	2123.74
368.19	2080.74
368.40	2086.88
368.62	1957.86
368.83	2000.87
369.05	2099.17
369.26	1992.67
369.48	1996.77
369.69	1968.10
369.91	2050.02
370.12	2002.91
370.33	2078.69
370.55	1929.19
370.76	2021.35
370.98	2117.60
371.19	1988.58
371.41	2017.25
371.62	2133.98
371.84	1982.43
372.05	2082.78
372.27	2070.50
372.48	2062.30
372.69	2072.54
372.91	2131.94
373.12	2183.13
373.34	2035.68
373.55	2066.40
373.77	2203.61
373.98	2174.94
374.20	2097.12
374.41	2273.25
374.62	2123.74
374.84	2131.94
375.05	2140.13
375.27	2187.23
375.48	2103.26
375.70	2097.12
375.91	2154.46
376.12	2285.53
376.34	2168.80
376.55	2131.94
376.77	2174.94
376.98	2133.98
377.19	2138.08
377.41	2093.02
377.62	2260.96
377.84	2320.35
378.05	2265.05
378.27	2174.94
378.48	2224.09
378.69	2416.60
378.91	2303.96
379.12	2291.68
379.34	2228.19
379.55	2265.05
379.76	2312.16
379.98	2115.55
380.19	2215.90
380.41	2254.81
380.62	2324.44
380.83	2181.09
381.05	2199.52
381.26	2422.75
381.47	2277.34
381.69	2338.78
381.90	2432.99
382.12	2220.00
382.33	2295.77
382.54	2328.54
382.76	2322.40
382.97	2287.58
383.19	2230.24
383.40	2361.31
383.61	2224.09
383.83	2199.52
384.04	2363.36
384.25	2367.45
384.47	2346.97
384.68	2355.16
384.89	2355.16
385.11	2422.75
385.32	2365.40
385.54	2338.78
385.75	2275.29
385.96	2473.95
386.18	2383.84
386.39	2408.41
386.60	2318.30
386.82	2414.56
387.03	2412.51
387.24	2523.10
387.46	2373.60
387.67	2473.95
387.88	2514.91
388.10	2400.22
388.31	2486.23
388.52	2559.96
388.74	2547.67
388.95	2514.91
389.16	2531.29
389.38	2467.80
389.59	2623.45
389.80	2568.15
390.02	2586.58
390.23	2654.17
390.44	2457.56
390.66	2613.21
390.87	2543.58
391.08	2594.78
391.30	2736.09
391.51	2674.65
391.72	2695.13
391.94	2605.02
392.15	2625.50
392.36	2605.02
392.58	2656.22
392.79	2594.78
393.00	2660.31
393.22	2705.37
393.43	2760.66
393.64	2850.77
393.85	2750.42
394.07	2758.61
394.28	2791.38
394.49	2691.03
394.71	2746.33
394.92	2871.25
395.13	2807.77
395.35	2752.47
395.56	2768.85
395.77	2750.42
395.98	2772.95
396.20	2885.59
396.41	2867.16
396.62	2947.03
396.84	2801.62
397.05	2797.53
397.26	2871.25
397.47	3012.56
397.69	2877.40
397.90	3106.77
398.11	3067.86
398.32	2928.60
398.54	2904.02
398.75	2832.34
398.96	2969.55
399.18	3082.19
399.39	3022.80
399.60	3020.75
399.81	3051.47
400.03	2951.12
400.24	3235.79
400.45	2957.27
400.66	3114.96
400.88	2951.12
401.09	3139.54
401.30	3047.38
401.51	3213.26
401.73	3211.22
401.94	3170.26
402.15	3166.16
402.36	3141.58
402.58	3133.39
402.79	3182.54
403.00	3141.58
403.21	3256.27
403.43	3264.46
403.64	3289.04
403.85	3133.39
404.06	3262.41
404.27	3184.59
404.49	3252.17
404.70	3119.06
404.91	3393.48
405.12	3289.04
405.34	3284.94
405.55	3356.62
405.76	3207.12
405.97	3305.42
406.19	3381.20
406.40	3200.98
406.61	3317.71
406.82	3405.77
407.03	3348.43
407.25	3203.02
407.46	3506.12
407.67	3477.45
407.88	3555.27
408.09	3448.78
408.31	3366.86
408.52	3416.01
408.73	3223.50
408.94	3430.35
409.15	3473.36
409.37	3569.61
409.58	3633.10
409.79	3534.79
410.00	3534.79
410.21	3428.30
410.43	3436.49
410.64	3508.17
410.85	3575.75
411.06	3571.66
411.27	3438.54
411.48	3624.90
411.70	3532.75
411.91	3651.53
412.12	3717.06
412.33	3631.05
412.54	3616.71
412.76	3674.06
412.97	3805.13
413.18	3565.51
413.39	3626.95
413.60	3647.43
413.81	3651.53
414.03	3758.02
414.24	3647.43
414.45	3778.50
414.66	3592.14
414.87	3803.08
415.08	3760.07
415.30	3848.13
415.51	3712.97
415.72	3774.41
415.93	3715.02
416.14	3715.02
416.35	3854.28
416.56	3749.83
416.78	3835.85
416.99	3831.75
417.20	3796.93
417.41	3878.85
417.62	3811.27
417.83	3987.40
418.04	3864.52
418.26	3993.54
418.47	3911.62
418.68	3917.76
418.89	3971.01
419.10	4149.18
419.31	4147.14
419.52	4124.61
419.73	4009.92
419.95	4229.06
420.16	3956.68
420.37	4069.31
420.58	4089.79
420.79	3887.04
421.00	4124.61
421.21	4128.70
421.42	4167.62
421.63	4128.70
421.85	4175.81
422.06	4241.34
422.27	4190.14
422.48	4220.86
422.69	4274.11
422.90	4257.73
423.11	4313.02
423.32	4353.98
423.53	4442.04
423.75	4356.03
423.96	4480.96
424.17	4323.26
424.38	4550.59
424.59	4372.41
424.80	4571.07
425.01	4495.29
425.22	4501.44
425.43	4474.81
425.64	4616.12
425.85	4597.69
426.06	4466.62
426.28	4480.96
426.49	4435.90
426.70	4530.11
426.91	4722.62
427.12	4675.51
427.33	4706.23
427.54	4554.68
427.75	4712.38
427.96	4929.46
428.17	4790.20
428.38	4868.02
428.59	4904.89
428.80	4710.33
429.01	4978.61
429.23	4896.69
429.44	5027.76
429.65	4917.17
429.86	5089.20
430.07	4976.56
430.28	4960.18
430.49	5029.81
430.70	5066.67
430.91	5111.73
431.12	5089.20
431.33	5257.14
431.54	5087.15
431.75	5173.17
431.96	5132.21
432.17	5087.15
432.38	5173.17
432.59	5296.05
432.80	5195.70
433.01	5349.29
433.22	5271.47
433.43	5220.27
433.64	5304.24
433.85	5332.91
434.06	5418.93
434.27	5478.32
434.49	5521.32
434.70	5550.00
434.91	5482.41
435.12	5455.79
435.33	5468.08
435.54	5535.66
435.75	5263.28
435.96	5521.32
436.17	5361.58
436.38	5674.92
436.59	5613.48
436.80	5638.06
437.01	5902.25
437.22	5918.63
437.43	5562.28
437.64	5574.57
437.85	5840.81
438.06	5797.80
438.27	5734.31
438.48	5894.05
438.69	6018.98
438.90	5869.48
439.11	5814.18
439.32	5855.14
439.53	5838.76
439.74	5971.88
439.95	5887.91
440.16	6053.80
440.37	5869.48
440.57	5748.65
440.78	6010.79
440.99	5900.20
441.20	6023.08
441.41	5973.92
441.62	6057.89
441.83	5840.81
442.04	6143.91
442.25	6131.62
442.46	6086.56
442.67	6223.78
442.88	6317.98
443.09	6150.05
443.30	6227.87
443.51	6150.05
443.72	6393.76
443.93	6178.72
444.14	6524.83
444.35	6145.95
444.56	6475.68
444.77	6340.51
444.98	6401.95
445.19	6487.96
445.40	6453.15
445.61	6492.06
445.81	6629.27
446.02	6512.54
446.23	6500.25
446.44	6262.69
446.65	6598.56
446.86	6573.98
447.07	6723.48
447.28	6881.18
447.49	6602.65
447.70	6541.21
447.91	6754.20
448.12	6651.80
448.33	6844.31
448.54	6973.33
448.74	6559.64
448.95	6862.74
449.16	6719.39
449.37	7139.22
449.58	6889.37
449.79	7088.02
450.00	6760.34
450.21	7016.34
450.42	7067.54
450.63	7026.58
450.84	7065.49
451.05	7075.73
451.25	7065.49
451.46	6823.83
451.67	7161.75
451.88	7262.10
452.09	7307.15
452.30	7147.41
452.51	7227.28
452.72	7460.75
452.93	7636.88
453.13	7307.15
453.34	7323.54
453.55	7491.47
453.76	7333.78
453.97	7798.66
454.18	7466.89
454.39	7683.98
454.60	7565.20
454.81	7591.82
455.01	7622.54
455.22	7487.37
455.43	7657.36
455.64	7980.93
455.85	7925.64
456.06	8015.75
456.27	7925.64
456.48	7810.95
456.68	7956.36
456.89	7972.74
457.10	8081.28
457.31	8208.26
457.52	8155.01
457.73	8118.15
457.94	8200.07
458.14	8212.35
458.35	8585.08
458.56	8318.85
458.77	8161.16
458.98	8406.91
459.19	8337.28
459.39	8552.32
459.60	8521.60
459.81	8445.82
460.02	8619.90
460.23	8580.99
460.44	8812.41
460.65	8750.97
460.85	8750.97
461.06	9015.16
461.27	8621.95
461.48	8998.77
461.69	9183.09
461.89	8773.50
462.10	9021.30
462.31	8980.34
462.52	9060.21
462.73	9023.35
462.94	9170.80
463.14	9191.28
463.35	9303.92
463.56	9643.88
463.77	9441.14
463.98	9322.35
464.18	9375.60
464.39	9715.56
464.60	9609.07
464.81	9637.74
465.02	9643.88
465.23	9629.55
465.43	9772.91
465.64	9881.45
465.85	9891.69
466.06	9725.80
466.27	10180.45
466.47	10145.64
466.68	10121.06
466.89	9985.90
467.10	10053.48
467.30	10028.90
467.51	10282.85
467.72	10346.34
467.93	10276.71
468.14	10401.63
468.34	10473.31
468.55	10628.96
468.76	10710.88
468.97	10516.32
469.17	10837.85
469.38	10813.28
469.59	10895.19
469.80	10723.16
470.01	11024.22
470.21	10835.80
470.42	11251.54
470.63	11276.12
470.84	11071.32
471.04	11255.64
471.25	11235.16
471.46	11284.31
471.67	11749.20
471.87	11321.17
472.08	11550.54
472.29	11818.83
472.50	11423.57
472.70	11732.81
472.91	11968.33
473.12	11966.28
473.33	11927.37
473.53	12355.40
473.74	12136.26
473.95	12410.69
474.16	12547.90
474.36	12369.73
474.57	12687.17
474.78	12736.32
474.99	12455.75
475.19	12724.03
475.40	13080.38
475.61	13100.86
475.81	13178.68
476.02	13246.26
476.23	13121.34
476.44	13160.25
476.64	13422.39
476.85	13561.65
477.06	13631.28
477.27	13877.04
477.47	13567.79
477.68	13975.34
477.89	13877.04
478.09	14098.22
478.30	14233.38
478.51	14141.22
478.71	14421.80
478.92	14503.71
479.13	14688.03
479.34	14556.96
479.54	14536.48
479.75	14628.64
479.96	14724.90
480.16	14882.59
480.37	14884.64
480.58	15310.61
480.78	15249.18
480.99	15406.87
481.20	15566.61
481.41	15370.01
481.61	15527.70
481.82	15662.86
482.03	15707.92
482.23	15595.28
482.44	16097.03
482.65	16248.58
482.85	16281.35
483.06	16074.51
483.27	16271.11
483.47	16422.66
483.68	16336.65
483.89	16688.90
484.09	16592.64
484.30	16989.95
484.51	16895.74
484.71	16901.89
484.92	16961.28
485.13	17231.61
485.33	17350.39
485.54	17055.48
485.75	17698.55
485.95	17796.85
486.16	17880.82
486.37	17948.40
486.57	17503.99
486.78	17907.44
486.98	17932.01
487.19	18196.20
487.40	17993.45
487.60	18265.83
487.81	18538.21
488.02	18591.46
488.22	18613.99
488.43	19011.29
488.64	18745.06
488.84	18859.74
489.05	19021.53
489.25	19023.58
489.46	19338.97
489.67	18847.46
489.87	19523.29
490.08	19672.79
490.29	19410.65
490.49	19818.19
490.70	19715.80
490.90	19898.06
491.11	19637.97
491.32	19934.93
491.52	20022.99
491.73	20025.04
491.94	20018.89
492.14	20195.02
492.35	20369.10
492.55	20395.72
492.76	20522.69
492.97	20575.94
493.17	20764.36
493.38	20711.11
493.58	20821.70
493.79	21149.37
494.00	20782.79
494.20	21231.29
494.41	21362.36
494.61	21163.71
494.82	21239.48
495.02	21216.96
495.23	21782.20
495.44	21851.83
495.64	21733.04
495.85	21477.05
496.05	21735.09
496.26	21919.41
496.47	22144.69
496.67	21903.03
496.88	22347.44
497.08	22242.99
497.29	22439.59
497.49	22611.62
497.70	22496.94
497.91	22511.27
498.11	22431.40
498.32	22797.99
498.52	22787.75
498.73	23088.80
498.93	22986.40
499.14	23154.33
499.34	23099.04
499.55	23113.38
499.76	22789.80
499.96	23111.33
500.17	23312.03
500.37	23404.19
500.58	23402.14
500.78	23666.33
500.99	23623.32
501.19	23633.56
501.40	24028.82
501.60	23719.57
501.81	24073.87
502.02	24016.53
502.22	23680.66
502.43	24030.87
502.63	24450.70
502.84	24063.63
503.04	24137.36
503.25	24417.93
503.45	24372.88
503.66	24391.31
503.86	24301.20
504.07	24780.42
504.27	24462.99
504.48	24835.72
504.68	24565.39
504.89	25187.97
505.09	24749.70
505.30	24979.07
505.50	24981.12
505.71	25525.88
505.91	25237.12
506.12	25339.52
506.32	25261.69
506.53	25454.20
506.73	25534.07
506.94	25468.54
507.14	25765.49
507.35	25462.40
507.55	25474.68
507.76	25536.12
507.96	25831.03
508.17	25710.20
508.37	25814.65
508.58	25880.18
508.78	26029.68
508.99	25927.28
509.19	26183.28
509.40	26314.35
509.60	26383.98
509.81	26269.30
510.01	26437.23
510.22	26279.54
510.42	26328.69
510.63	26637.93
510.83	26642.03
511.04	26875.49
511.24	27070.05
511.44	26814.05
511.65	27092.58
511.85	26541.68
512.06	27102.82
512.26	26973.80
512.47	27129.44
512.67	27108.96
512.88	27448.93
513.08	27156.07
513.29	27620.95
513.49	27457.12
513.69	27414.11
513.90	27420.25
514.10	27577.95
514.31	27647.58
514.51	27805.27
514.72	27946.58
514.92	27684.44
515.13	27907.67
515.33	27962.97
515.53	28061.27
515.74	27995.73
515.94	27956.82
516.15	28202.58
516.35	27952.73
516.56	28350.03
516.76	28221.01
516.96	28573.26
517.17	28532.30
517.37	28376.66
517.58	28454.48
517.78	28718.67
517.99	28915.27
518.19	28847.69
518.39	29040.20
518.60	29220.42
518.80	29120.07
519.01	29271.62
519.21	29077.06
519.41	29167.17
519.62	28757.58
519.82	29279.81
520.03	29427.26
520.23	29412.93
520.43	29322.82
520.64	29832.76
520.84	30084.66
521.05	29781.56
521.25	29959.73
521.45	30518.83
521.66	30287.41
521.86	30064.18
522.07	30375.47
522.27	30244.40
522.47	30189.11
522.68	30871.08
522.88	30381.62
523.08	30477.87
523.29	30576.17
523.49	30690.86
523.70	30606.89
523.90	30901.80
524.10	30588.46
524.31	31155.75
524.51	31022.63
524.71	31579.68
524.92	30967.34
525.12	31360.55
525.33	31313.44
525.53	31553.05
525.73	31921.69
525.94	31718.94
526.14	31286.82
526.34	31538.72
526.55	32144.92
526.75	31974.94
526.95	31909.40
527.16	31845.91
527.36	32060.95
527.56	32261.65
527.77	32704.01
527.97	32308.76
528.17	32298.52
528.38	32261.65
528.58	32681.49
528.78	32503.31
528.99	32247.32
529.19	33144.33
529.39	32953.87
529.60	33261.06
529.80	32953.87
530.00	33232.39
530.21	33267.20
530.41	33314.31
530.61	33193.48
530.82	33377.79
531.02	33404.42
531.22	33861.12
531.43	33756.67
531.63	33902.07
531.83	34156.02
532.04	33981.95
532.24	33869.31
532.44	34293.24
532.64	34741.74
532.85	34358.77
533.05	34719.21
533.25	34678.25
533.46	34745.84
533.66	34952.68
533.86	34805.23
534.07	35300.84
534.27	34694.64
534.47	35030.51
534.67	35042.79
534.88	34952.68
535.08	34876.91
535.28	35587.55
535.49	35562.98
535.69	35997.15
535.89	35773.92
536.09	35608.03
536.30	36138.46
536.50	35735.01
536.70	36052.44
536.91	35894.75
537.11	35948.00
537.31	36259.29
537.51	36615.63
537.72	36885.97
537.92	36425.17
538.12	36795.85
538.32	36799.95
538.53	36883.92
538.73	36679.12
538.93	36971.98
539.13	36720.08
539.34	36849.10
539.54	36511.19
539.74	37096.91
539.94	36992.46
540.15	37027.28
540.35	37510.60
540.55	37547.46
540.75	37608.90
540.96	37830.08
541.16	37756.35
541.36	37436.87
541.56	37860.80
541.77	38118.84
541.97	38116.79
542.17	38200.76
542.37	37993.92
542.58	37785.02
542.78	38413.75
542.98	38153.66
543.18	38452.66
543.38	38962.61
543.59	38757.81
543.79	38213.05
543.99	38608.31
544.19	38811.06
544.40	38753.71
544.60	38997.42
544.80	39077.29
545.00	38645.17
545.20	38921.65
545.41	38958.51
545.61	39359.91
545.81	39413.16
546.01	39681.44
546.21	39437.73
546.42	39658.91
546.62	39646.63
546.82	39521.70
547.02	39957.92
547.22	39761.31
547.43	39763.36
547.63	39757.22
547.83	39925.15
548.03	39814.56
548.23	40215.96
548.44	40066.46
548.64	40676.76
548.84	40404.38
549.04	40375.70
549.24	40594.84
549.45	40684.95
549.65	40490.39
549.85	40682.90
550.05	40973.71
550.25	41033.10
550.45	41397.64
550.66	41223.56
550.86	40623.51
551.06	41117.07
551.26	41117.07
551.46	41428.36
551.66	40732.05
551.87	41061.77
552.07	42020.22
552.27	41557.38
552.47	41680.26
552.67	41876.86
552.87	41571.72
553.07	41026.96
553.28	41878.91
553.48	41913.73
553.68	42087.81
553.88	42237.31
554.08	41885.06
554.28	42016.13
554.48	41989.50
554.69	42554.74
554.89	42038.65
555.09	42560.89
555.29	42065.28
555.49	42423.67
555.69	42089.85
555.89	41817.47
556.10	42618.23
556.30	42468.73
556.50	42603.89
556.70	42384.76
556.90	42728.82
557.10	43134.32
557.30	42509.69
557.50	42589.56
557.70	42952.05
557.91	43244.91
558.11	42691.96
558.31	43339.11
558.51	42816.88
558.71	42997.10
558.91	43238.76
559.11	42988.91
559.31	43355.50
559.51	43259.24
559.72	42943.86
559.92	43394.41
560.12	43484.52
560.32	43818.34
560.52	43584.87
560.72	43552.10
560.92	43662.69
561.12	43318.64
561.32	44103.01
561.52	43793.76
561.72	43976.03
561.93	43498.86
562.13	43638.12
562.33	43978.08
562.53	44328.28
562.73	43705.70
562.93	43711.84
563.13	44170.59
563.33	44143.97
563.53	44094.82
563.73	43900.26
563.93	43828.58
564.13	44629.34
564.33	44328.28
564.53	43777.38
564.74	44655.96
564.94	43726.18
565.14	44361.05
565.34	44383.58
565.54	44598.62
565.74	44234.08
565.94	44764.50
566.14	44504.41
566.34	44643.67
566.54	45170.00
566.74	44066.14
566.94	44596.57
567.14	44741.97
567.34	44631.38
567.54	45184.33
567.74	44670.29
567.94	44522.84
568.14	44995.92
568.34	45157.71
568.54	44856.66
568.74	45022.54
568.94	44848.47
569.14	45380.94
569.34	44971.35
569.54	45145.42
569.75	45178.19
569.95	44942.67
570.15	45538.63
570.35	44914.00
570.55	45030.74
570.75	45268.30
570.95	45339.98
571.15	45536.59
571.35	45428.04
571.55	45311.31
571.75	45460.81
571.95	45333.84
572.15	45438.28
572.35	45856.07
572.55	45647.18
572.75	45702.47
572.95	45679.94
573.15	45614.41
573.35	45968.71
573.55	45524.30
573.75	45755.72
573.95	45733.19
574.15	45630.79
574.35	45978.95
574.55	45860.16
574.75	45561.16
574.95	45675.85
575.15	45389.13
575.34	45659.46
575.54	45661.51
575.74	46046.53
575.94	46323.01
576.14	45970.75
576.34	46060.87
576.54	45999.43
576.74	46210.37
576.94	46171.46
577.14	46517.56
577.34	46908.72
577.54	46191.94
577.74	46794.04
577.94	46835.00
578.14	46697.78
578.34	46411.07
578.54	46363.96
578.74	46126.40
578.94	46683.45
579.14	46513.47
579.34	46462.27
579.54	46904.63
579.74	47011.12
579.94	47236.40
580.13	46955.83
580.33	46869.81
580.53	47217.97
580.73	47215.92
580.93	46984.50
581.13	47168.82
581.33	47080.75
581.53	47611.18
581.73	47453.48
581.93	47363.37
582.13	47740.20
582.33	47480.11
582.53	47484.20
582.73	47467.82
582.92	47396.14
583.12	47670.57
583.32	47641.90
583.52	47676.71
583.72	48121.12
583.92	47992.10
584.12	48135.46
584.32	48280.86
584.52	48106.79
584.72	48342.30
584.92	48264.48
585.11	48387.36
585.31	48596.25
585.51	48530.72
585.71	48461.08
585.91	48583.96
586.11	48510.24
586.31	48084.26
586.51	48274.72
586.71	48487.71
586.91	49009.94
587.10	49224.98
587.30	48680.22
587.50	48870.68
587.70	48975.12
587.90	48975.12
588.10	48975.12
588.30	48868.63
588.50	49161.49
