SpectraSuite Data File
++++++++++++++++++++++++++++++++++++
Date: Fri Jun 02 14:44:31 CEST 2017
User: INFO_000
Dark Spectrum Present: No
Reference Spectrum Present: No
Number of Sampled Component Spectra: 1
Spectrometers: USB4H00879
Integration Time (usec): 80000 (USB4H00879)
Spectra Averaged: 1 (USB4H00879)
Boxcar Smoothing: 0 (USB4H00879)
Correct for Electrical Dark: No (USB4H00879)
Strobe/Lamp Enabled: No (USB4H00879)
Correct for Detector Non-linearity: No (USB4H00879)
Correct for Stray Light: No (USB4H00879)
Number of Pixels in Processed Spectrum: 3648
>>>>>Begin Processed Spectral Data<<<<<
345.13	1269.74
345.34	1269.74
345.56	1269.74
345.78	1261.55
345.99	1286.12
346.21	1607.66
346.42	1699.81
346.64	1650.66
346.86	1789.92
347.07	1646.57
347.29	1689.57
347.50	1658.85
347.72	1611.75
347.94	1755.11
348.15	1548.26
348.37	1644.52
348.59	1644.52
348.80	1667.05
349.02	1634.28
349.23	1718.25
349.45	1714.15
349.67	1794.02
349.88	1685.48
350.10	1839.08
350.31	1712.10
350.53	1705.96
350.75	1843.17
350.96	1626.09
351.18	1798.12
351.39	1677.29
351.61	1716.20
351.82	1740.77
352.04	1712.10
352.26	1683.43
352.47	1716.20
352.69	1714.15
352.90	1607.66
353.12	1644.52
353.34	1740.77
353.55	1724.39
353.77	1708.01
353.98	1703.91
354.20	1724.39
354.41	1746.92
354.63	1755.11
354.85	1949.67
355.06	1777.64
355.28	1597.42
355.49	1689.57
355.71	1757.16
355.92	1675.24
356.14	1787.88
356.35	1691.62
356.57	1675.24
356.79	1814.50
357.00	1697.77
357.22	1834.98
357.43	1691.62
357.65	1744.87
357.86	1626.09
358.08	1738.73
358.29	1822.69
358.51	1816.55
358.72	1847.27
358.94	1736.68
359.16	1667.05
359.37	1726.44
359.59	1839.08
359.80	1830.88
360.02	1728.49
360.23	1802.21
360.45	1830.88
360.66	1761.25
360.88	1744.87
361.09	1701.86
361.31	1765.35
361.52	1761.25
361.74	1769.44
361.95	1841.12
362.17	1736.68
362.38	1820.64
362.60	1789.92
362.81	1769.44
363.03	1777.64
363.24	1691.62
363.46	1873.89
363.67	1777.64
363.89	1691.62
364.10	1785.83
364.32	1728.49
364.53	1816.55
364.75	1665.00
364.96	1781.73
365.18	1839.08
365.39	1761.25
365.61	1650.66
365.82	1816.55
366.04	1755.11
366.25	1630.18
366.47	1841.12
366.68	1802.21
366.90	1617.90
367.11	1763.30
367.33	1753.06
367.54	1892.32
367.76	1720.29
367.97	1918.95
368.19	1662.95
368.40	1853.41
368.62	1699.81
368.83	1720.29
369.05	1802.21
369.26	1687.53
369.48	1667.05
369.69	1652.71
369.91	1775.59
370.12	1785.83
370.33	1755.11
370.55	1658.85
370.76	1771.49
370.98	1839.08
371.19	1742.82
371.41	1718.25
371.62	1794.02
371.84	1665.00
372.05	1820.64
372.27	1744.87
372.48	1804.26
372.69	1863.65
372.91	1849.32
373.12	1847.27
373.34	1730.53
373.55	1791.97
373.77	1755.11
373.98	1703.91
374.20	1871.84
374.41	1906.66
374.62	1744.87
374.84	1847.27
375.05	1804.26
375.27	1794.02
375.48	1744.87
375.70	1804.26
375.91	1812.45
376.12	2009.06
376.34	1724.39
376.55	1767.40
376.77	1896.42
376.98	1738.73
377.19	1710.05
377.41	1812.45
377.62	1871.84
377.84	1828.84
378.05	1949.67
378.27	1869.80
378.48	1910.75
378.69	1931.23
378.91	1959.91
379.12	1877.99
379.34	1927.14
379.55	1806.31
379.76	1834.98
379.98	1769.44
380.19	1863.65
380.41	1804.26
380.62	1875.94
380.83	1896.42
381.05	1769.44
381.26	1929.19
381.47	1808.36
381.69	1828.84
381.90	1970.15
382.12	1914.85
382.33	1837.03
382.54	1824.74
382.76	1882.08
382.97	1818.60
383.19	1828.84
383.40	1945.57
383.61	1873.89
383.83	1902.56
384.04	1824.74
384.25	1884.13
384.47	1986.53
384.68	1828.84
384.89	1761.25
385.11	1839.08
385.32	1908.71
385.54	1839.08
385.75	1810.40
385.96	1902.56
386.18	1882.08
386.39	1834.98
386.60	1880.04
386.82	1908.71
387.03	1884.13
387.24	1914.85
387.46	1877.99
387.67	1945.57
387.88	2039.78
388.10	1904.61
388.31	1951.71
388.52	1990.63
388.74	2004.96
388.95	1970.15
389.16	1845.22
389.38	1839.08
389.59	2011.11
389.80	1970.15
390.02	1888.23
390.23	1996.77
390.44	1832.93
390.66	1904.61
390.87	1785.83
391.08	2004.96
391.30	2193.37
391.51	2215.90
391.72	2058.21
391.94	2074.59
392.15	2129.89
392.36	1943.52
392.58	2078.69
392.79	2047.97
393.00	2043.87
393.22	2099.17
393.43	2183.13
393.64	2191.33
393.85	2131.94
394.07	2158.56
394.28	2258.91
394.49	2183.13
394.71	2279.39
394.92	2125.79
395.13	2007.01
395.35	2082.78
395.56	1929.19
395.77	2244.57
395.98	2258.91
396.20	2287.58
396.41	2252.77
396.62	2389.98
396.84	2316.25
397.05	2150.37
397.26	2142.18
397.47	2330.59
397.69	2217.95
397.90	2371.55
398.11	2365.40
398.32	2179.04
398.54	2162.66
398.75	2258.91
398.96	2346.97
399.18	2473.95
399.39	2199.52
399.60	2451.42
399.81	2248.67
400.03	2349.02
400.24	2535.39
400.45	2371.55
400.66	2369.50
400.88	2379.74
401.09	2529.24
401.30	2265.05
401.51	2541.53
401.73	2400.22
401.94	2432.99
402.15	2486.23
402.36	2684.89
402.58	2590.68
402.79	2674.65
403.00	2543.58
403.21	2631.64
403.43	2639.83
403.64	2650.07
403.85	2625.50
404.06	2764.76
404.27	2615.26
404.49	2578.39
404.70	2613.21
404.91	2643.93
405.12	2578.39
405.34	2650.07
405.55	2813.91
405.76	2678.74
405.97	2699.22
406.19	3080.14
406.40	2652.12
406.61	2629.59
406.82	2568.15
407.03	2746.33
407.25	2629.59
407.46	2912.21
407.67	2664.41
407.88	3092.43
408.09	2766.81
408.31	2787.29
408.52	2947.03
408.73	2899.92
408.94	2746.33
409.15	2803.67
409.37	2936.79
409.58	3028.95
409.79	2928.60
410.00	2967.51
410.21	2871.25
410.43	2932.69
410.64	2693.08
410.85	2891.73
411.06	3123.15
411.27	3108.82
411.48	3061.71
411.70	3069.91
411.91	3125.20
412.12	3299.28
412.33	3203.02
412.54	3039.19
412.76	3428.30
412.97	3211.22
413.18	3006.42
413.39	3035.09
413.60	3364.81
413.81	3178.45
414.03	3207.12
414.24	3067.86
414.45	3407.82
414.66	3121.10
414.87	3395.53
415.08	3100.62
415.30	3340.24
415.51	3299.28
415.72	3090.38
415.93	3360.72
416.14	3303.37
416.35	3346.38
416.56	3440.59
416.78	3446.73
416.99	3221.45
417.20	3352.52
417.41	3592.14
417.62	3585.99
417.83	3471.31
418.04	3485.64
418.26	3815.37
418.47	3450.83
418.68	3684.30
418.89	3592.14
419.10	3880.90
419.31	3592.14
419.52	3710.92
419.73	3538.89
419.95	4030.40
420.16	3551.18
420.37	3651.53
420.58	3612.62
420.79	3510.22
421.00	3686.34
421.21	3602.38
421.42	3657.67
421.63	3727.30
421.85	3770.31
422.06	3682.25
422.27	3956.68
422.48	3833.80
422.69	3817.41
422.90	4048.83
423.11	3876.80
423.32	4067.27
423.53	4132.80
423.75	4102.08
423.96	4206.53
424.17	4231.10
424.38	4337.60
424.59	4190.14
424.80	4370.37
425.01	4093.89
425.22	4196.29
425.43	4097.99
425.64	4405.18
425.85	4546.49
426.06	4368.32
426.28	4278.21
426.49	4259.78
426.70	4403.13
426.91	4411.32
427.12	4470.72
427.33	4564.92
427.54	4378.56
427.75	4507.58
427.96	4777.91
428.17	4599.74
428.38	4562.87
428.59	4548.54
428.80	4685.75
429.01	4771.77
429.23	4622.27
429.44	4843.45
429.65	4831.16
429.86	4796.34
430.07	4718.52
430.28	4718.52
430.49	4792.25
430.70	5025.72
430.91	5027.76
431.12	4792.25
431.33	5019.57
431.54	5072.82
431.75	5027.76
431.96	4972.47
432.17	5128.11
432.38	5126.07
432.59	5179.31
432.80	5177.26
433.01	5205.94
433.22	5144.50
433.43	5232.56
433.64	5230.51
433.85	5119.92
434.06	5261.23
434.27	5117.87
434.49	5220.27
434.70	5556.14
434.91	5332.91
435.12	5355.44
435.33	5429.17
435.54	5441.45
435.75	5197.74
435.96	5302.19
436.17	5375.92
436.38	5531.56
436.59	5468.08
436.80	5390.25
437.01	5711.78
437.22	5908.39
437.43	5539.76
437.64	5500.84
437.85	5695.40
438.06	5724.07
438.27	5646.25
438.48	5545.90
438.69	5679.02
438.90	5805.99
439.11	5627.82
439.32	5769.13
439.53	5779.37
439.74	5803.94
439.95	5859.24
440.16	5719.98
440.37	5873.57
440.57	5689.26
440.78	5896.10
440.99	5990.31
441.20	6004.64
441.41	5871.53
441.62	6033.32
441.83	5967.78
442.04	6119.33
442.25	6000.55
442.46	5959.59
442.67	6033.32
442.88	6586.27
443.09	5916.58
443.30	6045.60
443.51	6102.95
443.72	6541.21
443.93	6160.29
444.14	6401.95
444.35	6160.29
444.56	6418.33
444.77	6365.09
444.98	6397.85
445.19	6381.47
445.40	6442.91
445.61	6256.54
445.81	6522.78
446.02	6598.56
446.23	6365.09
446.44	6238.11
446.65	6598.56
446.86	6561.69
447.07	6623.13
447.28	6696.86
447.49	6809.50
447.70	6680.47
447.91	6707.10
448.12	6588.32
448.33	6578.08
448.54	6705.05
448.74	6760.34
448.95	6713.24
449.16	6637.47
449.37	6987.67
449.58	6829.98
449.79	6899.61
450.00	6623.13
450.21	6924.18
450.42	7165.84
450.63	7049.11
450.84	6997.91
451.05	7032.72
451.25	7059.35
451.46	7098.26
451.67	7362.45
451.88	7180.18
452.09	7180.18
452.30	7110.55
452.51	7221.14
452.72	7362.45
452.93	7526.29
453.13	7071.64
453.34	7108.50
453.55	7290.77
453.76	7325.58
453.97	7622.54
454.18	7548.81
454.39	7538.57
454.60	7462.80
454.81	7479.18
455.01	7610.25
455.22	7331.73
455.43	7749.51
455.64	7909.26
455.85	7944.07
456.06	8046.47
456.27	7794.57
456.48	7794.57
456.68	7841.67
456.89	7968.65
457.10	8116.10
457.31	8177.54
457.52	8021.89
457.73	8124.29
457.94	8269.70
458.14	7997.32
458.35	8353.66
458.56	8322.94
458.77	8390.53
458.98	8300.42
459.19	8474.49
459.39	8437.63
459.60	8609.66
459.81	8474.49
460.02	8636.28
460.23	8425.34
460.44	8787.83
460.65	8685.44
460.85	8734.59
461.06	8730.49
461.27	8738.68
461.48	8939.38
461.69	8986.49
461.89	8648.57
462.10	8943.48
462.31	8802.17
462.52	8849.27
462.73	9009.01
462.94	9277.30
463.14	9004.92
463.35	9101.17
463.56	9396.08
463.77	9572.21
463.98	9254.77
464.18	9289.59
464.39	9521.01
464.60	9752.43
464.81	9590.64
465.02	9486.19
465.23	9969.51
465.43	9693.04
465.64	9965.42
465.85	9987.94
466.06	9672.56
466.27	10035.05
466.47	10082.15
466.68	10041.19
466.89	10137.45
467.10	10057.57
467.30	10184.55
467.51	10436.45
467.72	10571.61
467.93	10162.02
468.14	10415.97
468.34	10608.48
468.55	10372.96
468.76	10620.77
468.97	10422.11
469.17	10760.03
469.38	10975.06
469.59	11065.18
469.80	10747.74
470.01	10839.90
470.21	11013.98
470.42	11077.46
470.63	11315.03
470.84	11034.46
471.04	11388.75
471.25	11392.85
471.46	11388.75
471.67	11544.40
471.87	11360.08
472.08	11775.82
472.29	11751.24
472.50	11583.31
472.70	11681.61
472.91	11822.92
473.12	12144.45
473.33	12009.29
473.53	12142.41
473.74	12095.30
473.95	12386.12
474.16	12330.82
474.36	12277.57
474.57	12701.50
474.78	12658.49
474.99	12738.37
475.19	12754.75
475.40	12965.69
475.61	13084.47
475.81	13236.02
476.02	13336.37
476.23	13035.32
476.44	13254.45
476.64	13354.80
476.85	13516.59
477.06	13696.82
477.27	14049.07
477.47	13868.84
477.68	13905.71
477.89	14163.75
478.09	14135.08
478.30	13965.10
478.51	14133.03
478.71	14423.84
478.92	14192.42
479.13	14413.60
479.34	14817.05
479.54	14577.44
479.75	14796.57
479.96	14685.98
480.16	14886.68
480.37	14927.64
480.58	15251.22
480.78	15490.84
480.99	15132.44
481.20	15361.81
481.41	15542.03
481.61	15533.84
481.82	15761.17
482.03	15875.85
482.23	16119.56
482.44	16004.88
482.65	16039.69
482.85	16424.71
483.06	16406.28
483.27	16402.18
483.47	16494.34
483.68	16232.20
483.89	16793.34
484.09	16520.96
484.30	16631.55
484.51	17039.10
484.71	16953.09
484.92	16961.28
485.13	17059.58
485.33	17213.18
485.54	17278.71
485.75	17368.82
485.95	17456.89
486.16	17598.20
486.37	17723.12
486.57	17921.77
486.78	17735.41
486.98	17833.71
487.19	18183.91
487.40	18069.23
487.60	18276.07
487.81	18470.63
488.02	18145.00
488.22	18648.80
488.43	18632.42
488.64	18638.56
488.84	18751.20
489.05	19185.37
489.25	18849.50
489.46	18931.42
489.67	18783.97
489.87	19261.15
490.08	19363.54
490.29	19392.22
490.49	19338.97
490.70	19734.23
490.90	19574.49
491.11	19537.62
491.32	19793.62
491.52	19893.97
491.73	19838.67
491.94	20018.89
492.14	20141.77
492.35	20432.58
492.55	20516.55
492.76	20453.06
492.97	20696.77
493.17	20711.11
493.38	20938.43
493.58	20842.18
493.79	21114.56
494.00	20897.47
494.20	20958.91
494.41	20991.68
494.61	21401.27
494.82	21214.91
495.02	21378.75
495.23	21305.02
495.44	21444.28
495.64	21718.71
495.85	21665.46
496.05	21857.97
496.26	21882.55
496.47	22361.77
496.67	21788.34
496.88	22228.65
497.08	21827.25
497.29	22257.32
497.49	22126.25
497.70	22255.28
497.91	22496.94
498.11	22730.41
498.32	22523.56
498.52	22632.10
498.73	23047.84
498.93	22886.05
499.14	23013.02
499.34	23074.46
499.55	23195.29
499.76	22972.07
499.96	23502.49
500.17	23373.47
500.37	23266.97
500.58	23162.53
500.78	23547.54
500.99	23785.11
501.19	23781.01
501.40	23629.46
501.60	23627.42
501.81	23852.69
502.02	24022.67
502.22	23869.08
502.43	24280.72
502.63	24161.94
502.84	24080.02
503.04	24174.22
503.25	24350.35
503.45	24333.96
503.66	24329.87
503.86	24553.10
504.07	25136.77
504.27	24575.62
504.48	24770.18
504.68	24927.88
504.89	25169.54
505.09	24936.07
505.30	25044.61
505.50	25343.61
505.71	25331.33
505.91	25628.28
506.12	25347.71
506.32	25202.30
506.53	25702.01
506.73	25609.85
506.94	25331.33
507.14	25841.27
507.35	25777.78
507.55	25745.02
507.76	26082.93
507.96	25943.67
508.17	25671.29
508.37	26072.69
508.58	26064.50
508.78	26046.07
508.99	26451.56
509.19	26222.19
509.40	26771.05
509.60	26484.33
509.81	26437.23
510.01	26424.94
510.22	26508.91
510.42	26895.97
510.63	26728.04
510.83	26801.77
511.04	26508.91
511.24	26857.06
511.44	26824.29
511.65	27031.14
511.85	26793.58
512.06	27219.55
512.26	27313.76
512.47	27197.02
512.67	27160.16
512.88	27164.26
513.08	27131.49
513.29	27487.84
513.49	27328.10
513.69	27127.39
513.90	27514.46
514.10	27629.15
514.31	27739.74
514.51	27530.84
514.72	27457.12
514.92	27960.92
515.13	27616.86
515.33	27846.23
515.53	27989.59
515.74	28178.00
515.94	27936.34
516.15	28304.98
516.35	28044.88
516.56	28282.45
516.76	28212.82
516.96	28063.32
517.17	28710.47
517.37	28409.42
517.58	28681.80
517.78	28579.40
517.99	28683.85
518.19	28702.28
518.39	28763.72
518.60	29029.96
518.80	28835.40
519.01	28874.31
519.21	29138.50
519.41	29435.45
519.62	29091.40
519.82	29099.59
520.03	29474.37
520.23	29277.76
520.43	29095.49
520.64	29247.04
520.84	29779.51
521.05	29642.30
521.25	29584.96
521.45	30070.33
521.66	29896.25
521.86	29886.01
522.07	29720.12
522.27	30137.91
522.47	30037.56
522.68	30379.57
522.88	29982.26
523.08	30520.88
523.29	30350.90
523.49	30580.27
523.70	30866.98
523.90	30670.38
524.10	30705.20
524.31	30813.74
524.51	30936.62
524.71	31041.06
524.92	31032.87
525.12	31204.90
525.33	31335.97
525.53	31442.46
525.73	31680.03
525.94	31569.44
526.14	31483.42
526.34	31835.67
526.55	31610.40
526.75	31641.12
526.95	32024.09
527.16	31462.94
527.36	31665.69
527.56	32075.29
527.77	32511.50
527.97	32210.45
528.17	32296.47
528.38	32378.39
528.58	32394.77
528.78	32708.11
528.99	32579.09
529.19	32929.29
529.39	32441.87
529.60	33033.74
529.80	32716.30
530.00	33238.53
530.21	33121.80
530.41	33261.06
530.61	33447.43
530.82	33666.56
531.02	33588.74
531.22	33771.00
531.43	33385.99
531.63	33650.17
531.83	33975.80
532.04	34395.64
532.24	33863.16
532.44	34276.85
532.64	34547.18
532.85	34399.73
533.05	34647.54
533.25	34035.19
533.46	34493.94
533.66	34952.68
533.86	34344.44
534.07	35151.34
534.27	34913.77
534.47	35067.37
534.67	35198.44
534.88	34932.20
535.08	35257.83
535.28	35372.52
535.49	35565.03
535.69	35812.83
535.89	35309.03
536.09	36179.42
536.30	36175.32
536.50	36036.06
536.70	36048.35
536.91	35913.18
537.11	36298.20
537.31	36206.04
537.51	36427.22
537.72	36885.97
537.92	36730.32
538.12	36816.33
538.32	36705.74
538.53	37101.00
538.73	37012.94
538.93	36742.61
539.13	37395.91
539.34	36953.55
539.54	37191.11
539.74	37463.49
539.94	37209.54
540.15	36994.51
540.35	37746.11
540.55	37731.78
540.75	37543.36
540.96	37834.17
541.16	37944.76
541.36	37840.32
541.56	38090.17
541.77	38270.39
541.97	38012.35
542.17	38313.40
542.37	38219.19
542.58	38735.28
542.78	38294.97
542.98	38301.11
543.18	38716.85
543.38	39165.35
543.59	38862.26
543.79	38753.71
543.99	38596.02
544.19	39234.99
544.40	39224.75
544.60	39089.58
544.80	39237.03
545.00	39396.77
545.20	39824.80
545.41	39497.13
545.61	39296.42
545.81	39777.70
546.01	40121.76
546.21	39503.27
546.42	39470.50
546.62	39935.39
546.82	39286.18
547.02	39556.52
547.22	39898.53
547.43	39810.46
547.63	40392.09
547.83	40244.63
548.03	39802.27
548.23	40152.48
548.44	40220.06
548.64	40750.48
548.84	40529.30
549.04	40539.54
549.24	40330.65
549.45	40848.78
549.65	40707.47
549.85	40732.05
550.05	40791.44
550.25	41168.27
550.45	41291.15
550.66	41182.60
550.86	41096.59
551.06	41278.86
551.26	40805.78
551.46	41266.57
551.66	41203.08
551.87	41145.74
552.07	41139.60
552.27	41469.32
552.47	41436.55
552.67	41450.89
552.87	41596.29
553.07	41753.99
553.28	41684.36
553.48	41430.41
553.68	41524.61
553.88	42128.77
554.08	41858.43
554.28	41819.52
554.48	41799.04
554.69	41923.97
554.89	41999.74
555.09	42194.30
555.29	41606.53
555.49	42351.99
555.69	42171.77
555.89	42399.10
556.10	42272.12
556.30	42552.69
556.50	42546.55
556.70	41919.87
556.90	42560.89
557.10	42620.28
557.30	42319.23
557.50	42597.75
557.70	42894.71
557.91	43085.17
558.11	42675.57
558.31	42906.99
558.51	42653.05
558.71	42810.74
558.91	42743.16
559.11	42859.89
559.31	42931.57
559.51	42710.39
559.72	42947.95
559.92	43165.04
560.12	42999.15
560.32	43079.02
560.52	42982.77
560.72	43240.81
560.92	43122.03
561.12	43115.89
561.32	43240.81
561.52	43414.89
561.72	43679.08
561.93	43148.65
562.13	43226.48
562.33	43404.65
562.53	43859.30
562.73	43115.89
562.93	43216.24
563.13	43621.73
563.33	43246.96
563.53	43818.34
563.73	43339.11
563.93	43697.51
564.13	44000.61
564.33	43900.26
564.53	43509.10
564.74	44021.09
564.94	43388.27
565.14	44162.40
565.34	44117.34
565.54	44506.46
565.74	44152.16
565.94	44504.41
566.14	44424.54
566.34	44363.10
566.54	44737.88
566.74	43984.22
566.94	44658.01
567.14	44402.01
567.34	44270.94
567.54	44416.35
567.74	44797.27
567.94	44350.81
568.14	44860.76
568.34	44842.32
568.54	44428.63
568.74	45104.46
568.94	44449.11
569.14	45217.10
569.34	45145.42
569.54	45075.79
569.75	44430.68
569.95	44762.45
570.15	45053.26
570.35	45204.81
570.55	45372.75
570.75	45172.05
570.95	45194.57
571.15	44645.72
571.35	45266.25
571.55	45518.15
571.75	45256.01
571.95	45280.59
572.15	45380.94
572.35	45434.19
572.55	45503.82
572.75	45405.52
572.95	45327.69
573.15	45401.42
573.35	45727.05
573.55	45667.66
573.75	45620.55
573.95	45497.67
574.15	45765.96
574.35	45815.11
574.55	45645.13
574.75	45802.82
574.95	45634.89
575.15	45626.70
575.34	46099.78
575.54	46327.10
575.74	46327.10
575.94	46519.61
576.14	46193.98
576.34	46390.59
576.54	46501.18
576.74	46746.93
576.94	46468.41
577.14	46198.08
577.34	46490.94
577.54	46576.95
577.74	46609.72
577.94	46945.59
578.14	46908.72
578.34	46794.04
578.54	46261.57
578.74	47002.93
578.94	46925.11
579.14	46765.37
579.34	47060.27
579.54	47183.15
579.74	47134.00
579.94	47437.10
580.13	47473.96
580.33	47559.98
580.53	47172.91
580.73	47654.18
580.93	47533.35
581.13	47750.44
581.33	47656.23
581.53	47826.21
581.73	47676.71
581.93	47801.64
582.13	47414.57
582.33	47822.12
582.53	47969.57
582.73	47715.62
582.92	48117.03
583.12	48176.42
583.32	47887.65
583.52	48037.16
583.72	48254.24
583.92	48014.63
584.12	48438.56
584.32	48813.34
584.52	48739.61
584.72	48094.50
584.92	48817.43
585.11	48899.35
585.31	48469.28
585.51	48606.49
585.71	48665.88
585.91	49366.29
586.11	48895.25
586.31	48381.21
586.51	48643.35
586.71	49128.72
586.91	49300.75
587.10	49081.62
587.30	49026.32
587.50	48792.86
587.70	49284.37
587.90	49038.61
588.10	49497.36
588.30	49208.59
588.50	49583.37
