SpectraSuite Data File
++++++++++++++++++++++++++++++++++++
Date: Fri Jun 02 14:44:31 CEST 2017
User: INFO_000
Dark Spectrum Present: No
Reference Spectrum Present: No
Number of Sampled Component Spectra: 1
Spectrometers: USB4H00879
Integration Time (usec): 80000 (USB4H00879)
Spectra Averaged: 1 (USB4H00879)
Boxcar Smoothing: 0 (USB4H00879)
Correct for Electrical Dark: No (USB4H00879)
Strobe/Lamp Enabled: No (USB4H00879)
Correct for Detector Non-linearity: No (USB4H00879)
Correct for Stray Light: No (USB4H00879)
Number of Pixels in Processed Spectrum: 3648
>>>>>Begin Processed Spectral Data<<<<<
345.13	1302.51
345.34	1302.51
345.56	1302.51
345.78	1196.01
345.99	1255.40
346.21	1683.43
346.42	1660.90
346.64	1642.47
346.86	1779.68
347.07	1583.08
347.29	1705.96
347.50	1605.61
347.72	1708.01
347.94	1712.10
348.15	1515.50
348.37	1626.09
348.59	1712.10
348.80	1685.48
349.02	1708.01
349.23	1740.77
349.45	1697.77
349.67	1742.82
349.88	1646.57
350.10	1896.42
350.31	1771.49
350.53	1746.92
350.75	1886.18
350.96	1634.28
351.18	1718.25
351.39	1773.54
351.61	1683.43
351.82	1763.30
352.04	1839.08
352.26	1757.16
352.47	1783.78
352.69	1798.12
352.90	1634.28
353.12	1699.81
353.34	1724.39
353.55	1814.50
353.77	1828.84
353.98	1755.11
354.20	1720.29
354.41	1785.83
354.63	1769.44
354.85	2015.20
355.06	1748.97
355.28	1644.52
355.49	1826.79
355.71	1820.64
355.92	1814.50
356.14	1785.83
356.35	1787.88
356.57	1626.09
356.79	1863.65
357.00	1746.92
357.22	1920.99
357.43	1718.25
357.65	1822.69
357.86	1755.11
358.08	1812.45
358.29	1798.12
358.51	1875.94
358.72	1837.03
358.94	1814.50
359.16	1845.22
359.37	1757.16
359.59	1824.74
359.80	1843.17
360.02	1839.08
360.23	1843.17
360.45	1888.23
360.66	1822.69
360.88	1732.58
361.09	1765.35
361.31	1748.97
361.52	1806.31
361.74	1910.75
361.95	1920.99
362.17	1787.88
362.38	1961.95
362.60	1859.56
362.81	1714.15
363.03	1839.08
363.24	1898.47
363.46	1927.14
363.67	1851.36
363.89	1791.97
364.10	1920.99
364.32	1822.69
364.53	1845.22
364.75	1751.01
364.96	1798.12
365.18	1912.80
365.39	1765.35
365.61	1820.64
365.82	1884.13
366.04	1920.99
366.25	1746.92
366.47	1841.12
366.68	1937.38
366.90	1742.82
367.11	1894.37
367.33	1880.04
367.54	1888.23
367.76	1882.08
367.97	1976.29
368.19	1845.22
368.40	1908.71
368.62	1716.20
368.83	1796.07
369.05	1796.07
369.26	1857.51
369.48	1794.02
369.69	1830.88
369.91	1925.09
370.12	1845.22
370.33	1877.99
370.55	1753.06
370.76	1863.65
370.98	1976.29
371.19	1820.64
371.41	1896.42
371.62	1886.18
371.84	1798.12
372.05	1966.05
372.27	1785.83
372.48	1898.47
372.69	1966.05
372.91	2064.35
373.12	1867.75
373.34	1802.21
373.55	1939.43
373.77	1986.53
373.98	1830.88
374.20	1943.52
374.41	2029.54
374.62	1875.94
374.84	2052.06
375.05	1961.95
375.27	1859.56
375.48	1910.75
375.70	1961.95
375.91	2064.35
376.12	2164.70
376.34	1894.37
376.55	1857.51
376.77	2039.78
376.98	1966.05
377.19	1916.90
377.41	1908.71
377.62	1961.95
377.84	2109.41
378.05	2254.81
378.27	2039.78
378.48	2045.92
378.69	2158.56
378.91	2193.37
379.12	2068.45
379.34	2033.63
379.55	2050.02
379.76	2082.78
379.98	1968.10
380.19	2013.15
380.41	2045.92
380.62	2060.26
380.83	2107.36
381.05	1966.05
381.26	2152.42
381.47	2047.97
381.69	2029.54
381.90	2250.72
382.12	2109.41
382.33	2041.82
382.54	2156.51
382.76	2131.94
382.97	2168.80
383.19	1964.00
383.40	2213.85
383.61	2097.12
383.83	2133.98
384.04	2179.04
384.25	2220.00
384.47	2256.86
384.68	2013.15
384.89	2156.51
385.11	2226.14
385.32	2123.74
385.54	2295.77
385.75	2154.46
385.96	2303.96
386.18	2205.66
386.39	2230.24
386.60	2183.13
386.82	2338.78
387.03	2232.29
387.24	2355.16
387.46	2297.82
387.67	2289.63
387.88	2332.64
388.10	2357.21
388.31	2330.59
388.52	2445.27
388.74	2398.17
388.95	2328.54
389.16	2367.45
389.38	2355.16
389.59	2367.45
389.80	2519.00
390.02	2428.89
390.23	2590.68
390.44	2326.49
390.66	2469.85
390.87	2332.64
391.08	2492.38
391.30	2582.49
391.51	2562.01
391.72	2492.38
391.94	2586.58
392.15	2633.69
392.36	2527.19
392.58	2527.19
392.79	2543.58
393.00	2707.41
393.22	2666.46
393.43	2629.59
393.64	2707.41
393.85	2631.64
394.07	2645.98
394.28	2639.83
394.49	2641.88
394.71	2777.05
394.92	2772.95
395.13	2709.46
395.35	2629.59
395.56	2592.73
395.77	2674.65
395.98	2820.05
396.20	2717.65
396.41	2873.30
396.62	2924.50
396.84	2807.77
397.05	2731.99
397.26	2744.28
397.47	2944.98
397.69	2729.94
397.90	2994.13
398.11	2904.02
398.32	2863.06
398.54	2775.00
398.75	2828.24
398.96	2891.73
399.18	3008.47
399.39	2846.68
399.60	2936.79
399.81	2908.12
400.03	2863.06
400.24	3207.12
400.45	2906.07
400.66	3094.48
400.88	2934.74
401.09	3205.07
401.30	2940.88
401.51	3088.34
401.73	3133.39
401.94	3071.95
402.15	3151.82
402.36	3033.04
402.58	3237.84
402.79	3192.78
403.00	3188.69
403.21	3272.65
403.43	3200.98
403.64	3188.69
403.85	3035.09
404.06	3346.38
404.27	3198.93
404.49	3207.12
404.70	3184.59
404.91	3264.46
405.12	3286.99
405.34	3243.98
405.55	3446.73
405.76	3123.15
405.97	3276.75
406.19	3413.96
406.40	3205.07
406.61	3391.44
406.82	3303.37
407.03	3282.89
407.25	3223.50
407.46	3366.86
407.67	3448.78
407.88	3356.62
408.09	3317.71
408.31	3411.92
408.52	3381.20
408.73	3340.24
408.94	3268.56
409.15	3465.16
409.37	3510.22
409.58	3547.08
409.79	3588.04
410.00	3596.23
410.21	3461.07
410.43	3407.82
410.64	3512.27
410.85	3422.16
411.06	3532.75
411.27	3479.50
411.48	3583.95
411.70	3516.36
411.91	3655.62
412.12	3583.95
412.33	3571.66
412.54	3516.36
412.76	3725.26
412.97	3678.15
413.18	3510.22
413.39	3559.37
413.60	3723.21
413.81	3618.76
414.03	3639.24
414.24	3653.58
414.45	3786.69
414.66	3571.66
414.87	3708.87
415.08	3645.38
415.30	3657.67
415.51	3874.76
415.72	3729.35
415.93	3825.61
416.14	3870.66
416.35	3811.27
416.56	3899.33
416.78	3885.00
416.99	3821.51
417.20	3846.09
417.41	3872.71
417.62	3948.48
417.83	3938.24
418.04	3897.28
418.26	3923.91
418.47	3829.70
418.68	3891.14
418.89	4026.31
419.10	4085.70
419.31	4009.92
419.52	4040.64
419.73	4108.23
419.95	4224.96
420.16	3958.72
420.37	4036.55
420.58	4128.70
420.79	4026.31
421.00	4190.14
421.21	4208.58
421.42	4128.70
421.63	4235.20
421.85	4163.52
422.06	4292.54
422.27	4247.49
422.48	4210.62
422.69	4218.82
422.90	4247.49
423.11	4300.73
423.32	4214.72
423.53	4425.66
423.75	4433.85
423.96	4569.02
424.17	4308.93
424.38	4464.57
424.59	4468.67
424.80	4605.88
425.01	4310.97
425.22	4431.80
425.43	4470.72
425.64	4550.59
425.85	4710.33
426.06	4530.11
426.28	4603.83
426.49	4530.11
426.70	4480.96
426.91	4763.58
427.12	4700.09
427.33	4673.46
427.54	4646.84
427.75	4763.58
427.96	4794.29
428.17	4796.34
428.38	4796.34
428.59	4753.34
428.80	4841.40
429.01	4872.12
429.23	4937.65
429.44	5027.76
429.65	5126.07
429.86	4876.21
430.07	4886.45
430.28	4880.31
430.49	5042.10
430.70	5128.11
430.91	5197.74
431.12	5072.82
431.33	5066.67
431.54	5222.32
431.75	5107.63
431.96	5250.99
432.17	5113.78
432.38	5148.59
432.59	5314.48
432.80	5345.20
433.01	5427.12
433.22	5377.97
433.43	5349.29
433.64	5287.86
433.85	5345.20
434.06	5564.33
434.27	5314.48
434.49	5406.64
434.70	5574.57
434.91	5359.53
435.12	5453.74
435.33	5527.47
435.54	5506.99
435.75	5509.04
435.96	5513.13
436.17	5459.88
436.38	5709.74
436.59	5599.15
436.80	5595.05
437.01	5836.71
437.22	5916.58
437.43	5685.16
437.64	5439.40
437.85	5799.85
438.06	5851.05
438.27	5584.81
438.48	5715.88
438.69	5797.80
438.90	5771.18
439.11	5615.53
439.32	5849.00
439.53	5787.56
439.74	5867.43
439.95	5998.50
440.16	5996.45
440.37	5892.01
440.57	5892.01
440.78	6123.43
440.99	6135.71
441.20	6000.55
441.41	5828.52
441.62	6131.62
441.83	6027.17
442.04	6213.54
442.25	6121.38
442.46	6158.24
442.67	6285.22
442.88	6490.01
443.09	6029.22
443.30	6236.06
443.51	6404.00
443.72	6520.73
443.93	6223.78
444.14	6533.02
444.35	6143.91
444.56	6305.70
444.77	6479.77
444.98	6406.05
445.19	6442.91
445.40	6336.42
445.61	6367.13
445.81	6397.85
446.02	6571.93
446.23	6508.44
446.44	6444.96
446.65	6565.79
446.86	6516.64
447.07	6746.01
447.28	6694.81
447.49	6786.97
447.70	6733.72
447.91	6700.95
448.12	6713.24
448.33	6651.80
448.54	6860.70
448.74	6700.95
448.95	6991.77
449.16	6741.91
449.37	7071.64
449.58	6811.54
449.79	7210.90
450.00	6793.11
450.21	6961.05
450.42	7171.99
450.63	7040.92
450.84	7069.59
451.05	7137.17
451.25	6969.24
451.46	7116.69
451.67	7253.91
451.88	7210.90
452.09	7065.49
452.30	7061.40
452.51	7188.37
452.72	7344.02
452.93	7714.70
453.13	7126.93
453.34	7317.39
453.55	7395.22
453.76	7462.80
453.97	7759.75
454.18	7466.89
454.39	7606.16
454.60	7665.55
454.81	7520.14
455.01	7810.95
455.22	7448.46
455.43	7749.51
455.64	7866.25
455.85	7917.45
456.06	8042.37
456.27	8038.28
456.48	7837.58
456.68	7972.74
456.89	7907.21
457.10	8212.35
457.31	8011.65
457.52	7958.41
457.73	8241.03
457.94	8425.34
458.14	8044.42
458.35	8494.97
458.56	8390.53
458.77	8302.47
458.98	8284.03
459.19	8249.22
459.39	8507.26
459.60	8589.18
459.81	8484.73
460.02	8646.52
460.23	8511.36
460.44	8789.88
460.65	8761.21
460.85	8748.92
461.06	8988.53
461.27	8572.80
461.48	9058.17
461.69	9054.07
461.89	8734.59
462.10	8949.62
462.31	8728.44
462.52	9037.69
462.73	8959.86
462.94	9142.13
463.14	9367.41
463.35	9054.07
463.56	9662.32
463.77	9248.63
463.98	9328.50
464.18	9473.90
464.39	9541.49
464.60	9670.51
464.81	9783.15
465.02	9535.34
465.23	9989.99
465.43	9674.60
465.64	9914.22
465.85	9807.72
466.06	9807.72
466.27	10028.90
466.47	10028.90
466.68	9992.04
466.89	10157.92
467.10	10135.40
467.30	10139.49
467.51	10346.34
467.72	10450.78
467.93	10125.16
468.14	10448.74
468.34	10561.37
468.55	10526.56
468.76	10776.41
468.97	10487.65
469.17	10811.23
469.38	10753.88
469.59	11016.02
469.80	10825.56
470.01	10852.19
470.21	11024.22
470.42	11083.61
470.63	11364.18
470.84	11237.20
471.04	11161.43
471.25	11452.24
471.46	11499.34
471.67	11646.80
471.87	11749.20
472.08	11644.75
472.29	11894.60
472.50	11534.16
472.70	11650.89
472.91	11884.36
473.12	12091.21
473.33	12326.72
473.53	12298.05
473.74	12332.87
473.95	12496.71
474.16	12435.27
474.36	12482.37
474.57	12552.00
474.78	12633.92
474.99	12726.08
475.19	12767.04
475.40	12959.55
475.61	13008.70
475.81	13332.28
476.02	13315.89
476.23	13068.09
476.44	13274.93
476.64	13461.30
476.85	13653.81
477.06	13692.72
477.27	13821.74
477.47	13791.02
477.68	13877.04
477.89	14122.79
478.09	14042.92
478.30	14028.59
478.51	14305.06
478.71	14241.57
478.92	14440.23
479.13	14489.38
479.34	14788.38
479.54	14692.13
479.75	14679.84
479.96	14845.73
480.16	14911.26
480.37	14946.08
480.58	15073.05
480.78	15341.33
480.99	15386.39
481.20	15367.96
481.41	15605.52
481.61	15822.61
481.82	15488.79
482.03	15533.84
482.23	15849.23
482.44	16041.74
482.65	16326.41
482.85	16469.76
483.06	16434.95
483.27	16414.47
483.47	16461.57
483.68	16451.33
483.89	16645.89
484.09	16723.71
484.30	16723.71
484.51	16959.23
484.71	17172.22
484.92	16830.21
485.13	17133.31
485.33	16971.52
485.54	17260.28
485.75	17608.44
485.95	17534.71
486.16	17635.06
486.37	17952.49
486.57	17694.45
486.78	17878.77
486.98	17694.45
487.19	18200.30
487.40	18056.94
487.60	18302.70
487.81	18222.83
488.02	18722.53
488.22	18251.50
488.43	18757.35
488.64	18605.80
488.84	18869.98
489.05	19177.18
489.25	18767.59
489.46	19203.80
489.67	19156.70
489.87	19373.78
490.08	19152.60
490.29	19298.01
490.49	19576.53
490.70	19678.93
490.90	19789.52
491.11	19746.51
491.32	19877.58
491.52	20047.57
491.73	19828.43
491.94	20248.27
492.14	19969.74
492.35	20422.34
492.55	20223.69
492.76	20446.92
492.97	20567.75
493.17	20973.25
493.38	20709.06
493.58	20899.52
493.79	20772.55
494.00	20872.90
494.20	20889.28
494.41	21388.99
494.61	21227.20
494.82	21249.72
495.02	21233.34
495.23	21515.96
495.44	21558.97
495.64	21694.13
495.85	21638.84
496.05	21665.46
496.26	21925.55
496.47	22128.30
496.67	21683.89
496.88	22296.24
497.08	22128.30
497.29	22316.72
497.49	22093.49
497.70	22611.62
497.91	22605.48
498.11	22525.61
498.32	22435.50
498.52	22929.06
498.73	23101.09
498.93	22898.34
499.14	23045.79
499.34	22861.48
499.55	23389.85
499.76	23226.01
499.96	23266.97
500.17	23144.09
500.37	23510.68
500.58	23191.20
500.78	23695.00
500.99	23492.25
501.19	23678.61
501.40	23590.55
501.60	23977.62
501.81	23768.73
502.02	23924.37
502.22	23830.16
502.43	24309.39
502.63	24403.60
502.84	24460.94
503.04	24250.00
503.25	24293.01
503.45	24434.32
503.66	24698.50
503.86	24481.42
504.07	24622.73
504.27	24594.06
504.48	25323.13
504.68	24981.12
504.89	25290.37
505.09	25343.61
505.30	24966.79
505.50	25042.56
505.71	25587.32
505.91	25368.19
506.12	25214.59
506.32	25812.60
506.53	25572.99
506.73	25671.29
506.94	25826.93
507.14	25521.79
507.35	25710.20
507.55	25644.66
507.76	25890.42
507.96	25826.93
508.17	26148.46
508.37	26035.83
508.58	26062.45
508.78	26308.21
508.99	26394.22
509.19	26383.98
509.40	26302.06
509.60	26252.91
509.81	26373.74
510.01	26539.63
510.22	26685.03
510.42	26500.72
510.63	26773.10
510.83	26619.50
511.04	26586.73
511.24	27031.14
511.44	27156.07
511.65	26961.51
511.85	26840.68
512.06	27197.02
512.26	27188.83
512.47	27045.48
512.67	27194.98
512.88	27444.83
513.08	27033.19
513.29	27448.93
513.49	27295.33
513.69	27633.24
513.90	27653.72
514.10	27663.96
514.31	27647.58
514.51	27788.89
514.72	27844.18
514.92	27551.32
515.13	27819.61
515.33	27686.49
515.53	28296.78
515.74	28020.31
515.94	28184.15
516.15	28188.24
516.35	27846.23
516.56	28280.40
516.76	28204.63
516.96	28472.91
517.17	28712.52
517.37	28585.55
517.58	28442.19
517.78	28522.06
517.99	28794.44
518.19	28765.77
518.39	28989.00
518.60	29290.05
518.80	29007.43
519.01	29163.08
519.21	28925.51
519.41	29021.77
519.62	29060.68
519.82	29300.29
520.03	29367.87
520.23	29417.02
520.43	29474.37
520.64	29701.69
520.84	29615.68
521.05	29597.24
521.25	29806.14
521.45	29619.77
521.66	29994.55
521.86	29969.97
522.07	29943.35
522.27	30195.25
522.47	30178.87
522.68	30477.87
522.88	30555.69
523.08	30641.71
523.29	30522.93
523.49	30344.75
523.70	30721.58
523.90	30430.77
524.10	30641.71
524.31	30856.75
524.51	30705.20
524.71	31127.08
524.92	31039.01
525.12	31090.21
525.33	31610.40
525.53	31405.60
525.73	31419.94
525.94	31682.08
526.14	31444.51
526.34	31821.34
526.55	32118.29
526.75	31602.21
526.95	31888.92
527.16	31659.55
527.36	32015.90
527.56	32151.06
527.77	32466.45
527.97	32179.73
528.17	32329.23
528.38	32454.16
528.58	32558.61
528.78	32562.70
528.99	32529.94
529.19	33148.42
529.39	32466.45
529.60	33234.44
529.80	33166.85
530.00	32900.62
530.21	33248.77
530.41	33746.43
530.61	33385.99
530.82	33340.93
531.02	33486.34
531.22	33480.19
531.43	33658.37
531.63	33512.96
531.83	34000.38
532.04	34395.64
532.24	34061.82
532.44	34211.32
532.64	34119.16
532.85	34481.65
533.05	34622.96
533.25	34420.21
533.46	34553.33
533.66	34919.92
533.86	34418.16
534.07	35046.89
534.27	34600.43
534.47	35304.93
534.67	35378.66
534.88	35311.08
535.08	35538.40
535.28	35542.50
535.49	35911.13
535.69	35687.90
535.89	35831.26
536.09	35728.86
536.30	36042.20
536.50	35767.77
536.70	36324.82
536.91	35993.05
537.11	36636.11
537.31	36124.12
537.51	36629.97
537.72	36734.42
537.92	36711.89
538.12	36771.28
538.32	36523.47
538.53	37225.93
538.73	37080.52
538.93	37105.10
539.13	37313.99
539.34	36963.79
539.54	36935.12
539.74	37760.45
539.94	37641.67
540.15	37428.68
540.35	37932.48
540.55	37574.08
540.75	37735.87
540.96	38002.11
541.16	37590.47
541.36	38114.75
541.56	37721.54
541.77	38118.84
541.97	38167.99
542.17	37979.58
542.37	38544.82
542.58	38368.69
542.78	38481.33
542.98	38526.39
543.18	38565.30
543.38	38759.86
543.59	38944.17
543.79	38628.79
543.99	38649.27
544.19	39044.52
544.40	38712.75
544.60	39603.62
544.80	39146.92
545.00	39390.63
545.20	39230.89
545.41	39550.37
545.61	39550.37
545.81	39798.18
546.01	39867.81
546.21	39497.13
546.42	39697.83
546.62	40121.76
546.82	39648.68
547.02	39921.05
547.22	40244.63
547.43	39980.45
547.63	40318.36
547.83	40349.08
548.03	40156.57
548.23	40363.42
548.44	40338.84
548.64	40580.50
548.84	40445.33
549.04	40674.71
549.24	40717.71
549.45	41246.09
549.65	40875.41
549.85	40775.06
550.05	41022.86
550.25	40926.61
550.45	41491.85
550.66	41278.86
550.86	40914.32
551.06	41131.40
551.26	41301.39
551.46	41328.01
551.66	41397.64
551.87	41325.96
552.07	41432.46
552.27	41295.24
552.47	41432.46
552.67	41438.60
552.87	41760.13
553.07	41727.36
553.28	41827.71
553.48	41680.26
553.68	41852.29
553.88	41842.05
554.08	41766.27
554.28	42169.72
554.48	41872.77
554.69	41991.55
554.89	41930.11
555.09	42354.04
555.29	42042.75
555.49	42331.51
555.69	42128.77
555.89	42388.86
556.10	42554.74
556.30	41989.50
556.50	42210.68
556.70	42196.35
556.90	42659.19
557.10	42399.10
557.30	42431.86
557.50	42358.14
557.70	42734.96
557.91	43306.35
558.11	42671.48
558.31	43279.72
558.51	42313.08
558.71	42837.36
558.91	43062.64
559.11	42802.55
559.31	43124.08
559.51	42904.95
559.72	43036.02
559.92	43083.12
560.12	43316.59
560.32	43253.10
560.52	42808.69
560.72	43375.98
560.92	43597.16
561.12	42972.53
561.32	43744.61
561.52	43238.76
561.72	43562.34
561.93	43302.25
562.13	43222.38
562.33	43517.29
562.53	44000.61
562.73	43373.93
562.93	43517.29
563.13	43685.22
563.33	43289.96
563.53	43677.03
563.73	43750.76
563.93	43859.30
564.13	44197.21
564.33	44139.87
564.53	43855.20
564.74	44457.31
564.94	43367.79
565.14	44129.63
565.34	44025.18
565.54	44201.31
565.74	43951.46
565.94	44494.17
566.14	44217.69
566.34	44217.69
566.54	44561.75
566.74	44348.76
566.94	44416.35
567.14	44492.12
567.34	44229.98
567.54	44633.43
567.74	44633.43
567.94	44404.06
568.14	44670.29
568.34	44848.47
568.54	44934.48
568.74	44793.17
568.94	44875.09
569.14	44733.78
569.34	44598.62
569.54	44899.67
569.75	44649.81
569.95	45053.26
570.15	45401.42
570.35	44860.76
570.55	44780.88
570.75	44991.83
570.95	45184.33
571.15	45028.69
571.35	45352.27
571.55	45460.81
571.75	45352.27
571.95	45280.59
572.15	45315.40
572.35	45518.15
572.55	45540.68
572.75	45329.74
572.95	45663.56
573.15	45972.80
573.35	45804.87
573.55	45731.14
573.75	45675.85
573.95	45872.45
574.15	45425.99
574.35	45919.56
574.55	45985.09
574.75	45534.54
574.95	45874.50
575.15	46112.06
575.34	46196.03
575.54	46181.70
575.74	46927.16
575.94	46048.58
576.14	46406.97
576.34	46388.54
576.54	46904.63
576.74	46677.30
576.94	46396.73
577.14	46298.43
577.34	46779.70
577.54	46390.59
577.74	46777.65
577.94	46906.68
578.14	46511.42
578.34	47062.32
578.54	46441.79
578.74	47248.69
578.94	47134.00
579.14	46798.13
579.34	47013.17
579.54	47199.54
579.74	47469.87
579.94	47162.67
580.13	47394.09
580.33	46955.83
580.53	47803.69
580.73	47244.59
580.93	47365.42
581.13	47746.34
581.33	47502.64
581.53	47607.08
581.73	47430.96
581.93	48176.42
582.13	48076.07
582.33	48119.07
582.53	48096.55
582.73	48246.05
582.92	47750.44
583.12	48246.05
583.32	47949.09
583.52	47942.95
583.72	48512.28
583.92	48420.13
584.12	48104.74
584.32	48678.17
584.52	48545.05
584.72	48325.92
584.92	48319.77
585.11	49030.42
585.31	48768.28
585.51	48444.70
585.71	48901.40
585.91	49233.17
586.11	48868.63
586.31	48823.58
586.51	49083.67
586.71	49026.32
586.91	48915.73
587.10	49378.57
587.30	49298.70
587.50	49143.06
587.70	49509.64
587.90	49575.18
588.10	49569.04
588.30	49204.50
588.50	49906.95
