SpectraSuite Data File
++++++++++++++++++++++++++++++++++++
Date: Fri Jun 02 14:44:32 CEST 2017
User: INFO_000
Dark Spectrum Present: No
Reference Spectrum Present: No
Number of Sampled Component Spectra: 1
Spectrometers: USB4H00879
Integration Time (usec): 80000 (USB4H00879)
Spectra Averaged: 1 (USB4H00879)
Boxcar Smoothing: 0 (USB4H00879)
Correct for Electrical Dark: No (USB4H00879)
Strobe/Lamp Enabled: No (USB4H00879)
Correct for Detector Non-linearity: No (USB4H00879)
Correct for Stray Light: No (USB4H00879)
Number of Pixels in Processed Spectrum: 3648
>>>>>Begin Processed Spectral Data<<<<<
345.13	1275.88
345.34	1275.88
345.56	1275.88
345.78	1286.12
345.99	1275.88
346.21	1732.58
346.42	1632.23
346.64	1679.33
346.86	1814.50
347.07	1609.70
347.29	1763.30
347.50	1574.89
347.72	1642.47
347.94	1773.54
348.15	1589.22
348.37	1576.94
348.59	1718.25
348.80	1658.85
349.02	1757.16
349.23	1898.47
349.45	1748.97
349.67	1832.93
349.88	1744.87
350.10	1880.04
350.31	1734.63
350.53	1771.49
350.75	1929.19
350.96	1708.01
351.18	1759.21
351.39	1781.73
351.61	1785.83
351.82	1798.12
352.04	1800.16
352.26	1828.84
352.47	1843.17
352.69	1855.46
352.90	1728.49
353.12	1828.84
353.34	1804.26
353.55	1818.60
353.77	1800.16
353.98	1722.34
354.20	1738.73
354.41	1849.32
354.63	1839.08
354.85	2021.35
355.06	1841.12
355.28	1736.68
355.49	1867.75
355.71	1837.03
355.92	1855.46
356.14	1902.56
356.35	1787.88
356.57	1896.42
356.79	1904.61
357.00	1740.77
357.22	1955.81
357.43	1816.55
357.65	1941.47
357.86	1800.16
358.08	1914.85
358.29	1935.33
358.51	1953.76
358.72	1964.00
358.94	1841.12
359.16	1841.12
359.37	1890.28
359.59	1843.17
359.80	1882.08
360.02	1992.67
360.23	1906.66
360.45	1959.91
360.66	1902.56
360.88	1828.84
361.09	1884.13
361.31	1892.32
361.52	1937.38
361.74	2015.20
361.95	1970.15
362.17	1886.18
362.38	2027.49
362.60	2019.30
362.81	1902.56
363.03	1849.32
363.24	1961.95
363.46	2064.35
363.67	1888.23
363.89	1898.47
364.10	1976.29
364.32	1912.80
364.53	2011.11
364.75	1791.97
364.96	1959.91
365.18	2000.87
365.39	1998.82
365.61	1910.75
365.82	2064.35
366.04	1912.80
366.25	1847.27
366.47	2019.30
366.68	1990.63
366.90	1902.56
367.11	1974.24
367.33	2074.59
367.54	1994.72
367.76	1998.82
367.97	2056.16
368.19	1961.95
368.40	2111.46
368.62	1974.24
368.83	1955.81
369.05	1984.48
369.26	1925.09
369.48	1806.31
369.69	1949.67
369.91	2015.20
370.12	1990.63
370.33	2066.40
370.55	1955.81
370.76	2002.91
370.98	2023.39
371.19	1988.58
371.41	2000.87
371.62	2056.16
371.84	2015.20
372.05	2058.21
372.27	2058.21
372.48	2076.64
372.69	2004.96
372.91	2148.32
373.12	2033.63
373.34	2041.82
373.55	2039.78
373.77	2129.89
373.98	2037.73
374.20	2140.13
374.41	2160.61
374.62	2078.69
374.84	2160.61
375.05	2170.85
375.27	2152.42
375.48	2189.28
375.70	2136.03
375.91	2133.98
376.12	2285.53
376.34	2127.84
376.55	2109.41
376.77	2162.66
376.98	2117.60
377.19	2158.56
377.41	2172.89
377.62	2133.98
377.84	2211.81
378.05	2332.64
378.27	2148.32
378.48	2260.96
378.69	2334.68
378.91	2295.77
379.12	2271.20
379.34	2246.62
379.55	2320.35
379.76	2248.67
379.98	2148.32
380.19	2240.48
380.41	2250.72
380.62	2316.25
380.83	2273.25
381.05	2203.61
381.26	2396.12
381.47	2287.58
381.69	2293.72
381.90	2439.13
382.12	2330.59
382.33	2250.72
382.54	2252.77
382.76	2279.39
382.97	2330.59
383.19	2246.62
383.40	2355.16
383.61	2344.92
383.83	2220.00
384.04	2330.59
384.25	2392.03
384.47	2408.41
384.68	2373.60
384.89	2342.88
385.11	2299.87
385.32	2422.75
385.54	2383.84
385.75	2404.32
385.96	2324.44
386.18	2361.31
386.39	2443.23
386.60	2371.55
386.82	2385.88
387.03	2424.80
387.24	2482.14
387.46	2488.28
387.67	2435.03
387.88	2437.08
388.10	2523.10
388.31	2482.14
388.52	2590.68
388.74	2586.58
388.95	2498.52
389.16	2508.76
389.38	2486.23
389.59	2672.60
389.80	2654.17
390.02	2553.82
390.23	2645.98
390.44	2562.01
390.66	2498.52
390.87	2592.73
391.08	2541.53
391.30	2699.22
391.51	2656.22
391.72	2688.98
391.94	2674.65
392.15	2592.73
392.36	2643.93
392.58	2500.57
392.79	2648.02
393.00	2768.85
393.22	2598.87
393.43	2688.98
393.64	2865.11
393.85	2842.58
394.07	2658.26
394.28	2756.57
394.49	2731.99
394.71	2811.86
394.92	2867.16
395.13	2697.17
395.35	2756.57
395.56	2775.00
395.77	2777.05
395.98	2758.61
396.20	2889.68
396.41	2813.91
396.62	2973.65
396.84	2895.83
397.05	2856.92
397.26	2848.72
397.47	2930.64
397.69	2844.63
397.90	3074.00
398.11	2901.97
398.32	2983.89
398.54	2838.48
398.75	3002.32
398.96	2834.39
399.18	3057.62
399.39	2926.55
399.60	3030.99
399.81	2867.16
400.03	2973.65
400.24	3336.14
400.45	2971.60
400.66	3149.78
400.88	3018.71
401.09	3188.69
401.30	3008.47
401.51	3196.88
401.73	3235.79
401.94	3045.33
402.15	3071.95
402.36	3172.30
402.58	3182.54
402.79	3190.74
403.00	3157.97
403.21	3250.13
403.43	3213.26
403.64	3297.23
403.85	3256.27
404.06	3266.51
404.27	3131.34
404.49	3174.35
404.70	3180.50
404.91	3291.09
405.12	3248.08
405.34	3243.98
405.55	3418.06
405.76	3096.53
405.97	3227.60
406.19	3526.60
406.40	3246.03
406.61	3356.62
406.82	3413.96
407.03	3278.80
407.25	3307.47
407.46	3452.88
407.67	3430.35
407.88	3436.49
408.09	3309.52
408.31	3395.53
408.52	3370.96
408.73	3368.91
408.94	3332.05
409.15	3459.02
409.37	3581.90
409.58	3569.61
409.79	3563.47
410.00	3571.66
410.21	3403.72
410.43	3608.52
410.64	3356.62
410.85	3557.32
411.06	3528.65
411.27	3477.45
411.48	3655.62
411.70	3647.43
411.91	3629.00
412.12	3764.17
412.33	3614.66
412.54	3518.41
412.76	3712.97
412.97	3770.31
413.18	3583.95
413.39	3667.91
413.60	3653.58
413.81	3667.91
414.03	3575.75
414.24	3653.58
414.45	3837.89
414.66	3647.43
414.87	3743.69
415.08	3635.14
415.30	3780.55
415.51	3764.17
415.72	3710.92
415.93	3741.64
416.14	3731.40
416.35	3821.51
416.56	3731.40
416.78	3862.47
416.99	3846.09
417.20	3807.17
417.41	3909.57
417.62	3901.38
417.83	3885.00
418.04	3919.81
418.26	3885.00
418.47	4097.99
418.68	4108.23
418.89	4079.55
419.10	4108.23
419.31	3917.76
419.52	4014.02
419.73	4030.40
419.95	3971.01
420.16	3999.68
420.37	4032.45
420.58	4118.47
420.79	3952.58
421.00	4140.99
421.21	4165.57
421.42	4005.83
421.63	4114.37
421.85	4059.07
422.06	4327.36
422.27	4294.59
422.48	4104.13
422.69	4259.78
422.90	4186.05
423.11	4403.13
423.32	4335.55
423.53	4501.44
423.75	4319.17
423.96	4491.20
424.17	4503.48
424.38	4562.87
424.59	4583.35
424.80	4677.56
425.01	4433.85
425.22	4392.89
425.43	4503.48
425.64	4663.22
425.85	4730.81
426.06	4468.67
426.28	4687.80
426.49	4513.72
426.70	4675.51
426.91	4564.92
427.12	4734.90
427.33	4732.86
427.54	4655.03
427.75	4747.19
427.96	4863.93
428.17	4804.53
428.38	4892.60
428.59	4945.84
428.80	4763.58
429.01	4804.53
429.23	4865.97
429.44	5099.44
429.65	4992.95
429.86	5001.14
430.07	4870.07
430.28	4929.46
430.49	5091.25
430.70	5246.90
430.91	5099.44
431.12	5035.96
431.33	5189.55
431.54	5236.66
431.75	5013.43
431.96	5253.04
432.17	5048.24
432.38	5068.72
432.59	5437.36
432.80	5418.93
433.01	5363.63
433.22	5281.71
433.43	5320.62
433.64	5400.49
433.85	5263.28
434.06	5550.00
434.27	5312.43
434.49	5420.97
434.70	5652.39
434.91	5457.84
435.12	5590.95
435.33	5441.45
435.54	5488.56
435.75	5459.88
435.96	5398.45
436.17	5496.75
436.38	5633.96
436.59	5613.48
436.80	5345.20
437.01	5889.96
437.22	5875.62
437.43	5679.02
437.64	5463.98
437.85	5795.75
438.06	5877.67
438.27	5775.27
438.48	5754.79
438.69	5894.05
438.90	5820.33
439.11	5793.70
439.32	5820.33
439.53	5994.40
439.74	5918.63
439.95	5885.86
440.16	5834.66
440.37	5826.47
440.57	5949.35
440.78	6102.95
440.99	5973.92
441.20	6137.76
441.41	5840.81
441.62	6092.71
441.83	5795.75
442.04	6123.43
442.25	6113.19
442.46	6201.25
442.67	6391.71
442.88	6578.08
443.09	6004.64
443.30	6219.68
443.51	6404.00
443.72	6487.96
443.93	6315.94
444.14	6451.10
444.35	6010.79
444.56	6410.14
444.77	6332.32
444.98	6363.04
445.19	6502.30
445.40	6477.73
445.61	6289.31
445.81	6520.73
446.02	6664.09
446.23	6520.73
446.44	6514.59
446.65	6508.44
446.86	6549.40
447.07	6549.40
447.28	6870.94
447.49	6616.99
447.70	6659.99
447.91	6666.14
448.12	6655.90
448.33	6862.74
448.54	6827.93
448.74	6643.61
448.95	6741.91
449.16	6696.86
449.37	7081.88
449.58	6774.68
449.79	7184.27
450.00	6717.34
450.21	7020.44
450.42	7188.37
450.63	6975.38
450.84	6866.84
451.05	7165.84
451.25	7159.70
451.46	7045.01
451.67	7288.72
451.88	7413.65
452.09	7286.67
452.30	7169.94
452.51	7268.24
452.72	7477.13
452.93	7708.55
453.13	7102.36
453.34	7495.57
453.55	7321.49
453.76	7368.59
453.97	7765.90
454.18	7368.59
454.39	7692.17
454.60	7571.34
454.81	7487.37
455.01	7772.04
455.22	7493.52
455.43	7708.55
455.64	7810.95
455.85	7784.33
456.06	8114.05
456.27	7806.86
456.48	7729.03
456.68	8011.65
456.89	8046.47
457.10	7933.83
457.31	8030.09
457.52	8241.03
457.73	8040.33
457.94	8163.20
458.14	8122.24
458.35	8365.95
458.56	8435.58
458.77	8281.99
458.98	8406.91
459.19	8394.62
459.39	8359.81
459.60	8679.29
459.81	8474.49
460.02	8550.27
460.23	8427.39
460.44	8841.08
460.65	8664.96
460.85	8767.35
461.06	8896.38
461.27	8564.61
461.48	9062.26
461.69	9049.97
461.89	8759.16
462.10	9035.64
462.31	8802.17
462.52	9019.25
462.73	8886.14
462.94	9242.48
463.14	9162.61
463.35	9039.73
463.56	9422.70
463.77	9375.60
463.98	9258.87
464.18	9428.85
464.39	9594.73
464.60	9713.52
464.81	9715.56
465.02	9514.86
465.23	9783.15
465.43	9596.78
465.64	9834.35
465.85	9834.35
466.06	9914.22
466.27	10198.88
466.47	9936.74
466.68	9998.18
466.89	9922.41
467.10	10262.37
467.30	9971.56
467.51	10428.26
467.72	10454.88
467.93	10178.40
468.14	10524.51
468.34	10620.77
468.55	10786.65
468.76	10387.30
468.97	10592.09
469.17	10872.67
469.38	10907.48
469.59	11024.22
469.80	10653.53
470.01	10970.97
470.21	11046.74
470.42	11286.36
470.63	11407.19
470.84	11171.67
471.04	11433.81
471.25	11362.13
471.46	11425.62
471.67	11620.17
471.87	11497.30
472.08	11788.11
472.29	12046.15
472.50	11415.38
472.70	11810.64
472.91	11988.81
473.12	12029.77
473.33	12107.59
473.53	12304.20
473.74	11921.23
473.95	12523.33
474.16	12361.54
474.36	12488.51
474.57	12586.82
474.78	12754.75
474.99	12756.80
475.19	12693.31
475.40	12838.72
475.61	13074.23
475.81	13170.49
476.02	13279.03
476.23	13174.58
476.44	13264.69
476.64	13506.35
476.85	13694.77
477.06	13641.52
477.27	14028.59
477.47	13897.52
477.68	13815.60
477.89	14128.94
478.09	14057.26
478.30	14028.59
478.51	14311.21
478.71	14378.79
478.92	14448.42
479.13	14565.15
479.34	14704.42
479.54	14849.82
479.75	14860.06
479.96	14698.27
480.16	14917.40
480.37	15226.65
480.58	15208.22
480.78	15230.74
480.99	15335.19
481.20	15474.45
481.41	15445.78
481.61	15767.31
481.82	15822.61
482.03	15648.53
482.23	16035.60
482.44	15869.71
482.65	16008.97
482.85	16215.82
483.06	16340.74
483.27	16252.68
483.47	16398.09
483.68	16592.64
483.89	16639.75
484.09	16611.07
484.30	16967.42
484.51	16877.31
484.71	17014.52
484.92	16783.10
485.13	17284.86
485.33	17121.02
485.54	17293.05
485.75	17432.31
485.95	17628.92
486.16	17610.48
486.37	17899.25
486.57	17624.82
486.78	18013.93
486.98	17792.75
487.19	18140.91
487.40	18185.96
487.60	18083.56
487.81	18280.17
488.02	18439.91
488.22	18153.20
488.43	18726.63
488.64	18482.92
488.84	18683.62
489.05	19093.21
489.25	18861.79
489.46	19238.62
489.67	18927.33
489.87	19140.32
490.08	19484.37
490.29	19330.78
490.49	19625.68
490.70	19474.13
490.90	19717.84
491.11	19750.61
491.32	19658.45
491.52	19824.34
491.73	19637.97
491.94	20047.57
492.14	20088.53
492.35	20561.61
492.55	20453.06
492.76	20315.85
492.97	20801.22
493.17	20645.57
493.38	20481.74
493.58	20846.27
493.79	20852.42
494.00	20715.20
494.20	21003.97
494.41	21239.48
494.61	21204.67
494.82	21178.04
495.02	21391.03
495.23	21483.19
495.44	21640.89
495.64	21550.78
495.85	21827.25
496.05	21966.51
496.26	21997.23
496.47	22257.32
496.67	22093.49
496.88	22195.89
497.08	21917.36
497.29	22273.71
497.49	22367.91
497.70	22367.91
497.91	22314.67
498.11	22484.65
498.32	22736.55
498.52	22916.77
498.73	23193.25
498.93	22892.19
499.14	22920.87
499.34	23215.77
499.55	23318.17
499.76	23137.95
499.96	23152.29
500.17	23371.42
500.37	23674.52
500.58	23684.76
500.78	23928.47
500.99	23553.69
501.19	23938.71
501.40	23879.32
501.60	23756.44
501.81	23932.56
502.02	24022.67
502.22	23830.16
502.43	24092.30
502.63	24477.32
502.84	24358.54
503.04	24546.95
503.25	24239.76
503.45	24612.49
503.66	24741.51
503.86	24737.41
504.07	24917.64
504.27	24620.68
504.48	25108.10
504.68	25071.23
504.89	25269.89
505.09	25118.34
505.30	25122.43
505.50	25337.47
505.71	25134.72
505.91	25351.81
506.12	25364.09
506.32	25370.24
506.53	25325.18
506.73	25554.55
506.94	25562.75
507.14	25433.72
507.35	25728.63
507.55	25800.31
507.76	26052.21
507.96	25796.21
508.17	25937.52
508.37	26140.27
508.58	26107.51
508.78	26228.34
508.99	26556.01
509.19	26433.13
509.40	26822.25
509.60	26568.30
509.81	26689.13
510.01	26695.27
510.22	26289.77
510.42	26558.06
510.63	26525.29
510.83	26660.46
511.04	26963.56
511.24	26984.04
511.44	26607.21
511.65	26969.70
511.85	26887.78
512.06	27043.43
512.26	27129.44
512.47	27184.74
512.67	27317.86
512.88	27143.78
513.08	27268.70
513.29	27438.69
513.49	27166.31
513.69	27584.09
513.90	27809.37
514.10	27637.34
514.31	27657.82
514.51	27776.60
514.72	27629.15
514.92	27551.32
515.13	27782.74
515.33	27668.06
515.53	27823.70
515.74	28024.40
515.94	28497.49
516.15	28151.38
516.35	27989.59
516.56	28165.71
516.76	28401.23
516.96	28458.57
517.17	28651.08
517.37	28581.45
517.58	28393.04
517.78	28454.48
517.99	28573.26
518.19	28505.68
518.39	28696.14
518.60	28882.50
518.80	28968.52
519.01	29060.68
519.21	29023.81
519.41	28997.19
519.62	28835.40
519.82	29113.92
520.03	29079.11
520.23	29062.72
520.43	29167.17
520.64	29343.30
520.84	29627.96
521.05	29668.92
521.25	29193.79
521.45	29716.03
521.66	30051.89
521.86	29705.79
522.07	29955.64
522.27	29691.45
522.47	30170.68
522.68	30443.06
522.88	30205.49
523.08	30512.69
523.29	30195.25
523.49	30301.75
523.70	30266.93
523.90	30711.34
524.10	30916.14
524.31	30787.11
524.51	30150.20
524.71	31102.50
524.92	30938.66
525.12	31045.16
525.33	31178.28
525.53	30850.60
525.73	31491.62
525.94	31467.04
526.14	31677.98
526.34	31479.33
526.55	31493.66
526.75	31305.25
526.95	31720.99
527.16	31903.26
527.36	32212.50
527.56	32175.64
527.77	32605.71
527.97	32239.12
528.17	32132.63
528.38	32458.26
528.58	32697.87
528.78	32523.79
528.99	32597.52
529.19	33009.16
529.39	32658.96
529.60	32984.58
529.80	32904.71
530.00	32843.27
530.21	33302.02
530.41	33185.29
530.61	33314.31
530.82	33209.86
531.02	33306.12
531.22	33445.38
531.43	33549.82
531.63	33842.68
531.83	33906.17
532.04	34639.34
532.24	33816.06
532.44	34221.56
532.64	34444.79
532.85	34305.52
533.05	34156.02
533.25	34774.51
533.46	34491.89
533.66	35091.94
533.86	34903.53
534.07	34981.35
534.27	34979.31
534.47	35358.18
534.67	35403.24
534.88	35184.10
535.08	35257.83
535.28	35861.98
535.49	35442.15
535.69	35784.16
535.89	35816.93
536.09	35898.84
536.30	36365.78
536.50	36353.49
536.70	36187.61
536.91	36232.66
537.11	36449.75
537.31	36486.61
537.51	36455.89
537.72	36949.45
537.92	36894.16
538.12	37041.61
538.32	36496.85
538.53	37387.72
538.73	36771.28
538.93	37146.06
539.13	37076.43
539.34	37471.68
539.54	37629.38
539.74	37746.11
539.94	37252.55
540.15	37504.45
540.35	37909.95
540.55	37985.72
540.75	37914.05
540.96	37934.53
541.16	38114.75
541.36	38049.21
541.56	38176.19
541.77	38462.90
541.97	38016.44
542.17	38514.10
542.37	38585.78
542.58	38630.83
542.78	38442.42
542.98	38671.79
543.18	38718.90
543.38	39163.31
543.59	39026.09
543.79	38952.37
543.99	38952.37
544.19	39142.83
544.40	38737.33
544.60	39280.04
544.80	39695.78
545.00	39044.52
545.20	39751.07
545.41	39486.89
545.61	39552.42
545.81	39601.57
546.01	39671.20
546.21	39822.75
546.42	39669.15
546.62	39949.73
546.82	39681.44
547.02	40037.79
547.22	40283.55
547.43	40211.87
547.63	40498.58
547.83	40469.91
548.03	39779.74
548.23	40457.62
548.44	40490.39
548.64	40426.90
548.84	40400.28
549.04	40291.74
549.24	40762.77
549.45	40850.83
549.65	40494.49
549.85	40719.76
550.05	41043.34
550.25	40699.28
550.45	41194.89
550.66	40803.73
550.86	40975.76
551.06	41297.29
551.26	41248.14
551.46	41424.26
551.66	41500.04
551.87	41147.79
552.07	41069.97
552.27	41186.70
552.47	41575.81
552.67	41618.82
552.87	41383.30
553.07	41371.02
553.28	41710.98
553.48	41649.54
553.68	41536.90
553.88	42085.76
554.08	41942.40
554.28	41926.02
554.48	41856.39
554.69	42034.56
554.89	41956.74
555.09	41665.92
555.29	41991.55
555.49	42141.05
555.69	42237.31
555.89	42186.11
556.10	42388.86
556.30	42200.44
556.50	42169.72
556.70	42401.14
556.90	42880.37
557.10	42550.65
557.30	42296.70
557.50	42630.52
557.70	42474.87
557.91	43093.36
558.11	42214.78
558.31	42884.47
558.51	42472.82
558.71	42663.28
558.91	43033.97
559.11	42952.05
559.31	42534.26
559.51	42665.33
559.72	43013.49
559.92	42874.23
560.12	42702.20
560.32	42882.42
560.52	43027.82
560.72	43021.68
560.92	43171.18
561.12	43396.46
561.32	43283.82
561.52	42988.91
561.72	43791.72
561.93	43154.80
562.13	43343.21
562.33	43070.83
562.53	43683.17
562.73	43421.03
562.93	43294.06
563.13	43582.82
563.33	43459.94
563.53	43539.82
563.73	43068.78
563.93	44051.81
564.13	43885.92
564.33	44141.92
564.53	43734.37
564.74	44166.49
564.94	43789.67
565.14	43701.61
565.34	43554.15
565.54	43838.82
565.74	43746.66
565.94	44281.18
566.14	43969.89
566.34	44129.63
566.54	44236.12
566.74	44098.91
566.94	44324.19
567.14	44651.86
567.34	44369.24
567.54	44375.39
567.74	44678.49
567.94	44195.17
568.14	44440.92
568.34	44782.93
568.54	44557.66
568.74	45063.50
568.94	44668.25
569.14	45030.74
569.34	45028.69
569.54	44946.77
569.75	44731.73
569.95	44631.38
570.15	45352.27
570.35	45243.73
570.55	44971.35
570.75	44897.62
570.95	45149.52
571.15	45354.32
571.35	45057.36
571.55	45505.87
571.75	45172.05
571.95	45862.21
572.15	45526.35
572.35	45845.83
572.55	45892.93
572.75	45743.43
572.95	45575.50
573.15	45829.44
573.35	45706.57
573.55	46013.76
573.75	45653.32
573.95	45831.49
574.15	45671.75
574.35	46499.13
574.55	46118.21
574.75	46179.65
574.95	46091.58
575.15	45821.25
575.34	46097.73
575.54	46314.81
575.74	46374.20
575.94	46415.16
576.14	46312.77
576.34	46980.40
576.54	46726.46
576.74	46093.63
576.94	46177.60
577.14	46615.86
577.34	47140.14
577.54	46570.81
577.74	46728.50
577.94	46865.72
578.14	46875.96
578.34	47303.98
578.54	46765.37
578.74	47078.71
578.94	47271.21
579.14	47076.66
579.34	46974.26
579.54	47590.70
579.74	47553.83
579.94	47246.64
580.13	47754.54
580.33	47353.13
580.53	47732.01
580.73	47605.03
580.93	47641.90
581.13	47654.18
581.33	47916.32
581.53	48166.18
581.73	47801.64
581.93	48266.53
582.13	48303.39
582.33	48274.72
582.53	48203.04
582.73	48565.53
582.92	48010.53
583.12	48338.21
583.32	47916.32
583.52	48461.08
583.72	48559.39
583.92	48254.24
584.12	48796.95
584.32	49427.73
584.52	48915.73
584.72	48815.38
584.92	48616.73
585.11	48712.98
585.31	49059.09
585.51	49003.80
585.71	48794.90
585.91	49493.26
586.11	48776.47
586.31	49253.65
586.51	49124.63
586.71	48989.46
586.91	49837.32
587.10	49442.06
587.30	49227.02
587.50	49052.95
587.70	49659.15
587.90	49480.97
588.10	49599.76
588.30	49575.18
588.50	49640.71
