SpectraSuite Data File
++++++++++++++++++++++++++++++++++++
Date: Fri Jun 02 14:44:38 CEST 2017
User: INFO_000
Dark Spectrum Present: No
Reference Spectrum Present: No
Number of Sampled Component Spectra: 1
Spectrometers: USB4H00879
Integration Time (usec): 80000 (USB4H00879)
Spectra Averaged: 1 (USB4H00879)
Boxcar Smoothing: 0 (USB4H00879)
Correct for Electrical Dark: No (USB4H00879)
Strobe/Lamp Enabled: No (USB4H00879)
Correct for Detector Non-linearity: No (USB4H00879)
Correct for Stray Light: No (USB4H00879)
Number of Pixels in Processed Spectrum: 3648
>>>>>Begin Processed Spectral Data<<<<<
345.13	1228.78
345.34	1228.78
345.56	1228.78
345.78	1204.21
345.99	1310.70
346.21	1755.11
346.42	1716.20
346.64	1634.28
346.86	1728.49
347.07	1656.81
347.29	1712.10
347.50	1695.72
347.72	1703.91
347.94	1736.68
348.15	1554.41
348.37	1640.42
348.59	1665.00
348.80	1603.56
349.02	1828.84
349.23	1916.90
349.45	1841.12
349.67	1843.17
349.88	1794.02
350.10	1925.09
350.31	1880.04
350.53	1826.79
350.75	1929.19
350.96	1748.97
351.18	1931.23
351.39	1847.27
351.61	1720.29
351.82	1918.95
352.04	1884.13
352.26	1849.32
352.47	1882.08
352.69	1910.75
352.90	1798.12
353.12	1849.32
353.34	1847.27
353.55	1978.34
353.77	1855.46
353.98	1824.74
354.20	1841.12
354.41	1988.58
354.63	1929.19
354.85	2033.63
355.06	1884.13
355.28	1751.01
355.49	1912.80
355.71	1900.52
355.92	1851.36
356.14	1966.05
356.35	1826.79
356.57	1908.71
356.79	1902.56
357.00	1845.22
357.22	1931.23
357.43	1834.98
357.65	1957.86
357.86	1830.88
358.08	1968.10
358.29	2000.87
358.51	1980.39
358.72	1937.38
358.94	1900.52
359.16	1955.81
359.37	1996.77
359.59	1902.56
359.80	1970.15
360.02	1945.57
360.23	1957.86
360.45	2029.54
360.66	2015.20
360.88	1855.46
361.09	1902.56
361.31	1961.95
361.52	1949.67
361.74	2097.12
361.95	2027.49
362.17	1957.86
362.38	2033.63
362.60	2054.11
362.81	1996.77
363.03	1955.81
363.24	1957.86
363.46	2062.30
363.67	1998.82
363.89	1974.24
364.10	1992.67
364.32	1931.23
364.53	2015.20
364.75	1898.47
364.96	2015.20
365.18	2039.78
365.39	1982.43
365.61	1906.66
365.82	2105.31
366.04	2054.11
366.25	1978.34
366.47	2015.20
366.68	1957.86
366.90	1974.24
367.11	2107.36
367.33	2039.78
367.54	2125.79
367.76	1992.67
367.97	2222.05
368.19	2035.68
368.40	2066.40
368.62	1992.67
368.83	2007.01
369.05	2123.74
369.26	2027.49
369.48	2007.01
369.69	2011.11
369.91	2062.30
370.12	2004.96
370.33	2119.65
370.55	2011.11
370.76	2054.11
370.98	2109.41
371.19	2015.20
371.41	2027.49
371.62	2054.11
371.84	1974.24
372.05	2205.66
372.27	2113.50
372.48	1959.91
372.69	2076.64
372.91	2131.94
373.12	2109.41
373.34	2070.50
373.55	2113.50
373.77	2207.71
373.98	2070.50
374.20	2179.04
374.41	2277.34
374.62	2133.98
374.84	2189.28
375.05	2136.03
375.27	2115.55
375.48	2230.24
375.70	2127.84
375.91	2213.85
376.12	2234.33
376.34	2197.47
376.55	2154.46
376.77	2148.32
376.98	2187.23
377.19	2121.70
377.41	2138.08
377.62	2258.91
377.84	2246.62
378.05	2306.01
378.27	2238.43
378.48	2299.87
378.69	2281.44
378.91	2306.01
379.12	2191.33
379.34	2211.81
379.55	2342.88
379.76	2232.29
379.98	2199.52
380.19	2246.62
380.41	2351.07
380.62	2318.30
380.83	2265.05
381.05	2213.85
381.26	2482.14
381.47	2269.15
381.69	2303.96
381.90	2463.71
382.12	2349.02
382.33	2269.15
382.54	2312.16
382.76	2332.64
382.97	2373.60
383.19	2281.44
383.40	2408.41
383.61	2295.77
383.83	2293.72
384.04	2293.72
384.25	2342.88
384.47	2445.27
384.68	2410.46
384.89	2269.15
385.11	2334.68
385.32	2406.36
385.54	2291.68
385.75	2330.59
385.96	2447.32
386.18	2422.75
386.39	2349.02
386.60	2379.74
386.82	2396.12
387.03	2475.99
387.24	2418.65
387.46	2437.08
387.67	2437.08
387.88	2424.80
388.10	2492.38
388.31	2516.95
388.52	2461.66
388.74	2478.04
388.95	2574.30
389.16	2451.42
389.38	2478.04
389.59	2578.39
389.80	2684.89
390.02	2607.06
390.23	2613.21
390.44	2422.75
390.66	2523.10
390.87	2516.95
391.08	2697.17
391.30	2693.08
391.51	2668.50
391.72	2658.26
391.94	2637.78
392.15	2682.84
392.36	2602.97
392.58	2574.30
392.79	2674.65
393.00	2684.89
393.22	2750.42
393.43	2762.71
393.64	2740.18
393.85	2789.33
394.07	2699.22
394.28	2729.94
394.49	2756.57
394.71	2807.77
394.92	2748.37
395.13	2678.74
395.35	2838.48
395.56	2807.77
395.77	2842.58
395.98	2832.34
396.20	2994.13
396.41	2879.44
396.62	2887.64
396.84	2803.67
397.05	2832.34
397.26	2858.96
397.47	3012.56
397.69	2852.82
397.90	3018.71
398.11	2961.36
398.32	2889.68
398.54	2846.68
398.75	2961.36
398.96	2990.03
399.18	3119.06
399.39	2930.64
399.60	3039.19
399.81	2981.84
400.03	3012.56
400.24	3274.70
400.45	2961.36
400.66	3082.19
400.88	2983.89
401.09	3231.69
401.30	3090.38
401.51	3213.26
401.73	3164.11
401.94	3141.58
402.15	3133.39
402.36	3121.10
402.58	3086.29
402.79	3157.97
403.00	3248.08
403.21	3239.89
403.43	3295.18
403.64	3315.66
403.85	3153.87
404.06	3235.79
404.27	3043.28
404.49	3149.78
404.70	3223.50
404.91	3174.35
405.12	3301.33
405.34	3241.93
405.55	3375.05
405.76	3190.74
405.97	3252.17
406.19	3350.48
406.40	3231.69
406.61	3399.63
406.82	3403.72
407.03	3282.89
407.25	3252.17
407.46	3454.92
407.67	3422.16
407.88	3538.89
408.09	3368.91
408.31	3293.13
408.52	3536.84
408.73	3395.53
408.94	3272.65
409.15	3522.51
409.37	3612.62
409.58	3373.00
409.79	3383.24
410.00	3542.99
410.21	3456.97
410.43	3524.55
410.64	3377.10
410.85	3637.19
411.06	3624.90
411.27	3682.25
411.48	3698.63
411.70	3542.99
411.91	3649.48
412.12	3794.89
412.33	3649.48
412.54	3637.19
412.76	3620.81
412.97	3758.02
413.18	3565.51
413.39	3704.78
413.60	3641.29
413.81	3612.62
414.03	3657.67
414.24	3686.34
414.45	3899.33
414.66	3504.07
414.87	3610.57
415.08	3739.59
415.30	3725.26
415.51	3766.21
415.72	3758.02
415.93	3841.99
416.14	3780.55
416.35	3803.08
416.56	3778.50
416.78	3889.09
416.99	3850.18
417.20	3794.89
417.41	3971.01
417.62	3989.44
417.83	3975.11
418.04	3813.32
418.26	3991.49
418.47	3923.91
418.68	3985.35
418.89	4042.69
419.10	4163.52
419.31	4011.97
419.52	4108.23
419.73	4104.13
419.95	4159.42
420.16	4028.35
420.37	4007.87
420.58	4085.70
420.79	3944.39
421.00	4038.59
421.21	4159.42
421.42	4177.86
421.63	4349.89
421.85	4181.95
422.06	4278.21
422.27	4292.54
422.48	4247.49
422.69	4267.97
422.90	4319.17
423.11	4290.49
423.32	4265.92
423.53	4433.85
423.75	4450.24
423.96	4476.86
424.17	4485.05
424.38	4483.00
424.59	4446.14
424.80	4677.56
425.01	4444.09
425.22	4499.39
425.43	4427.71
425.64	4593.59
425.85	4710.33
426.06	4636.60
426.28	4595.64
426.49	4642.75
426.70	4513.72
426.91	4526.01
427.12	4636.60
427.33	4657.08
427.54	4706.23
427.75	4773.82
427.96	4892.60
428.17	4702.14
428.38	4759.48
428.59	4765.62
428.80	4767.67
429.01	4882.36
429.23	4734.90
429.44	4911.03
429.65	5001.14
429.86	4837.30
430.07	4790.20
430.28	4915.12
430.49	4923.32
430.70	5107.63
430.91	5091.25
431.12	4988.85
431.33	5167.03
431.54	5197.74
431.75	5144.50
431.96	5150.64
432.17	5107.63
432.38	5038.00
432.59	5478.32
432.80	5240.75
433.01	5359.53
433.22	5404.59
433.43	5207.98
433.64	5199.79
433.85	5318.57
434.06	5351.34
434.27	5341.10
434.49	5351.34
434.70	5472.17
434.91	5496.75
435.12	5334.96
435.33	5429.17
435.54	5529.52
435.75	5232.56
435.96	5377.97
436.17	5380.01
436.38	5590.95
436.59	5652.39
436.80	5640.11
437.01	5818.28
437.22	5863.33
437.43	5527.47
437.64	5416.88
437.85	5793.70
438.06	5781.42
438.27	5697.45
438.48	5728.17
438.69	5664.68
438.90	5607.34
439.11	5687.21
439.32	6035.36
439.53	5642.15
439.74	5734.31
439.95	6012.84
440.16	5937.06
440.37	5984.16
440.57	5758.89
440.78	6074.28
440.99	6033.32
441.20	6158.24
441.41	5898.15
441.62	6037.41
441.83	5889.96
442.04	6131.62
442.25	6027.17
442.46	6164.39
442.67	6209.44
442.88	6451.10
443.09	6135.71
443.30	6199.20
443.51	6283.17
443.72	6490.01
443.93	6328.22
444.14	6391.71
444.35	6287.26
444.56	6516.64
444.77	6383.52
444.98	6475.68
445.19	6381.47
445.40	6481.82
445.61	6377.37
445.81	6625.18
446.02	6664.09
446.23	6539.16
446.44	6430.62
446.65	6600.60
446.86	6539.16
447.07	6633.37
447.28	6956.95
447.49	6784.92
447.70	6700.95
447.91	6750.10
448.12	6594.46
448.33	6840.22
448.54	6836.12
448.74	6676.38
448.95	6772.63
449.16	6782.87
449.37	7081.88
449.58	6856.60
449.79	7104.40
450.00	6959.00
450.21	6909.85
450.42	7116.69
450.63	7112.60
450.84	6944.66
451.05	7108.50
451.25	7217.04
451.46	7065.49
451.67	7311.25
451.88	7479.18
452.09	7206.80
452.30	7169.94
452.51	7301.01
452.72	7327.63
452.93	7579.53
453.13	7378.83
453.34	7358.35
453.55	7395.22
453.76	7292.82
453.97	7743.37
454.18	7501.71
454.39	7587.72
454.60	7550.86
454.81	7604.11
455.01	7858.06
455.22	7425.93
455.43	7632.78
455.64	8085.38
455.85	7919.50
456.06	8085.38
456.27	7923.59
456.48	7757.71
456.68	7884.68
456.89	7948.17
457.10	8177.54
457.31	7921.54
457.52	8161.16
457.73	8095.62
457.94	8294.27
458.14	7954.31
458.35	8576.89
458.56	8216.45
458.77	8195.97
458.98	8587.13
459.19	8439.68
459.39	8341.38
459.60	8476.54
459.81	8427.39
460.02	8646.52
460.23	8490.88
460.44	8740.73
460.65	8710.01
460.85	8654.72
461.06	8822.65
461.27	8570.75
461.48	8879.99
461.69	8986.49
461.89	8734.59
462.10	8834.94
462.31	8773.50
462.52	8869.75
462.73	9000.82
462.94	9062.26
463.14	9148.28
463.35	9039.73
463.56	9631.60
463.77	9457.52
463.98	9119.60
464.18	9459.57
464.39	9559.92
464.60	9531.25
464.81	9492.34
465.02	9369.46
465.23	9650.03
465.43	9430.90
465.64	9908.07
465.85	9766.76
466.06	9682.80
466.27	10119.01
466.47	10094.44
466.68	9903.98
466.89	9856.87
467.10	10139.49
467.30	9793.39
467.51	10231.65
467.72	10542.94
467.93	10293.09
468.14	10444.64
468.34	10334.05
468.55	10434.40
468.76	10491.74
468.97	10409.83
469.17	10624.86
469.38	10819.42
469.59	10846.04
469.80	10635.10
470.01	10819.42
470.21	10915.67
470.42	11267.92
470.63	11288.40
470.84	11030.36
471.04	11231.06
471.25	11433.81
471.46	11419.47
471.67	11521.87
471.87	11665.23
472.08	11710.29
472.29	11808.59
472.50	11636.56
472.70	11558.74
472.91	11757.39
473.12	11870.03
473.33	12054.34
473.53	12513.09
473.74	12134.21
473.95	12353.35
474.16	12445.51
474.36	12488.51
474.57	12599.10
474.78	12633.92
474.99	12613.44
475.19	12468.03
475.40	13000.51
475.61	13057.85
475.81	12908.35
476.02	13334.32
476.23	13076.28
476.44	13352.76
476.64	13655.86
476.85	13631.28
477.06	13635.38
477.27	13866.80
477.47	13903.66
477.68	13803.31
477.89	14165.80
478.09	14130.98
478.30	14147.37
478.51	13913.90
478.71	14530.34
478.92	14442.28
479.13	14612.26
479.34	14698.27
479.54	14630.69
479.75	14593.83
479.96	14978.84
480.16	14929.69
480.37	15173.40
480.58	15265.56
480.78	15400.72
480.99	15361.81
481.20	15501.08
481.41	15527.70
481.61	15961.87
481.82	15925.00
482.03	15771.41
482.23	15933.20
482.44	16367.37
482.65	16217.86
482.85	16396.04
483.06	16281.35
483.27	16379.65
483.47	16457.48
483.68	16633.60
483.89	16705.28
484.09	16924.41
484.30	16854.78
484.51	17108.73
484.71	17159.93
484.92	16948.99
485.13	17491.70
485.33	17477.37
485.54	17671.92
485.75	17770.22
485.95	17669.87
486.16	17716.98
486.37	17944.30
486.57	17624.82
486.78	18044.65
486.98	17907.44
487.19	18278.12
487.40	18484.97
487.60	18495.21
487.81	18472.68
488.02	18452.20
488.22	18501.35
488.43	18458.34
488.64	19009.25
488.84	18921.18
489.05	18900.70
489.25	18925.28
489.46	19031.77
489.67	19107.55
489.87	19418.84
490.08	19386.07
490.29	19441.37
490.49	19613.40
490.70	19885.78
490.90	19789.52
491.11	19941.07
491.32	20117.20
491.52	19994.32
491.73	20059.85
491.94	20119.24
492.14	20274.89
492.35	20250.32
492.55	20330.19
492.76	20547.27
492.97	20713.16
493.17	20582.09
493.38	20631.24
493.58	20770.50
493.79	20989.63
494.00	20721.35
494.20	21128.89
494.41	20985.54
494.61	21253.82
494.82	21505.72
495.02	21171.90
495.23	21425.85
495.44	21374.65
495.64	21884.59
495.85	21604.02
496.05	21706.42
496.26	21855.92
496.47	21898.93
496.67	21954.22
496.88	22132.40
497.08	21917.36
497.29	22267.56
497.49	21970.61
497.70	22316.72
497.91	22505.13
498.11	22460.07
498.32	22810.28
498.52	22662.82
498.73	22785.70
498.93	22759.08
499.14	23107.23
499.34	22836.90
499.55	22924.96
499.76	22865.57
499.96	23217.82
500.17	23215.77
500.37	23367.32
500.58	23203.49
500.78	23260.83
500.99	23342.75
501.19	23586.46
501.40	23668.37
501.60	23420.57
501.81	23416.47
502.02	23580.31
502.22	23719.57
502.43	24028.82
502.63	23905.94
502.84	24110.74
503.04	24018.58
503.25	24245.90
503.45	24026.77
503.66	24387.21
503.86	24170.13
504.07	24811.14
504.27	24397.45
504.48	24422.03
504.68	24575.62
504.89	24954.50
505.09	24757.89
505.30	24657.54
505.50	24751.75
505.71	25091.71
505.91	25032.32
506.12	25044.61
506.32	25169.54
506.53	24950.40
506.73	25425.53
506.94	25181.82
507.14	25249.41
507.35	25519.74
507.55	25486.97
507.76	25781.88
507.96	25302.65
508.17	25312.89
508.37	25677.43
508.58	25501.31
508.78	25855.61
508.99	26185.33
509.19	25781.88
509.40	25915.00
509.60	25974.39
509.81	26193.52
510.01	26117.75
510.22	26132.08
510.42	26101.36
510.63	26482.28
510.83	26482.28
511.04	26562.15
511.24	26609.26
511.44	26521.20
511.65	26553.96
511.85	26650.22
512.06	26533.48
512.26	26541.68
512.47	26877.54
512.67	26898.02
512.88	27053.67
513.08	26949.22
513.29	27332.19
513.49	27338.33
513.69	27344.48
513.90	27381.34
514.10	27350.62
514.31	27483.74
514.51	27477.60
514.72	27440.73
514.92	27586.14
515.13	27635.29
515.33	27881.05
515.53	27782.74
515.74	27733.59
515.94	28192.34
516.15	28089.94
516.35	27723.35
516.56	28278.35
516.76	28245.58
516.96	28192.34
517.17	28610.12
517.37	28376.66
517.58	28276.30
517.78	28540.49
517.99	28689.99
518.19	29042.24
518.39	28847.69
518.60	29072.96
518.80	28989.00
519.01	29234.75
519.21	29115.97
519.41	29183.55
519.62	29193.79
519.82	29353.54
520.03	29453.89
520.23	29556.28
520.43	29488.70
520.64	29906.49
520.84	29724.22
521.05	29693.50
521.25	29828.66
521.45	30037.56
521.66	29947.45
521.86	30119.48
522.07	30082.61
522.27	30273.07
522.47	30404.14
522.68	30428.72
522.88	30338.61
523.08	30651.95
523.29	31192.61
523.49	30697.00
523.70	30699.05
523.90	30955.05
524.10	30838.31
524.31	31397.41
524.51	31137.32
524.71	31446.56
524.92	31292.96
525.12	31462.94
525.33	31456.80
525.53	31907.35
525.73	31579.68
525.94	31577.63
526.14	31692.32
526.34	31929.88
526.55	31958.55
526.75	31948.31
526.95	32423.44
527.16	32097.81
527.36	32208.40
527.56	32849.42
527.77	32671.25
527.97	32343.57
528.17	32853.51
528.38	32618.00
528.58	32802.32
528.78	32822.80
528.99	32796.17
529.19	33422.85
529.39	32974.34
529.60	33119.75
529.80	33314.31
530.00	33332.74
530.21	33533.44
530.41	33795.58
530.61	33525.25
530.82	34055.67
531.02	33799.68
531.22	34039.29
531.43	34104.82
531.63	33990.14
531.83	34160.12
532.04	34690.54
532.24	34407.92
532.44	34967.02
532.64	34854.38
532.85	34829.80
533.05	34723.31
533.25	34557.42
533.46	34582.00
533.66	35110.38
533.86	34799.08
534.07	35249.64
534.27	35040.75
534.47	35450.34
534.67	35612.13
534.88	35313.13
535.08	35732.96
535.28	35861.98
535.49	35900.89
535.69	36414.93
535.89	36009.43
536.09	35915.23
536.30	36277.72
536.50	36132.31
536.70	36335.06
536.91	36390.36
537.11	36560.34
537.31	36371.92
537.51	36582.87
537.72	36863.44
537.92	36568.53
538.12	37055.95
538.32	37002.70
538.53	37074.38
538.73	37209.54
538.93	37258.70
539.13	37017.04
539.34	37449.16
539.54	37154.25
539.74	37688.77
539.94	37418.44
540.15	37270.98
540.35	37615.04
540.55	37707.20
540.75	37778.88
540.96	38051.26
541.16	37729.73
541.36	37848.51
541.56	38073.79
541.77	37946.81
541.97	37758.40
542.17	38333.88
542.37	38038.97
542.58	37973.44
542.78	38284.73
542.98	38481.33
543.18	38319.54
543.38	38608.31
543.59	38880.69
543.79	38157.75
543.99	38354.36
544.19	38813.10
544.40	38510.00
544.60	38964.65
544.80	38458.81
545.00	39083.44
545.20	38794.67
545.41	39001.52
545.61	38944.17
545.81	38948.27
546.01	39165.35
546.21	39202.22
546.42	39093.68
546.62	39611.81
546.82	39058.86
547.02	39470.50
547.22	39323.05
547.43	39280.04
547.63	39419.30
547.83	39347.62
548.03	39335.34
548.23	39816.61
548.44	39351.72
548.64	39830.94
548.84	39789.98
549.04	39826.85
549.24	40007.07
549.45	40347.03
549.65	39837.09
549.85	39992.73
550.05	40181.15
550.25	39994.78
550.45	40555.93
550.66	40088.99
550.86	40175.00
551.06	40506.77
551.26	40652.18
551.46	40406.42
551.66	40314.26
551.87	40471.96
552.07	40949.14
552.27	40734.10
552.47	40623.51
552.67	40656.28
552.87	40871.31
553.07	40826.26
553.28	40783.25
553.48	41143.69
553.68	40605.08
553.88	41328.01
554.08	41420.17
554.28	41293.19
554.48	40996.24
554.69	41538.95
554.89	41141.64
555.09	41248.14
555.29	41350.54
555.49	41581.96
555.69	41532.81
555.89	41448.84
556.10	41565.57
556.30	41436.55
556.50	41491.85
556.70	41532.81
556.90	42089.85
557.10	42091.90
557.30	41731.46
557.50	41989.50
557.70	41753.99
557.91	42421.62
558.11	42124.67
558.31	42282.36
558.51	41989.50
558.71	41987.46
558.91	42603.89
559.11	42243.45
559.31	42347.90
559.51	42581.37
559.72	42638.71
559.92	42870.13
560.12	42796.40
560.32	42720.63
560.52	42605.94
560.72	43001.20
560.92	43175.28
561.12	42659.19
561.32	43089.26
561.52	42726.77
561.72	43287.92
561.93	43124.08
562.13	43201.90
562.33	43103.60
562.53	43949.41
562.73	43197.80
562.93	43263.34
563.13	43664.74
563.33	43406.70
563.53	43494.76
563.73	43060.59
563.93	43470.18
564.13	43842.92
564.33	43674.98
564.53	43701.61
564.74	44399.96
564.94	43955.55
565.14	44143.97
565.34	43709.80
565.54	43849.06
565.74	44279.13
565.94	44303.71
566.14	44299.61
566.34	44055.90
566.54	45024.59
566.74	44254.56
566.94	44531.03
567.14	44717.40
567.34	44426.59
567.54	44719.45
567.74	44268.89
567.94	44752.21
568.14	45448.52
568.34	44965.20
568.54	44733.78
568.74	45059.41
568.94	44539.22
569.14	45645.13
569.34	45407.56
569.54	45380.94
569.75	45094.22
569.95	45167.95
570.15	45782.34
570.35	45567.30
570.55	45198.67
570.75	45675.85
570.95	45397.32
571.15	45626.70
571.35	45294.92
571.55	45940.04
571.75	45415.76
571.95	45876.55
572.15	45823.30
572.35	46183.74
572.55	45487.43
572.75	45993.28
572.95	46021.95
573.15	46626.10
573.35	46161.22
573.55	46220.61
573.75	46277.95
573.95	46030.15
574.15	46226.75
574.35	46859.57
574.55	46847.29
574.75	46423.36
574.95	46376.25
575.15	46552.38
575.34	46568.76
575.54	47072.56
575.74	46849.33
575.94	47054.13
576.14	47002.93
576.34	46986.55
576.54	47379.76
576.74	47043.89
576.94	47240.50
577.14	47224.11
577.34	47379.76
577.54	46939.44
577.74	47390.00
577.94	47723.82
578.14	47134.00
578.34	47164.72
578.54	47246.64
578.74	47088.95
578.94	47861.03
579.14	47385.90
579.34	47752.49
579.54	47852.84
579.74	48157.99
579.94	48092.45
580.13	48196.90
580.33	48174.37
580.53	48055.59
580.73	48364.83
580.93	47838.50
581.13	48571.67
581.33	48456.99
581.53	48545.05
581.73	48246.05
581.93	48727.32
582.13	48577.82
582.33	48553.24
582.53	48723.22
582.73	48633.11
582.92	48166.18
583.12	48909.59
583.32	48796.95
583.52	48272.67
583.72	48887.06
583.92	48473.37
584.12	48332.06
584.32	49061.14
584.52	49016.08
584.72	49106.19
584.92	48872.73
585.11	49528.08
585.31	49243.41
585.51	49605.90
585.71	49014.04
585.91	49397.01
586.11	49030.42
586.31	49093.91
586.51	49360.14
586.71	49511.69
586.91	49845.51
587.10	49890.57
587.30	49560.84
587.50	49970.44
587.70	49868.04
587.90	49745.16
588.10	49777.93
588.30	49714.44
588.50	49870.09
