SpectraSuite Data File
++++++++++++++++++++++++++++++++++++
Date: Fri Jun 02 14:44:36 CEST 2017
User: INFO_000
Dark Spectrum Present: No
Reference Spectrum Present: No
Number of Sampled Component Spectra: 1
Spectrometers: USB4H00879
Integration Time (usec): 80000 (USB4H00879)
Spectra Averaged: 1 (USB4H00879)
Boxcar Smoothing: 0 (USB4H00879)
Correct for Electrical Dark: No (USB4H00879)
Strobe/Lamp Enabled: No (USB4H00879)
Correct for Detector Non-linearity: No (USB4H00879)
Correct for Stray Light: No (USB4H00879)
Number of Pixels in Processed Spectrum: 3648
>>>>>Begin Processed Spectral Data<<<<<
345.13	1298.41
345.34	1298.41
345.56	1298.41
345.78	1261.55
345.99	1249.26
346.21	1673.19
346.42	1667.05
346.64	1650.66
346.86	1789.92
347.07	1667.05
347.29	1679.33
347.50	1558.50
347.72	1628.14
347.94	1781.73
348.15	1517.54
348.37	1593.32
348.59	1705.96
348.80	1640.42
349.02	1847.27
349.23	1939.43
349.45	1851.36
349.67	1882.08
349.88	1783.78
350.10	1957.86
350.31	1884.13
350.53	1765.35
350.75	1982.43
350.96	1794.02
351.18	1880.04
351.39	1849.32
351.61	1789.92
351.82	1818.60
352.04	1955.81
352.26	1828.84
352.47	1886.18
352.69	1875.94
352.90	1685.48
353.12	1859.56
353.34	1837.03
353.55	1851.36
353.77	1886.18
353.98	1796.07
354.20	1814.50
354.41	1892.32
354.63	1888.23
354.85	1988.58
355.06	1894.37
355.28	1767.40
355.49	1949.67
355.71	1888.23
355.92	1869.80
356.14	1871.84
356.35	1871.84
356.57	1861.60
356.79	1929.19
357.00	1839.08
357.22	1894.37
357.43	1824.74
357.65	1937.38
357.86	1777.64
358.08	1935.33
358.29	1873.89
358.51	1947.62
358.72	1984.48
358.94	1916.90
359.16	1902.56
359.37	1908.71
359.59	1929.19
359.80	2037.73
360.02	1920.99
360.23	1961.95
360.45	1998.82
360.66	1935.33
360.88	1888.23
361.09	1972.19
361.31	1994.72
361.52	2004.96
361.74	2015.20
361.95	2015.20
362.17	1941.47
362.38	2146.27
362.60	1988.58
362.81	1976.29
363.03	1892.32
363.24	2119.65
363.46	2097.12
363.67	2000.87
363.89	1984.48
364.10	2058.21
364.32	1986.53
364.53	2101.22
364.75	1982.43
364.96	2064.35
365.18	2093.02
365.39	1992.67
365.61	1998.82
365.82	2019.30
366.04	1998.82
366.25	1904.61
366.47	2066.40
366.68	2070.50
366.90	1908.71
367.11	2056.16
367.33	2068.45
367.54	2025.44
367.76	1992.67
367.97	2029.54
368.19	1994.72
368.40	2050.02
368.62	2011.11
368.83	1949.67
369.05	2121.70
369.26	2029.54
369.48	2009.06
369.69	1927.14
369.91	2000.87
370.12	1955.81
370.33	2129.89
370.55	1933.28
370.76	2017.25
370.98	2174.94
371.19	1978.34
371.41	1994.72
371.62	2027.49
371.84	2076.64
372.05	2242.53
372.27	2060.26
372.48	2068.45
372.69	2056.16
372.91	2129.89
373.12	2209.76
373.34	2127.84
373.55	2119.65
373.77	2205.66
373.98	2056.16
374.20	2117.60
374.41	2273.25
374.62	2107.36
374.84	2168.80
375.05	2230.24
375.27	2115.55
375.48	2117.60
375.70	2093.02
375.91	2258.91
376.12	2250.72
376.34	2107.36
376.55	2222.05
376.77	2199.52
376.98	2062.30
377.19	2150.37
377.41	2099.17
377.62	2183.13
377.84	2220.00
378.05	2314.20
378.27	2168.80
378.48	2269.15
378.69	2361.31
378.91	2244.57
379.12	2297.82
379.34	2209.76
379.55	2312.16
379.76	2254.81
379.98	2181.09
380.19	2246.62
380.41	2277.34
380.62	2248.67
380.83	2293.72
381.05	2127.84
381.26	2467.80
381.47	2308.06
381.69	2320.35
381.90	2428.89
382.12	2299.87
382.33	2267.10
382.54	2353.12
382.76	2285.53
382.97	2273.25
383.19	2273.25
383.40	2437.08
383.61	2324.44
383.83	2244.57
384.04	2346.97
384.25	2453.47
384.47	2346.97
384.68	2422.75
384.89	2316.25
385.11	2269.15
385.32	2295.77
385.54	2445.27
385.75	2330.59
385.96	2359.26
386.18	2363.36
386.39	2447.32
386.60	2396.12
386.82	2383.84
387.03	2437.08
387.24	2512.86
387.46	2435.03
387.67	2500.57
387.88	2539.48
388.10	2459.61
388.31	2441.18
388.52	2568.15
388.74	2537.43
388.95	2426.84
389.16	2500.57
389.38	2531.29
389.59	2580.44
389.80	2639.83
390.02	2557.91
390.23	2568.15
390.44	2570.20
390.66	2547.67
390.87	2435.03
391.08	2639.83
391.30	2701.27
391.51	2660.31
391.72	2658.26
391.94	2578.39
392.15	2623.45
392.36	2600.92
392.58	2764.76
392.79	2645.98
393.00	2719.70
393.22	2736.09
393.43	2770.90
393.64	2826.20
393.85	2705.37
394.07	2629.59
394.28	2762.71
394.49	2731.99
394.71	2818.00
394.92	2836.44
395.13	2764.76
395.35	2781.14
395.56	2770.90
395.77	2781.14
395.98	2850.77
396.20	2844.63
396.41	2809.81
396.62	2916.31
396.84	2695.13
397.05	2832.34
397.26	2893.78
397.47	2981.84
397.69	2805.72
397.90	3006.42
398.11	2987.99
398.32	2865.11
398.54	2811.86
398.75	2910.16
398.96	2955.22
399.18	3080.14
399.39	2871.25
399.60	3088.34
399.81	2955.22
400.03	2914.26
400.24	3379.15
400.45	3030.99
400.66	3100.62
400.88	3000.27
401.09	3125.20
401.30	3074.00
401.51	3190.74
401.73	3119.06
401.94	3102.67
402.15	3104.72
402.36	3123.15
402.58	3190.74
402.79	3235.79
403.00	3106.77
403.21	3254.22
403.43	3262.41
403.64	3250.13
403.85	3065.81
404.06	3270.61
404.27	3137.49
404.49	3344.33
404.70	3090.38
404.91	3315.66
405.12	3264.46
405.34	3254.22
405.55	3452.88
405.76	3192.78
405.97	3274.70
406.19	3477.45
406.40	3270.61
406.61	3375.05
406.82	3366.86
407.03	3325.90
407.25	3354.57
407.46	3426.25
407.67	3409.87
407.88	3448.78
408.09	3395.53
408.31	3459.02
408.52	3454.92
408.73	3418.06
408.94	3299.28
409.15	3604.42
409.37	3360.72
409.58	3454.92
409.79	3526.60
410.00	3610.57
410.21	3430.35
410.43	3567.56
410.64	3416.01
410.85	3493.83
411.06	3573.71
411.27	3674.06
411.48	3606.47
411.70	3612.62
411.91	3606.47
412.12	3665.86
412.33	3731.40
412.54	3659.72
412.76	3725.26
412.97	3702.73
413.18	3583.95
413.39	3798.98
413.60	3669.96
413.81	3667.91
414.03	3629.00
414.24	3635.14
414.45	3790.79
414.66	3555.27
414.87	3780.55
415.08	3753.93
415.30	3717.06
415.51	3835.85
415.72	3809.22
415.93	3755.97
416.14	3885.00
416.35	3788.74
416.56	3844.04
416.78	3823.56
416.99	3874.76
417.20	3860.42
417.41	3977.16
417.62	3983.30
417.83	3942.34
418.04	3901.38
418.26	3897.28
418.47	4036.55
418.68	3944.39
418.89	4065.22
419.10	4214.72
419.31	4067.27
419.52	4046.79
419.73	4036.55
419.95	4235.20
420.16	3954.63
420.37	4054.98
420.58	4073.41
420.79	3915.72
421.00	4095.94
421.21	4198.34
421.42	4108.23
421.63	4188.10
421.85	4128.70
422.06	4124.61
422.27	4245.44
422.48	4229.06
422.69	4341.69
422.90	4249.54
423.11	4286.40
423.32	4419.52
423.53	4476.86
423.75	4364.22
423.96	4521.92
424.17	4452.28
424.38	4591.55
424.59	4450.24
424.80	4603.83
425.01	4483.00
425.22	4433.85
425.43	4388.80
425.64	4628.41
425.85	4659.13
426.06	4673.46
426.28	4519.87
426.49	4550.59
426.70	4446.14
426.91	4679.61
427.12	4734.90
427.33	4648.89
427.54	4644.79
427.75	4616.12
427.96	4788.15
428.17	4853.69
428.38	4659.13
428.59	4800.44
428.80	4835.25
429.01	4767.67
429.23	4859.83
429.44	5072.82
429.65	4921.27
429.86	4966.32
430.07	4911.03
430.28	4833.21
430.49	4939.70
430.70	5027.76
430.91	5099.44
431.12	5040.05
431.33	5056.43
431.54	5164.98
431.75	5146.55
431.96	5117.87
432.17	4982.71
432.38	5076.91
432.59	5443.50
432.80	5195.70
433.01	5277.62
433.22	5326.77
433.43	5310.38
433.64	5279.66
433.85	5230.51
434.06	5420.97
434.27	5214.13
434.49	5466.03
434.70	5533.61
434.91	5449.64
435.12	5410.73
435.33	5509.04
435.54	5410.73
435.75	5339.05
435.96	5605.29
436.17	5382.06
436.38	5582.76
436.59	5558.19
436.80	5588.91
437.01	5912.49
437.22	5654.44
437.43	5775.27
437.64	5527.47
437.85	5853.09
438.06	5846.95
438.27	5619.63
438.48	5681.07
438.69	5992.36
438.90	5994.40
439.11	5951.40
439.32	5924.77
439.53	5849.00
439.74	5914.53
439.95	6055.84
440.16	5771.18
440.37	5922.73
440.57	6082.47
440.78	5914.53
440.99	6141.86
441.20	6084.52
441.41	5969.83
441.62	6066.08
441.83	5971.88
442.04	6137.76
442.25	6004.64
442.46	6203.30
442.67	6248.35
442.88	6580.12
443.09	6088.61
443.30	6152.10
443.51	6092.71
443.72	6459.29
443.93	6303.65
444.14	6461.34
444.35	6213.54
444.56	6320.03
444.77	6485.92
444.98	6502.30
445.19	6535.07
445.40	6369.18
445.61	6510.49
445.81	6703.00
446.02	6680.47
446.23	6576.03
446.44	6455.20
446.65	6631.32
446.86	6633.37
447.07	6774.68
447.28	7022.48
447.49	6846.36
447.70	6678.43
447.91	6918.04
448.12	6805.40
448.33	6944.66
448.54	6852.50
448.74	6655.90
448.95	6838.17
449.16	6811.54
449.37	7149.46
449.58	6709.15
449.79	7075.73
450.00	6930.33
450.21	7104.40
450.42	7159.70
450.63	7194.51
450.84	6909.85
451.05	6983.57
451.25	7073.68
451.46	7042.96
451.67	7272.34
451.88	7204.75
452.09	7237.52
452.30	7071.64
452.51	6991.77
452.72	7282.58
452.93	7546.76
453.13	7094.16
453.34	7260.05
453.55	7606.16
453.76	7290.77
453.97	7751.56
454.18	7470.99
454.39	7643.02
454.60	7442.32
454.81	7595.92
455.01	7688.07
455.22	7393.17
455.43	7608.20
455.64	7735.18
455.85	7819.14
456.06	7907.21
456.27	7864.20
456.48	7780.23
456.68	7813.00
456.89	7931.78
457.10	7905.16
457.31	8146.82
457.52	7927.69
457.73	8187.78
457.94	8218.50
458.14	8058.76
458.35	8398.72
458.56	8155.01
458.77	8155.01
458.98	8329.09
459.19	8241.03
459.39	8400.77
459.60	8572.80
459.81	8425.34
460.02	8755.07
460.23	8497.02
460.44	8630.14
460.65	8722.30
460.85	8900.47
461.06	8732.54
461.27	8527.74
461.48	9119.60
461.69	9002.87
461.89	8697.72
462.10	8896.38
462.31	8691.58
462.52	8818.55
462.73	8970.10
462.94	9353.07
463.14	9074.55
463.35	9004.92
463.56	9701.23
463.77	9361.27
463.98	9097.08
464.18	9297.78
464.39	9408.37
464.60	9463.66
464.81	9545.58
465.02	9660.27
465.23	9707.37
465.43	9576.30
465.64	9875.31
465.85	9832.30
466.06	9770.86
466.27	10159.97
466.47	10202.98
466.68	9971.56
466.89	10207.08
467.10	10168.16
467.30	10047.33
467.51	10438.50
467.72	10620.77
467.93	10112.87
468.14	10424.16
468.34	10837.85
468.55	10659.68
468.76	10542.94
468.97	10628.96
469.17	10796.89
469.38	11013.98
469.59	10973.02
469.80	10891.10
470.01	10946.39
470.21	11188.05
470.42	11222.87
470.63	11421.52
470.84	11192.15
471.04	11587.41
471.25	11493.20
471.46	11419.47
471.67	11724.62
471.87	11605.84
472.08	11757.39
472.29	12156.74
472.50	11845.45
472.70	11722.57
472.91	11937.61
473.12	12279.62
473.33	12306.24
473.53	12209.99
473.74	12250.95
473.95	12603.20
474.16	12566.34
474.36	12552.00
474.57	12607.30
474.78	12697.41
474.99	12631.87
475.19	12713.79
475.40	13088.57
475.61	13143.86
475.81	12930.87
476.02	13575.98
476.23	13246.26
476.44	13471.54
476.64	13979.43
476.85	13729.58
477.06	13662.00
477.27	13768.49
477.47	13883.18
477.68	13936.43
477.89	14188.33
478.09	14126.89
478.30	14247.72
478.51	14389.03
478.71	14214.95
478.92	14411.56
479.13	14858.01
479.34	14864.16
479.54	14786.33
479.75	14827.29
479.96	14772.00
480.16	15027.99
480.37	15017.75
480.58	15359.77
480.78	15646.48
480.99	15474.45
481.20	15646.48
481.41	15681.30
481.61	15718.16
481.82	15869.71
482.03	15916.81
482.23	15779.60
482.44	16164.62
482.65	16238.34
482.85	16348.93
483.06	16246.54
483.27	16211.72
483.47	16547.59
483.68	16686.85
483.89	16727.81
484.09	16731.90
484.30	16817.92
484.51	17053.44
484.71	16912.13
484.92	16819.97
485.13	17084.16
485.33	17247.99
485.54	17196.79
485.75	17444.60
485.95	17626.87
486.16	17616.63
486.37	17626.87
486.57	17884.91
486.78	17753.84
486.98	17561.33
487.19	18190.06
487.40	18200.30
487.60	18247.40
487.81	18435.81
488.02	18321.13
488.22	18423.53
488.43	18462.44
488.64	18478.82
488.84	18474.73
489.05	19183.32
489.25	18714.34
489.46	19001.05
489.67	19064.54
489.87	19259.10
490.08	19220.19
490.29	19517.14
490.49	19388.12
490.70	19478.23
490.90	19707.60
491.11	19459.80
491.32	19766.99
491.52	19805.91
491.73	19859.15
491.94	20080.33
492.14	19844.82
492.35	20168.40
492.55	20061.90
492.76	20293.32
492.97	20508.36
493.17	20592.33
493.38	20680.39
493.58	20784.83
493.79	20698.82
494.00	20840.13
494.20	20895.43
494.41	21036.74
494.61	21225.15
494.82	21333.69
495.02	21155.52
495.23	21178.04
495.44	21300.92
495.64	21956.27
495.85	21679.80
496.05	21675.70
496.26	21647.03
496.47	21757.62
496.67	21458.62
496.88	22159.02
497.08	21798.58
497.29	22331.05
497.49	21831.35
497.70	22396.59
497.91	22591.14
498.11	22415.02
498.32	22601.38
498.52	22673.06
498.73	22634.15
498.93	22699.69
499.14	22789.80
499.34	22730.41
499.55	23217.82
499.76	23056.03
499.96	23072.42
500.17	23326.36
500.37	23436.95
500.58	23772.82
500.78	23623.32
500.99	23457.43
501.19	23707.29
501.40	23699.09
501.60	23725.72
501.81	23713.43
502.02	24069.78
502.22	23748.25
502.43	23987.86
502.63	24145.55
502.84	24282.77
503.04	24063.63
503.25	24075.92
503.45	24258.19
503.66	24602.25
503.86	24645.26
504.07	24805.00
504.27	24565.39
504.48	25056.90
504.68	24710.79
504.89	25159.30
505.09	25187.97
505.30	25173.63
505.50	25380.48
505.71	25192.06
505.91	25339.52
506.12	25517.69
506.32	25620.09
506.53	25351.81
506.73	25495.16
506.94	25648.76
507.14	25722.49
507.35	25814.65
507.55	25669.24
507.76	26064.50
507.96	25863.80
508.17	25912.95
508.37	26257.01
508.58	26302.06
508.78	26519.15
508.99	26689.13
509.19	26517.10
509.40	26584.68
509.60	26398.32
509.81	26705.51
510.01	26515.05
510.22	26834.53
510.42	26566.25
510.63	27092.58
510.83	26777.19
511.04	27164.26
511.24	27133.54
511.44	27115.11
511.65	27115.11
511.85	27201.12
512.06	27237.98
512.26	27235.94
512.47	27639.39
512.67	27801.18
512.88	27496.03
513.08	27242.08
513.29	27489.88
513.49	27580.00
513.69	27817.56
513.90	27770.46
514.10	28001.88
514.31	27858.52
514.51	28405.33
514.72	27954.77
514.92	27743.83
515.13	28071.51
515.33	28261.97
515.53	28091.99
515.74	28175.95
515.94	28364.37
516.15	28323.41
516.35	28161.62
516.56	28753.48
516.76	28319.31
516.96	28741.19
517.17	28745.29
517.37	28976.71
517.58	28378.70
517.78	28778.06
517.99	28919.37
518.19	29335.10
518.39	29251.14
518.60	29285.95
518.80	28913.22
519.01	29328.96
519.21	29255.23
519.41	29343.30
519.62	29204.03
519.82	29722.17
520.03	29791.80
520.23	29734.46
520.43	29457.98
520.64	30062.13
520.84	29883.96
521.05	29787.71
521.25	30086.71
521.45	29916.73
521.66	30271.03
521.86	30182.96
522.07	30180.92
522.27	30281.27
522.47	30066.23
522.68	30783.02
522.88	30414.38
523.08	30883.37
523.29	30645.80
523.49	30772.78
523.70	30531.12
523.90	31366.69
524.10	30969.38
524.31	30819.88
524.51	30709.29
524.71	31376.93
524.92	31266.34
525.12	31557.15
525.33	31229.48
525.53	31329.83
525.73	31342.11
525.94	31495.71
526.14	31516.19
526.34	31626.78
526.55	31770.14
526.75	31723.04
526.95	32009.75
527.16	32216.60
527.36	31931.93
527.56	32450.06
527.77	32265.75
527.97	31856.15
528.17	32292.37
528.38	32050.71
528.58	32405.01
528.78	32601.61
528.99	32538.13
529.19	32980.49
529.39	32531.98
529.60	32740.88
529.80	32966.15
530.00	32775.69
530.21	33211.91
530.41	33123.85
530.61	33342.98
530.82	32955.91
531.02	33240.58
531.22	33502.72
531.43	33306.12
531.63	33412.61
531.83	33412.61
532.04	34237.94
532.24	33472.00
532.44	34076.15
532.64	34178.55
532.85	33822.20
533.05	34055.67
533.25	34239.99
533.46	34303.48
533.66	34567.66
533.86	34567.66
534.07	34815.47
534.27	34573.81
534.47	34801.13
534.67	35565.03
534.88	34717.17
535.08	34809.32
535.28	35317.22
535.49	35327.46
535.69	35280.36
535.89	35560.93
536.09	35333.60
536.30	35741.15
536.50	35718.62
536.70	35827.17
536.91	35757.53
537.11	35626.46
537.31	35829.21
537.51	35974.62
537.72	36396.50
537.92	36259.29
538.12	36496.85
538.32	36615.63
538.53	36734.42
538.73	36173.27
538.93	36769.23
539.13	36476.37
539.34	36355.54
539.54	36781.52
539.74	37139.91
539.94	37072.33
540.15	36797.90
540.35	37303.75
540.55	36711.89
540.75	37252.55
540.96	37557.70
541.16	37344.71
541.36	37445.06
541.56	37592.51
541.77	37825.98
541.97	37445.06
542.17	38086.07
542.37	38063.55
542.58	38161.85
542.78	38124.99
542.98	37723.58
543.18	38421.94
543.38	38907.31
543.59	38794.67
543.79	38090.17
543.99	38720.95
544.19	38753.71
544.40	38604.21
544.60	39083.44
544.80	38845.87
545.00	39116.20
545.20	39415.21
545.41	38993.32
545.61	39263.66
545.81	39773.60
546.01	39495.08
546.21	39337.38
546.42	39490.98
546.62	40019.36
546.82	39390.63
547.02	40080.80
547.22	39841.18
547.43	39736.74
547.63	39921.05
547.83	40195.48
548.03	40097.18
548.23	40301.98
548.44	40805.78
548.64	40418.71
548.84	40633.75
549.04	40490.39
549.24	41065.87
549.45	40891.79
549.65	40551.83
549.85	40674.71
550.05	40676.76
550.25	40625.56
550.45	41543.05
550.66	41295.24
550.86	41278.86
551.06	41536.90
551.26	41227.66
551.46	41573.77
551.66	41252.23
551.87	41164.17
552.07	41741.70
552.27	41493.89
552.47	41819.52
552.67	41897.34
552.87	42251.64
553.07	42071.42
553.28	42063.23
553.48	42163.58
553.68	42100.09
553.88	42464.63
554.08	42061.18
554.28	42444.15
554.48	41913.73
554.69	42401.14
554.89	42730.87
555.09	42845.55
555.29	42419.58
555.49	42599.80
555.69	42927.47
555.89	42507.64
556.10	43015.54
556.30	42751.35
556.50	43058.54
556.70	42671.48
556.90	42978.67
557.10	42980.72
557.30	42960.24
557.50	43042.16
557.70	43150.70
557.91	43382.12
558.11	43294.06
558.31	43515.24
558.51	43046.26
558.71	43752.80
558.91	43773.28
559.11	43369.83
559.31	43533.67
559.51	43089.26
559.72	43912.55
559.92	43738.47
560.12	43449.70
560.32	44045.66
560.52	43865.44
560.72	43726.18
560.92	44215.65
561.12	43859.30
561.32	44479.83
561.52	43885.92
561.72	44416.35
561.93	44023.14
562.13	44395.87
562.33	43847.01
562.53	44408.15
562.73	44109.15
562.93	44424.54
563.13	44541.27
563.33	44469.59
563.53	44844.37
563.73	44225.89
563.93	44365.15
564.13	44629.34
564.33	44643.67
564.53	44490.07
564.74	44485.98
564.94	44365.15
565.14	45053.26
565.34	44895.57
565.54	44735.83
565.74	44457.31
565.94	44791.12
566.14	44598.62
566.34	44381.53
566.54	45380.94
566.74	44680.53
566.94	44795.22
567.14	45137.23
567.34	44764.50
567.54	45210.96
567.74	44696.92
567.94	45004.11
568.14	45188.43
568.34	45161.81
568.54	45122.90
568.74	45452.62
568.94	45194.57
569.14	45485.39
569.34	45342.03
569.54	45319.50
569.75	45063.50
569.95	45266.25
570.15	45616.46
570.35	45219.15
570.55	45532.49
570.75	45491.53
570.95	45415.76
571.15	45643.08
571.35	45045.07
571.55	45784.39
571.75	45741.38
571.95	45317.45
572.15	45292.88
572.35	45882.69
572.55	45729.09
572.75	45888.84
572.95	45593.93
573.15	45927.75
573.35	45942.08
573.55	45782.34
573.75	45944.13
573.95	45921.60
574.15	45763.91
574.35	45989.19
574.55	45743.43
574.75	45528.39
574.95	46077.25
575.15	45309.26
575.34	45974.85
575.54	46126.40
575.74	45909.32
575.94	46304.57
576.14	46171.46
576.34	46431.55
576.54	46159.17
576.74	46075.20
576.94	46058.82
577.14	45915.46
577.34	46341.44
577.54	46093.63
577.74	46486.84
577.94	46370.11
578.14	46527.80
578.34	46925.11
578.54	45860.16
578.74	46720.31
578.94	46388.54
579.14	46404.92
579.34	46916.92
579.54	46669.11
579.74	46968.12
579.94	46961.97
580.13	47111.47
580.33	46994.74
580.53	47295.79
580.73	47088.95
580.93	47455.53
581.13	47248.69
581.33	47523.11
581.53	47334.70
581.73	47482.16
581.93	46839.09
582.13	47396.14
582.33	47844.65
582.53	47203.63
582.73	47435.05
582.92	47136.05
583.12	47613.23
583.32	47588.65
583.52	47303.98
583.72	47803.69
583.92	47693.10
584.12	47752.49
584.32	48518.43
584.52	47775.02
584.72	48102.69
584.92	48143.65
585.11	48190.75
585.31	48219.42
585.51	48256.29
585.71	48127.27
585.91	48602.39
586.11	48055.59
586.31	48248.10
586.51	48160.03
586.71	48538.91
586.91	48717.08
587.10	48366.88
587.30	48553.24
587.50	48764.18
587.70	48502.04
587.90	48749.85
588.10	48284.96
588.30	48416.03
588.50	48745.75
