SpectraSuite Data File
++++++++++++++++++++++++++++++++++++
Date: Fri Jun 02 14:44:35 CEST 2017
User: INFO_000
Dark Spectrum Present: No
Reference Spectrum Present: No
Number of Sampled Component Spectra: 1
Spectrometers: USB4H00879
Integration Time (usec): 80000 (USB4H00879)
Spectra Averaged: 1 (USB4H00879)
Boxcar Smoothing: 0 (USB4H00879)
Correct for Electrical Dark: No (USB4H00879)
Strobe/Lamp Enabled: No (USB4H00879)
Correct for Detector Non-linearity: No (USB4H00879)
Correct for Stray Light: No (USB4H00879)
Number of Pixels in Processed Spectrum: 3648
>>>>>Begin Processed Spectral Data<<<<<
345.13	1290.22
345.34	1290.22
345.56	1290.22
345.78	1320.94
345.99	1337.32
346.21	1712.10
346.42	1708.01
346.64	1591.27
346.86	1789.92
347.07	1695.72
347.29	1611.75
347.50	1581.03
347.72	1654.76
347.94	1755.11
348.15	1572.84
348.37	1578.98
348.59	1757.16
348.80	1658.85
349.02	1789.92
349.23	1843.17
349.45	1806.31
349.67	1822.69
349.88	1812.45
350.10	2000.87
350.31	1908.71
350.53	1853.41
350.75	1953.76
350.96	1748.97
351.18	1794.02
351.39	1896.42
351.61	1794.02
351.82	1867.75
352.04	1933.28
352.26	1798.12
352.47	1890.28
352.69	1886.18
352.90	1751.01
353.12	1853.41
353.34	1918.95
353.55	1886.18
353.77	1861.60
353.98	1927.14
354.20	1849.32
354.41	1877.99
354.63	1873.89
354.85	2047.97
355.06	1904.61
355.28	1820.64
355.49	1834.98
355.71	1861.60
355.92	1820.64
356.14	1953.76
356.35	1886.18
356.57	1882.08
356.79	1986.53
357.00	1843.17
357.22	1978.34
357.43	1843.17
357.65	1941.47
357.86	1822.69
358.08	1882.08
358.29	1875.94
358.51	2037.73
358.72	1998.82
358.94	1880.04
359.16	1970.15
359.37	1949.67
359.59	1943.52
359.80	2015.20
360.02	1898.47
360.23	2066.40
360.45	2035.68
360.66	1935.33
360.88	1820.64
361.09	1904.61
361.31	1970.15
361.52	1982.43
361.74	2002.91
361.95	2007.01
362.17	1998.82
362.38	2140.13
362.60	2033.63
362.81	1990.63
363.03	1957.86
363.24	1953.76
363.46	1959.91
363.67	1974.24
363.89	2019.30
364.10	1976.29
364.32	1945.57
364.53	2066.40
364.75	1992.67
364.96	2041.82
365.18	1951.71
365.39	1970.15
365.61	1935.33
365.82	2074.59
366.04	2033.63
366.25	1945.57
366.47	2060.26
366.68	2099.17
366.90	1994.72
367.11	2011.11
367.33	2148.32
367.54	2101.22
367.76	2011.11
367.97	2197.47
368.19	2043.87
368.40	2056.16
368.62	2015.20
368.83	1970.15
369.05	2086.88
369.26	2037.73
369.48	2045.92
369.69	2052.06
369.91	2052.06
370.12	1980.39
370.33	2021.35
370.55	2023.39
370.76	2043.87
370.98	2041.82
371.19	2031.58
371.41	1976.29
371.62	2084.83
371.84	1992.67
372.05	2125.79
372.27	2076.64
372.48	2121.70
372.69	2144.22
372.91	2146.27
373.12	2119.65
373.34	2121.70
373.55	2045.92
373.77	2211.81
373.98	2176.99
374.20	2176.99
374.41	2283.49
374.62	2060.26
374.84	2166.75
375.05	2142.18
375.27	2099.17
375.48	2213.85
375.70	2174.94
375.91	2236.38
376.12	2242.53
376.34	2101.22
376.55	2234.33
376.77	2152.42
376.98	2068.45
377.19	2121.70
377.41	2181.09
377.62	2215.90
377.84	2265.05
378.05	2289.63
378.27	2160.61
378.48	2320.35
378.69	2367.45
378.91	2314.20
379.12	2303.96
379.34	2224.09
379.55	2336.73
379.76	2320.35
379.98	2252.77
380.19	2267.10
380.41	2312.16
380.62	2332.64
380.83	2220.00
381.05	2160.61
381.26	2330.59
381.47	2211.81
381.69	2318.30
381.90	2451.42
382.12	2349.02
382.33	2179.04
382.54	2336.73
382.76	2328.54
382.97	2330.59
383.19	2211.81
383.40	2377.69
383.61	2330.59
383.83	2263.01
384.04	2310.11
384.25	2355.16
384.47	2371.55
384.68	2349.02
384.89	2336.73
385.11	2285.53
385.32	2426.84
385.54	2326.49
385.75	2342.88
385.96	2396.12
386.18	2387.93
386.39	2383.84
386.60	2334.68
386.82	2426.84
387.03	2430.94
387.24	2506.71
387.46	2424.80
387.67	2541.53
387.88	2664.41
388.10	2459.61
388.31	2539.48
388.52	2535.39
388.74	2543.58
388.95	2490.33
389.16	2508.76
389.38	2506.71
389.59	2625.50
389.80	2666.46
390.02	2545.63
390.23	2736.09
390.44	2576.34
390.66	2633.69
390.87	2484.19
391.08	2686.94
391.30	2662.36
391.51	2656.22
391.72	2729.94
391.94	2691.03
392.15	2615.26
392.36	2611.16
392.58	2627.54
392.79	2625.50
393.00	2678.74
393.22	2797.53
393.43	2672.60
393.64	2734.04
393.85	2713.56
394.07	2666.46
394.28	2678.74
394.49	2740.18
394.71	2813.91
394.92	2832.34
395.13	2666.46
395.35	2711.51
395.56	2783.19
395.77	2867.16
395.98	2858.96
396.20	2953.17
396.41	2869.20
396.62	2992.08
396.84	2801.62
397.05	2887.64
397.26	2854.87
397.47	2901.97
397.69	2820.05
397.90	2965.46
398.11	2938.84
398.32	2924.50
398.54	2805.72
398.75	2908.12
398.96	2897.88
399.18	3065.81
399.39	3045.33
399.60	3026.90
399.81	2920.40
400.03	2961.36
400.24	3227.60
400.45	2977.75
400.66	3090.38
400.88	2981.84
401.09	3203.02
401.30	3020.75
401.51	3166.16
401.73	3170.26
401.94	3114.96
402.15	3035.09
402.36	3067.86
402.58	3211.22
402.79	3217.36
403.00	3135.44
403.21	3170.26
403.43	3190.74
403.64	3182.54
403.85	3211.22
404.06	3276.75
404.27	3174.35
404.49	3207.12
404.70	3112.91
404.91	3190.74
405.12	3235.79
405.34	3246.03
405.55	3370.96
405.76	3088.34
405.97	3313.61
406.19	3430.35
406.40	3205.07
406.61	3303.37
406.82	3385.29
407.03	3305.42
407.25	3301.33
407.46	3383.24
407.67	3409.87
407.88	3477.45
408.09	3377.10
408.31	3387.34
408.52	3454.92
408.73	3411.92
408.94	3444.68
409.15	3428.30
409.37	3489.74
409.58	3602.38
409.79	3479.50
410.00	3592.14
410.21	3444.68
410.43	3579.85
410.64	3418.06
410.85	3416.01
411.06	3592.14
411.27	3454.92
411.48	3674.06
411.70	3514.31
411.91	3551.18
412.12	3581.90
412.33	3545.03
412.54	3538.89
412.76	3835.85
412.97	3641.29
413.18	3557.32
413.39	3688.39
413.60	3669.96
413.81	3751.88
414.03	3596.23
414.24	3600.33
414.45	3692.49
414.66	3653.58
414.87	3731.40
415.08	3727.30
415.30	3751.88
415.51	3831.75
415.72	3661.77
415.93	3690.44
416.14	3745.73
416.35	3788.74
416.56	3817.41
416.78	3807.17
416.99	3860.42
417.20	3889.09
417.41	3925.96
417.62	3835.85
417.83	4038.59
418.04	3958.72
418.26	3889.09
418.47	3921.86
418.68	3964.87
418.89	3887.04
419.10	4112.32
419.31	4128.70
419.52	4104.13
419.73	3977.16
419.95	4067.27
420.16	4026.31
420.37	3944.39
420.58	4073.41
420.79	3946.44
421.00	4104.13
421.21	4186.05
421.42	4112.32
421.63	4179.90
421.85	4083.65
422.06	4237.25
422.27	4249.54
422.48	4149.18
422.69	4274.11
422.90	4138.94
423.11	4351.93
423.32	4288.45
423.53	4317.12
423.75	4356.03
423.96	4534.20
424.17	4423.61
424.38	4540.35
424.59	4501.44
424.80	4569.02
425.01	4364.22
425.22	4411.32
425.43	4464.57
425.64	4589.50
425.85	4650.94
426.06	4595.64
426.28	4558.78
426.49	4546.49
426.70	4691.90
426.91	4560.83
427.12	4708.28
427.33	4609.98
427.54	4648.89
427.75	4827.06
427.96	4970.42
428.17	4702.14
428.38	4704.18
428.59	4929.46
428.80	4771.77
429.01	4794.29
429.23	4769.72
429.44	5085.11
429.65	5003.19
429.86	4982.71
430.07	4892.60
430.28	5046.20
430.49	4972.47
430.70	4968.37
430.91	5185.46
431.12	5119.92
431.33	5230.51
431.54	5226.42
431.75	5244.85
431.96	5025.72
432.17	5263.28
432.38	5261.23
432.59	5316.53
432.80	5144.50
433.01	5349.29
433.22	5373.87
433.43	5351.34
433.64	5259.18
433.85	5246.90
434.06	5294.00
434.27	5390.25
434.49	5355.44
434.70	5468.08
434.91	5390.25
435.12	5498.80
435.33	5468.08
435.54	5449.64
435.75	5273.52
435.96	5566.38
436.17	5474.22
436.38	5742.50
436.59	5738.41
436.80	5588.91
437.01	5787.56
437.22	5791.66
437.43	5836.71
437.64	5597.10
437.85	5844.90
438.06	5834.66
438.27	5533.61
438.48	5795.75
438.69	5896.10
438.90	5816.23
439.11	5756.84
439.32	5875.62
439.53	5820.33
439.74	5918.63
439.95	6000.55
440.16	5826.47
440.37	5992.36
440.57	5924.77
440.78	5965.73
440.99	6041.51
441.20	6164.39
441.41	5910.44
441.62	5951.40
441.83	5939.11
442.04	5965.73
442.25	6274.98
442.46	6172.58
442.67	6152.10
442.88	6655.90
443.09	6039.46
443.30	6107.04
443.51	6266.78
443.72	6494.11
443.93	6279.07
444.14	6494.11
444.35	6160.29
444.56	6231.97
444.77	6281.12
444.98	6334.37
445.19	6418.33
445.40	6410.14
445.61	6455.20
445.81	6586.27
446.02	6469.53
446.23	6496.16
446.44	6227.87
446.65	6553.50
446.86	6520.73
447.07	6598.56
447.28	6774.68
447.49	6782.87
447.70	6668.19
447.91	6639.51
448.12	6623.13
448.33	6936.47
448.54	6915.99
448.74	6659.99
448.95	6766.49
449.16	6754.20
449.37	7024.53
449.58	6770.58
449.79	7161.75
450.00	6768.54
450.21	7014.29
450.42	7065.49
450.63	7225.23
450.84	7024.53
451.05	6905.75
451.25	7133.08
451.46	7075.73
451.67	7163.79
451.88	7196.56
452.09	7311.25
452.30	7225.23
452.51	7208.85
452.72	7258.00
452.93	7505.81
453.13	7337.87
453.34	7276.43
453.55	7395.22
453.76	7241.62
453.97	7735.18
454.18	7487.37
454.39	7618.44
454.60	7436.17
454.81	7597.96
455.01	7749.51
455.22	7509.90
455.43	7661.45
455.64	7892.87
455.85	7806.86
456.06	7909.26
456.27	7868.30
456.48	7819.14
456.68	7708.55
456.89	8023.94
457.10	8069.00
457.31	8105.86
457.52	7993.22
457.73	8001.41
457.94	8146.82
458.14	7821.19
458.35	8431.49
458.56	8290.18
458.77	8034.18
458.98	8259.46
459.19	8292.23
459.39	8523.65
459.60	8470.40
459.81	8468.35
460.02	8705.92
460.23	8505.21
460.44	8744.83
460.65	8703.87
460.85	8429.44
461.06	8720.25
461.27	8568.70
461.48	8894.33
461.69	8869.75
461.89	8834.94
462.10	8916.86
462.31	8736.63
462.52	8861.56
462.73	9066.36
462.94	9138.04
463.14	9074.55
463.35	9054.07
463.56	9514.86
463.77	9480.05
463.98	9236.34
464.18	9217.91
464.39	9486.19
464.60	9748.33
464.81	9604.97
465.02	9807.72
465.23	9838.44
465.43	9711.47
465.64	9936.74
465.85	9850.73
466.06	9987.94
466.27	10041.19
466.47	10143.59
466.68	10006.38
466.89	10041.19
467.10	10211.17
467.30	9987.94
467.51	10315.62
467.72	10321.76
467.93	10258.28
468.14	10338.15
468.34	10332.00
468.55	10733.40
468.76	10481.50
468.97	10338.15
469.17	10690.40
469.38	11046.74
469.59	11104.09
469.80	10819.42
470.01	11040.60
470.21	11038.55
470.42	11366.23
470.63	11171.67
470.84	11202.39
471.04	11476.82
471.25	11175.77
471.46	11312.98
471.67	11538.26
471.87	11552.59
472.08	11700.05
472.29	11890.51
472.50	11632.46
472.70	11779.92
472.91	11900.75
473.12	12017.48
473.33	12164.93
473.53	12255.04
473.74	12050.25
473.95	12257.09
474.16	12642.11
474.36	12474.18
474.57	12586.82
474.78	12793.66
474.99	12672.83
475.19	12683.07
475.40	12812.09
475.61	13141.82
475.81	13092.66
476.02	13319.99
476.23	13035.32
476.44	13348.66
476.64	13530.93
476.85	13672.24
477.06	13590.32
477.27	13909.80
477.47	13940.52
477.68	13653.81
477.89	14106.41
478.09	14126.89
478.30	14104.36
478.51	14188.33
478.71	14413.60
478.92	14665.50
479.13	14567.20
479.34	14634.78
479.54	14765.85
479.75	14688.03
479.96	14831.39
480.16	14876.44
480.37	14929.69
480.58	14898.97
480.78	15320.85
480.99	15269.66
481.20	15654.67
481.41	15550.23
481.61	15675.15
481.82	15812.37
482.03	15759.12
482.23	15693.58
482.44	16207.62
482.65	16283.40
482.85	16375.56
483.06	16414.47
483.27	16244.49
483.47	16297.74
483.68	16488.20
483.89	16670.47
484.09	16621.31
484.30	16576.26
484.51	16721.66
484.71	16828.16
484.92	16822.02
485.13	17317.62
485.33	17385.21
485.54	17041.15
485.75	17424.12
485.95	17432.31
486.16	17815.28
486.37	17792.75
486.57	17721.07
486.78	17876.72
486.98	18026.22
487.19	18009.84
487.40	18140.91
487.60	18005.74
487.81	18519.78
488.02	18120.43
488.22	18532.07
488.43	18437.86
488.64	18487.01
488.84	18892.51
489.05	18732.77
489.25	18837.22
489.46	19152.60
489.67	19130.08
489.87	19179.23
490.08	19289.82
490.29	19300.06
490.49	19816.15
490.70	19658.45
490.90	19621.59
491.11	19685.08
491.32	19709.65
491.52	19842.77
491.73	19820.24
491.94	20281.03
492.14	19996.37
492.35	20244.17
492.55	20438.73
492.76	20336.33
492.97	20549.32
493.17	20655.81
493.38	20756.16
493.58	20963.01
493.79	20549.32
494.00	20842.18
494.20	20899.52
494.41	20991.68
494.61	21081.79
494.82	21114.56
495.02	21110.46
495.23	21429.94
495.44	21386.94
495.64	21667.51
495.85	21460.66
496.05	21731.00
496.26	21563.06
496.47	22052.53
496.67	21681.85
496.88	22113.97
497.08	22044.34
497.29	22171.31
497.49	22128.30
497.70	22302.38
497.91	22490.79
498.11	22763.17
498.32	22595.24
498.52	22795.94
498.73	22814.37
498.93	23086.75
499.14	22914.72
499.34	23082.66
499.55	23254.69
499.76	23129.76
499.96	23221.92
500.17	23158.43
500.37	23373.47
500.58	23291.55
500.78	23641.75
500.99	23588.50
501.19	23752.34
501.40	23869.08
501.60	23787.16
501.81	23924.37
502.02	24174.22
502.22	23674.52
502.43	23934.61
502.63	24204.94
502.84	24338.06
503.04	24233.61
503.25	24346.25
503.45	24231.57
503.66	24510.09
503.86	24415.88
504.07	24616.58
504.27	24630.92
504.48	24864.39
504.68	24653.45
504.89	25038.47
505.09	25202.30
505.30	25265.79
505.50	25153.15
505.71	25341.57
505.91	25417.34
506.12	25501.31
506.32	25480.83
506.53	25532.03
506.73	25572.99
506.94	25685.62
507.14	25585.27
507.35	25581.18
507.55	25587.32
507.76	25865.85
507.96	25679.48
508.17	26021.49
508.37	25863.80
508.58	25962.10
508.78	26115.70
508.99	26508.91
509.19	26517.10
509.40	26611.31
509.60	26525.29
509.81	26429.04
510.01	26351.21
510.22	26658.41
510.42	26689.13
510.63	26695.27
510.83	26596.97
511.04	27090.53
511.24	27117.15
511.44	26709.61
511.65	27002.47
511.85	26662.51
512.06	27266.66
512.26	27184.74
512.47	27571.80
512.67	26969.70
512.88	27477.60
513.08	26988.13
513.29	27493.98
513.49	27588.19
513.69	27539.04
513.90	27479.64
514.10	27780.70
514.31	27631.19
514.51	27692.63
514.72	27766.36
514.92	27876.95
515.13	27954.77
515.33	28022.36
515.53	28223.06
515.74	28038.74
515.94	28307.02
516.15	27706.97
516.35	28008.02
516.56	28315.22
516.76	28046.93
516.96	28579.40
517.17	28745.29
517.37	28481.10
517.58	28685.90
517.78	28708.43
517.99	28849.74
518.19	28941.89
518.39	28978.76
518.60	29216.32
518.80	28919.37
519.01	29023.81
519.21	29435.45
519.41	28952.13
519.62	29011.53
519.82	29363.78
520.03	29476.41
520.23	29023.81
520.43	29546.05
520.64	29562.43
520.84	29582.91
521.05	29609.53
521.25	29576.76
521.45	29824.57
521.66	30299.70
521.86	29881.91
522.07	30049.85
522.27	30070.33
522.47	30191.16
522.68	30385.71
522.88	30213.68
523.08	30826.03
523.29	30670.38
523.49	30365.23
523.70	30547.50
523.90	30678.57
524.10	30668.33
524.31	30907.94
524.51	30707.24
524.71	30877.22
524.92	30770.73
525.12	31252.00
525.33	31219.24
525.53	31761.95
525.73	31583.77
525.94	31792.67
526.14	31512.10
526.34	31241.76
526.55	31462.94
526.75	31399.46
526.95	31921.69
527.16	31823.39
527.36	31596.06
527.56	32243.22
527.77	32118.29
527.97	31913.50
528.17	32296.47
528.38	32321.04
528.58	32622.09
528.78	32486.93
528.99	32579.09
529.19	32607.76
529.39	32534.03
529.60	32800.27
529.80	32785.93
530.00	32861.71
530.21	33160.71
530.41	33293.83
530.61	32996.87
530.82	33353.22
531.02	32890.38
531.22	33435.14
531.43	33713.66
531.63	33535.49
531.83	34133.50
532.04	34084.34
532.24	33928.70
532.44	34096.63
532.64	34336.24
532.85	34201.08
533.05	34244.09
533.25	34399.73
533.46	34008.57
533.66	34794.99
533.86	34424.31
534.07	34706.93
534.27	34846.19
534.47	35053.03
534.67	35261.93
534.88	35026.41
535.08	34747.89
535.28	35020.27
535.49	35366.37
535.69	35399.14
535.89	35640.80
536.09	35364.32
536.30	35681.76
536.50	35661.28
536.70	36046.30
536.91	35720.67
537.11	35780.06
537.31	35837.41
537.51	36120.02
537.72	36781.52
537.92	36314.58
538.12	36763.09
538.32	36623.83
538.53	36728.27
538.73	36617.68
538.93	36935.12
539.13	36838.86
539.34	36513.23
539.54	36834.77
539.74	37025.23
539.94	37115.34
540.15	36885.97
540.35	37621.19
540.55	37156.30
540.75	37438.92
540.96	37639.62
541.16	37404.10
541.36	37709.25
541.56	37709.25
541.77	37737.92
541.97	37807.55
542.17	38081.98
542.37	38020.54
542.58	38092.22
542.78	38165.95
542.98	38000.06
543.18	38399.41
543.38	38628.79
543.59	38606.26
543.79	38553.01
543.99	38200.76
544.19	38561.20
544.40	38712.75
544.60	39214.51
544.80	39036.33
545.00	38981.04
545.20	39663.01
545.41	39333.29
545.61	38972.85
545.81	39310.76
546.01	39767.46
546.21	39206.31
546.42	39450.02
546.62	39478.69
546.82	39544.23
547.02	39906.72
547.22	39849.38
547.43	39974.30
547.63	39896.48
547.83	40002.97
548.03	39677.35
548.23	40009.12
548.44	40080.80
548.64	40211.87
548.84	39933.34
549.04	40410.52
549.24	40414.62
549.45	40549.78
549.65	40703.38
549.85	40334.74
550.05	40963.47
550.25	40424.86
550.45	41328.01
550.66	41014.67
550.86	40623.51
551.06	41086.35
551.26	41250.19
551.46	41325.96
551.66	41272.71
551.87	41010.57
552.07	41573.77
552.27	41407.88
552.47	41590.15
552.67	41674.12
552.87	41465.22
553.07	41801.09
553.28	41827.71
553.48	42044.80
553.68	41997.70
553.88	41915.78
554.08	41704.84
554.28	42186.11
554.48	42065.28
554.69	42116.48
554.89	42139.00
555.09	42124.67
555.29	42057.09
555.49	42186.11
555.69	42231.16
555.89	42290.55
556.10	42227.07
556.30	42155.39
556.50	42349.95
556.70	42323.32
556.90	42810.74
557.10	42657.14
557.30	42616.18
557.50	43036.02
557.70	43412.84
557.91	42782.07
558.11	43187.56
558.31	42780.02
558.51	43128.17
558.71	43056.50
558.91	42943.86
559.11	42685.81
559.31	42837.36
559.51	43111.79
559.72	43101.55
559.92	43732.32
560.12	43171.18
560.32	43761.00
560.52	43119.98
560.72	43494.76
560.92	43636.07
561.12	43597.16
561.32	44039.52
561.52	43734.37
561.72	43691.37
561.93	43466.09
562.13	43650.41
562.33	43398.51
562.53	43906.40
562.73	43591.01
562.93	43758.95
563.13	43734.37
563.33	43808.10
563.53	44031.33
563.73	43920.74
563.93	44103.01
564.13	44545.37
564.33	44219.74
564.53	44127.58
564.74	44297.56
564.94	43605.35
565.14	44133.73
565.34	44483.93
565.54	44262.75
565.74	43988.32
565.94	44938.58
566.14	44193.12
566.34	44451.16
566.54	44774.74
566.74	44516.70
566.94	44692.82
567.14	44735.83
567.34	44721.49
567.54	44924.24
567.74	44778.84
567.94	44664.15
568.14	45163.85
568.34	45192.53
568.54	44854.61
568.74	45251.92
568.94	44668.25
569.14	45081.94
569.34	45325.64
569.54	44791.12
569.75	45170.00
569.95	45131.09
570.15	45206.86
570.35	45096.27
570.55	45118.80
570.75	45294.92
570.95	45397.32
571.15	45309.26
571.35	45229.39
571.55	45344.08
571.75	45405.52
571.95	45643.08
572.15	44926.29
572.35	45872.45
572.55	45727.05
572.75	46046.53
572.95	45743.43
573.15	46007.62
573.35	45696.33
573.55	45671.75
573.75	45446.47
573.95	45780.29
574.15	45759.81
574.35	45784.39
574.55	45831.49
574.75	46085.44
574.95	45923.65
575.15	45522.25
575.34	46210.37
575.54	45833.54
575.74	46120.26
575.94	46284.09
576.14	46355.77
576.34	46708.02
576.54	46593.34
576.74	46429.50
576.94	46282.05
577.14	46374.20
577.34	46501.18
577.54	46355.77
577.74	46652.73
577.94	46558.52
578.14	46765.37
578.34	46882.10
578.54	46316.86
578.74	46662.97
578.94	46824.76
579.14	46529.85
579.34	47351.09
579.54	46732.60
579.74	47633.71
579.94	47588.65
580.13	47174.96
580.33	47250.74
580.53	47375.66
580.73	47547.69
580.93	47351.09
581.13	47539.50
581.33	47271.21
581.53	47428.91
581.73	47394.09
581.93	47643.94
582.13	47803.69
582.33	47809.83
582.53	47426.86
582.73	47908.13
582.92	47994.15
583.12	47994.15
583.32	47678.76
583.52	47627.56
583.72	48330.01
583.92	47869.22
584.12	47650.09
584.32	48381.21
584.52	48223.52
584.72	48311.58
584.92	47961.38
585.11	48878.87
585.31	48330.01
585.51	48489.76
585.71	48327.97
585.91	48637.21
586.11	48278.82
586.31	48653.59
586.51	48317.73
586.71	48796.95
586.91	49126.67
587.10	49061.14
587.30	48588.06
587.50	48846.10
587.70	48956.69
587.90	48928.02
588.10	48854.29
588.30	48901.40
588.50	49206.55
