SpectraSuite Data File
++++++++++++++++++++++++++++++++++++
Date: Fri Jun 02 14:44:35 CEST 2017
User: INFO_000
Dark Spectrum Present: No
Reference Spectrum Present: No
Number of Sampled Component Spectra: 1
Spectrometers: USB4H00879
Integration Time (usec): 80000 (USB4H00879)
Spectra Averaged: 1 (USB4H00879)
Boxcar Smoothing: 0 (USB4H00879)
Correct for Electrical Dark: No (USB4H00879)
Strobe/Lamp Enabled: No (USB4H00879)
Correct for Detector Non-linearity: No (USB4H00879)
Correct for Stray Light: No (USB4H00879)
Number of Pixels in Processed Spectrum: 3648
>>>>>Begin Processed Spectral Data<<<<<
345.13	1230.83
345.34	1230.83
345.56	1230.83
345.78	1216.49
345.99	1304.56
346.21	1697.77
346.42	1667.05
346.64	1652.71
346.86	1773.54
347.07	1632.23
347.29	1716.20
347.50	1611.75
347.72	1656.81
347.94	1759.21
348.15	1587.18
348.37	1621.99
348.59	1761.25
348.80	1673.19
349.02	1804.26
349.23	1896.42
349.45	1841.12
349.67	1882.08
349.88	1779.68
350.10	1951.71
350.31	1781.73
350.53	1773.54
350.75	1968.10
350.96	1785.83
351.18	1902.56
351.39	1748.97
351.61	1748.97
351.82	1888.23
352.04	1906.66
352.26	1804.26
352.47	1826.79
352.69	1875.94
352.90	1703.91
353.12	1822.69
353.34	1880.04
353.55	1937.38
353.77	1884.13
353.98	1865.70
354.20	1808.36
354.41	1923.04
354.63	1984.48
354.85	1976.29
355.06	1888.23
355.28	1863.65
355.49	1828.84
355.71	1904.61
355.92	1804.26
356.14	1968.10
356.35	1890.28
356.57	1798.12
356.79	2004.96
357.00	1824.74
357.22	1970.15
357.43	1886.18
357.65	1904.61
357.86	1789.92
358.08	1843.17
358.29	1953.76
358.51	1945.57
358.72	1959.91
358.94	1910.75
359.16	1916.90
359.37	1988.58
359.59	1884.13
359.80	1968.10
360.02	1966.05
360.23	1935.33
360.45	1978.34
360.66	1910.75
360.88	1904.61
361.09	1945.57
361.31	1961.95
361.52	1949.67
361.74	2105.31
361.95	2121.70
362.17	1972.19
362.38	2066.40
362.60	1998.82
362.81	2002.91
363.03	1970.15
363.24	1947.62
363.46	2000.87
363.67	1972.19
363.89	1990.63
364.10	2013.15
364.32	2039.78
364.53	1945.57
364.75	1884.13
364.96	1996.77
365.18	1972.19
365.39	2068.45
365.61	1968.10
365.82	2154.46
366.04	2060.26
366.25	1908.71
366.47	2056.16
366.68	2074.59
366.90	1916.90
367.11	2043.87
367.33	2074.59
367.54	2166.75
367.76	2002.91
367.97	2082.78
368.19	2043.87
368.40	2011.11
368.62	1994.72
368.83	2056.16
369.05	2117.60
369.26	2002.91
369.48	2031.58
369.69	1994.72
369.91	2013.15
370.12	2027.49
370.33	2166.75
370.55	1959.91
370.76	2027.49
370.98	1990.63
371.19	1972.19
371.41	2037.73
371.62	2011.11
371.84	1996.77
372.05	2195.42
372.27	2025.44
372.48	2133.98
372.69	2105.31
372.91	2117.60
373.12	2115.55
373.34	2160.61
373.55	2140.13
373.77	2166.75
373.98	2111.46
374.20	2088.93
374.41	2224.09
374.62	2127.84
374.84	2107.36
375.05	2213.85
375.27	2113.50
375.48	2107.36
375.70	2148.32
375.91	2191.33
376.12	2308.06
376.34	2213.85
376.55	2181.09
376.77	2176.99
376.98	2111.46
377.19	2174.94
377.41	2103.26
377.62	2246.62
377.84	2209.76
378.05	2236.38
378.27	2174.94
378.48	2308.06
378.69	2459.61
378.91	2265.05
379.12	2142.18
379.34	2273.25
379.55	2271.20
379.76	2263.01
379.98	2123.74
380.19	2197.47
380.41	2215.90
380.62	2334.68
380.83	2195.42
381.05	2183.13
381.26	2443.23
381.47	2258.91
381.69	2297.82
381.90	2498.52
382.12	2279.39
382.33	2189.28
382.54	2371.55
382.76	2375.64
382.97	2312.16
383.19	2125.79
383.40	2453.47
383.61	2322.40
383.83	2271.20
384.04	2310.11
384.25	2377.69
384.47	2480.09
384.68	2381.79
384.89	2252.77
385.11	2344.92
385.32	2273.25
385.54	2326.49
385.75	2367.45
385.96	2500.57
386.18	2371.55
386.39	2377.69
386.60	2295.77
386.82	2430.94
387.03	2441.18
387.24	2426.84
387.46	2441.18
387.67	2555.86
387.88	2514.91
388.10	2432.99
388.31	2545.63
388.52	2510.81
388.74	2428.89
388.95	2430.94
389.16	2539.48
389.38	2555.86
389.59	2666.46
389.80	2596.82
390.02	2580.44
390.23	2580.44
390.44	2557.91
390.66	2602.97
390.87	2527.19
391.08	2600.92
391.30	2658.26
391.51	2662.36
391.72	2715.61
391.94	2643.93
392.15	2703.32
392.36	2609.11
392.58	2592.73
392.79	2648.02
393.00	2701.27
393.22	2691.03
393.43	2787.29
393.64	2822.10
393.85	2762.71
394.07	2691.03
394.28	2731.99
394.49	2832.34
394.71	2789.33
394.92	2955.22
395.13	2705.37
395.35	2797.53
395.56	2779.09
395.77	2803.67
395.98	2858.96
396.20	2885.59
396.41	2789.33
396.62	2916.31
396.84	2723.80
397.05	2797.53
397.26	2863.06
397.47	2992.08
397.69	2760.66
397.90	3047.38
398.11	2947.03
398.32	2957.27
398.54	2901.97
398.75	2895.83
398.96	2977.75
399.18	3061.71
399.39	2881.49
399.60	3006.42
399.81	2983.89
400.03	2947.03
400.24	3280.85
400.45	3086.29
400.66	3045.33
400.88	3008.47
401.09	3172.30
401.30	3012.56
401.51	3157.97
401.73	2992.08
401.94	3153.87
402.15	3180.50
402.36	3108.82
402.58	3106.77
402.79	3190.74
403.00	3076.05
403.21	3174.35
403.43	3182.54
403.64	3196.88
403.85	3082.19
404.06	3297.23
404.27	3121.10
404.49	3069.91
404.70	3153.87
404.91	3297.23
405.12	3330.00
405.34	3180.50
405.55	3420.11
405.76	3114.96
405.97	3160.02
406.19	3471.31
406.40	3219.41
406.61	3370.96
406.82	3250.13
407.03	3420.11
407.25	3248.08
407.46	3370.96
407.67	3413.96
407.88	3452.88
408.09	3354.57
408.31	3364.81
408.52	3370.96
408.73	3311.57
408.94	3336.14
409.15	3444.68
409.37	3532.75
409.58	3456.97
409.79	3461.07
410.00	3514.31
410.21	3508.17
410.43	3524.55
410.64	3444.68
410.85	3534.79
411.06	3569.61
411.27	3583.95
411.48	3626.95
411.70	3575.75
411.91	3637.19
412.12	3710.92
412.33	3598.28
412.54	3647.43
412.76	3764.17
412.97	3649.48
413.18	3483.59
413.39	3715.02
413.60	3766.21
413.81	3704.78
414.03	3688.39
414.24	3598.28
414.45	3825.61
414.66	3653.58
414.87	3661.77
415.08	3827.65
415.30	3801.03
415.51	3784.65
415.72	3661.77
415.93	3682.25
416.14	3817.41
416.35	3958.72
416.56	3911.62
416.78	3958.72
416.99	3889.09
417.20	3936.20
417.41	3925.96
417.62	3905.48
417.83	3841.99
418.04	3858.37
418.26	3936.20
418.47	3977.16
418.68	4003.78
418.89	4052.93
419.10	4161.47
419.31	3962.82
419.52	4208.58
419.73	4018.11
419.95	4138.94
420.16	3956.68
420.37	4069.31
420.58	4206.53
420.79	3917.76
421.00	4143.04
421.21	4231.10
421.42	4093.89
421.63	4007.87
421.85	4071.36
422.06	4249.54
422.27	4251.58
422.48	4298.69
422.69	4272.06
422.90	4343.74
423.11	4282.30
423.32	4302.78
423.53	4534.20
423.75	4251.58
423.96	4462.52
424.17	4474.81
424.38	4612.03
424.59	4419.52
424.80	4745.14
425.01	4442.04
425.22	4505.53
425.43	4374.46
425.64	4763.58
425.85	4616.12
426.06	4509.63
426.28	4513.72
426.49	4452.28
426.70	4591.55
426.91	4415.42
427.12	4724.66
427.33	4493.24
427.54	4644.79
427.75	4716.47
427.96	4874.17
428.17	4761.53
428.38	4753.34
428.59	4855.73
428.80	4818.87
429.01	4851.64
429.23	4779.96
429.44	4894.65
429.65	4997.04
429.86	4995.00
430.07	4861.88
430.28	4806.58
430.49	4904.89
430.70	5191.60
430.91	5060.53
431.12	4980.66
431.33	5074.87
431.54	4990.90
431.75	5103.54
431.96	5214.13
432.17	5140.40
432.38	5130.16
432.59	5396.40
432.80	5197.74
433.01	5359.53
433.22	5312.43
433.43	5273.52
433.64	5224.37
433.85	5242.80
434.06	5511.08
434.27	5222.32
434.49	5402.54
434.70	5451.69
434.91	5390.25
435.12	5511.08
435.33	5500.84
435.54	5560.24
435.75	5410.73
435.96	5550.00
436.17	5431.21
436.38	5607.34
436.59	5597.10
436.80	5527.47
437.01	5877.67
437.22	5746.60
437.43	5732.26
437.64	5533.61
437.85	5779.37
438.06	5822.38
438.27	5662.63
438.48	5689.26
438.69	5793.70
438.90	5851.05
439.11	5713.83
439.32	5873.57
439.53	5805.99
439.74	5789.61
439.95	5865.38
440.16	6008.74
440.37	5869.48
440.57	5898.15
440.78	5973.92
440.99	6045.60
441.20	6061.99
441.41	5932.97
441.62	6090.66
441.83	6045.60
442.04	6041.51
442.25	5967.78
442.46	6016.93
442.67	6303.65
442.88	6510.49
443.09	6102.95
443.30	6219.68
443.51	6283.17
443.72	6483.87
443.93	6236.06
444.14	6614.94
444.35	6246.30
444.56	6389.66
444.77	6363.04
444.98	6522.78
445.19	6705.05
445.40	6297.50
445.61	6367.13
445.81	6694.81
446.02	6680.47
446.23	6483.87
446.44	6350.75
446.65	6553.50
446.86	6582.17
447.07	6625.18
447.28	6942.61
447.49	6877.08
447.70	6598.56
447.91	6907.80
448.12	6655.90
448.33	6913.94
448.54	6819.74
448.74	6797.21
448.95	6975.38
449.16	6915.99
449.37	7116.69
449.58	7098.26
449.79	7204.75
450.00	6688.67
450.21	7075.73
450.42	6893.46
450.63	7223.19
450.84	7081.88
451.05	7014.29
451.25	7053.20
451.46	7067.54
451.67	7243.67
451.88	7116.69
452.09	7237.52
452.30	7161.75
452.51	7319.44
452.72	7272.34
452.93	7448.46
453.13	7178.13
453.34	7339.92
453.55	7292.82
453.76	7419.79
453.97	7739.27
454.18	7526.29
454.39	7669.64
454.60	7528.33
454.81	7579.53
455.01	7618.44
455.22	7409.55
455.43	7745.42
455.64	7829.38
455.85	7989.13
456.06	7880.58
456.27	7683.98
456.48	7784.33
456.68	7856.01
456.89	7874.44
457.10	7976.84
457.31	7899.02
457.52	7966.60
457.73	8204.16
457.94	8314.75
458.14	7966.60
458.35	8298.37
458.56	8306.56
458.77	8028.04
458.98	8128.39
459.19	8177.54
459.39	8368.00
459.60	8628.09
459.81	8329.09
460.02	8462.21
460.23	8392.58
460.44	8720.25
460.65	8681.34
460.85	8750.97
461.06	8820.60
461.27	8605.56
461.48	8851.32
461.69	8976.25
461.89	8617.85
462.10	8923.00
462.31	8734.59
462.52	8791.93
462.73	8908.66
462.94	9342.83
463.14	9144.18
463.35	9113.46
463.56	9658.22
463.77	9402.22
463.98	9260.91
464.18	9113.46
464.39	9430.90
464.60	9719.66
464.81	9412.46
465.02	9510.77
465.23	9834.35
465.43	9650.03
465.64	9805.67
465.85	9592.69
466.06	9680.75
466.27	10088.29
466.47	10041.19
466.68	10182.50
466.89	10084.20
467.10	10104.68
467.30	9957.22
467.51	10190.69
467.72	10757.98
467.93	10057.57
468.14	10508.13
468.34	10454.88
468.55	10477.41
468.76	10547.04
468.97	10544.99
469.17	10727.26
469.38	11044.70
469.59	11042.65
469.80	10755.93
470.01	11085.65
470.21	10897.24
470.42	11190.10
470.63	11411.28
470.84	11077.46
471.04	11278.16
471.25	11525.97
471.46	11292.50
471.67	11792.20
471.87	11558.74
472.08	12005.19
472.29	11978.57
472.50	11489.10
472.70	11767.63
472.91	11730.76
473.12	12316.48
473.33	12136.26
473.53	12498.75
473.74	12357.44
473.95	12459.84
474.16	12633.92
474.36	12435.27
474.57	12758.85
474.78	12842.81
474.99	12984.12
475.19	12611.39
475.40	13109.05
475.61	13152.06
475.81	13248.31
476.02	13393.72
476.23	13444.91
476.44	13444.91
476.64	13754.16
476.85	13750.06
477.06	13803.31
477.27	14032.68
477.47	13788.97
477.68	14210.86
477.89	14270.25
478.09	14118.70
478.30	14268.20
478.51	14366.50
478.71	14683.94
478.92	14634.78
479.13	14673.70
479.34	14941.98
479.54	14829.34
479.75	15034.14
479.96	14896.92
480.16	15093.53
480.37	15073.05
480.58	15521.56
480.78	15447.83
480.99	15539.99
481.20	15599.38
481.41	15562.51
481.61	15757.07
481.82	16000.78
482.03	16021.26
482.23	15910.67
482.44	16064.27
482.65	16346.89
482.85	16328.45
483.06	16305.93
483.27	16381.70
483.47	16463.62
483.68	16445.19
483.89	16736.00
484.09	16656.13
484.30	16830.21
484.51	17114.87
484.71	17121.02
484.92	17221.37
485.13	17299.19
485.33	17184.51
485.54	17090.30
485.75	17633.01
485.95	17430.26
486.16	17463.03
486.37	17598.20
486.57	17678.07
486.78	17661.68
486.98	17903.34
487.19	17811.18
487.40	18169.58
487.60	17997.55
487.81	18286.31
488.02	18294.50
488.22	18444.01
488.43	18685.67
488.64	18712.29
488.84	18706.15
489.05	18910.94
489.25	18826.98
489.46	18874.08
489.67	19134.17
489.87	19320.54
490.08	19134.17
490.29	19203.80
490.49	19674.84
490.70	19119.84
490.90	19537.62
491.11	19347.16
491.32	19855.06
491.52	19857.10
491.73	19721.94
491.94	19924.69
492.14	19816.15
492.35	20188.88
492.55	19844.82
492.76	20299.47
492.97	20731.59
493.17	20358.86
493.38	20436.68
493.58	20586.18
493.79	20563.65
494.00	20731.59
494.20	20872.90
494.41	20733.64
494.61	20952.77
494.82	21079.74
495.02	20991.68
495.23	21178.04
495.44	21272.25
495.64	21448.38
495.85	21165.76
496.05	21630.65
496.26	21575.35
496.47	21776.05
496.67	21587.64
496.88	22111.92
497.08	21622.45
497.29	21907.12
497.49	21831.35
497.70	22073.01
497.91	22314.67
498.11	22496.94
498.32	22300.33
498.52	22324.91
498.73	22490.79
498.93	22832.80
499.14	22871.72
499.34	22773.41
499.55	22902.43
499.76	22834.85
499.96	23094.94
500.17	23158.43
500.37	23221.92
500.58	23076.51
500.78	23094.94
500.99	23391.90
501.19	23475.87
501.40	23842.45
501.60	23299.74
501.81	23512.73
502.02	23668.37
502.22	23899.80
502.43	23928.47
502.63	24098.45
502.84	24297.10
503.04	24180.37
503.25	24419.98
503.45	24315.53
503.66	24645.26
503.86	24383.12
504.07	24817.29
504.27	24606.34
504.48	24948.36
504.68	24723.08
504.89	25173.63
505.09	25294.46
505.30	25230.98
505.50	25212.54
505.71	25273.98
505.91	25366.14
506.12	25116.29
506.32	25499.26
506.53	25534.07
506.73	25570.94
506.94	25368.19
507.14	25591.42
507.35	25745.02
507.55	26048.11
507.76	26488.43
507.96	26048.11
508.17	26351.21
508.37	25998.96
508.58	26175.09
508.78	26269.30
508.99	26828.39
509.19	26371.69
509.40	26441.32
509.60	26623.59
509.81	26848.87
510.01	26592.87
510.22	26926.69
510.42	26881.64
510.63	27254.37
510.83	26680.94
511.04	26979.94
511.24	27123.30
511.44	26820.20
511.65	27426.40
511.85	27287.14
512.06	27002.47
512.26	27633.24
512.47	27577.95
512.67	27498.08
512.88	27403.87
513.08	27477.60
513.29	28005.97
513.49	27729.50
513.69	27948.63
513.90	27713.11
514.10	27713.11
514.31	28042.84
514.51	28290.64
514.72	28139.09
514.92	28329.55
515.13	28116.56
515.33	28227.15
515.53	28413.52
515.74	28382.80
515.94	28235.35
516.15	28352.08
516.35	28276.30
516.56	28692.04
516.76	28595.79
516.96	28612.17
517.17	28999.24
517.37	28986.95
517.58	28892.74
517.78	29019.72
517.99	28870.22
518.19	29085.25
518.39	28882.50
518.60	29029.96
518.80	29097.54
519.01	29271.62
519.21	29337.15
519.41	29308.48
519.62	29081.16
519.82	29724.22
520.03	29662.78
520.23	30031.41
520.43	29777.47
520.64	30115.38
520.84	29816.38
521.05	29832.76
521.25	30064.18
521.45	30015.03
521.66	30170.68
521.86	30215.73
522.07	30264.88
522.27	30332.47
522.47	30228.02
522.68	30479.92
522.88	30271.03
523.08	30840.36
523.29	30551.60
523.49	30940.71
523.70	30666.28
523.90	31108.65
524.10	30813.74
524.31	31159.84
524.51	30694.96
524.71	31360.55
524.92	31366.69
525.12	31467.04
525.33	31338.02
525.53	31589.92
525.73	31383.07
525.94	31637.02
526.14	31489.57
526.34	31686.17
526.55	31860.25
526.75	31919.64
526.95	31667.74
527.16	31847.96
527.36	32214.55
527.56	32011.80
527.77	32435.73
527.97	31979.03
528.17	32091.67
528.38	32275.99
528.58	32226.84
528.78	32405.01
528.99	32476.69
529.19	32792.08
529.39	32386.58
529.60	32685.58
529.80	32724.49
530.00	32826.89
530.21	32988.68
530.41	33050.12
530.61	32816.65
530.82	33424.90
531.02	32845.32
531.22	33523.20
531.43	33562.11
531.63	33697.28
531.83	33742.33
532.04	33994.23
532.24	33500.67
532.44	34397.68
532.64	33938.94
532.85	33879.55
533.05	33990.14
533.25	34364.92
533.46	34113.02
533.66	34264.57
533.86	34291.19
534.07	34649.58
534.27	34356.72
534.47	34950.63
534.67	34940.39
534.88	34385.40
535.08	34987.50
535.28	34588.14
535.49	35282.41
535.69	35499.49
535.89	35268.07
536.09	35370.47
536.30	35806.69
536.50	35698.14
536.70	35460.58
536.91	35450.34
537.11	35861.98
537.31	35882.46
537.51	35821.02
537.72	36255.19
537.92	35837.41
538.12	36361.69
538.32	36416.98
538.53	36589.01
538.73	36206.04
538.93	36333.01
539.13	36832.72
539.34	36916.68
539.54	36595.15
539.74	37279.18
539.94	36816.33
540.15	36672.98
540.35	37260.74
540.55	37201.35
540.75	36750.80
540.96	37625.28
541.16	37393.86
541.36	37506.50
541.56	37578.18
541.77	37893.57
541.97	37682.62
542.17	37787.07
542.37	37742.02
542.58	38092.22
542.78	37598.66
542.98	38081.98
543.18	38450.61
543.38	38569.40
543.59	38798.77
543.79	38360.50
543.99	38467.00
544.19	38409.65
544.40	38507.96
544.60	39060.91
544.80	38501.81
545.00	38751.66
545.20	39462.31
545.41	39210.41
545.61	39155.11
545.81	39308.71
546.01	39429.54
546.21	39706.02
546.42	39159.21
546.62	39716.26
546.82	39425.45
547.02	39675.30
547.22	39869.86
547.43	39703.97
547.63	39847.33
547.83	40373.66
548.03	40115.61
548.23	40410.52
548.44	40041.88
548.64	40146.33
548.84	40668.56
549.04	40146.33
549.24	40568.21
549.45	40957.33
549.65	40502.68
549.85	40822.16
550.05	40967.57
550.25	40476.05
550.45	41377.16
550.66	40760.72
550.86	40891.79
551.06	41102.73
551.26	41153.93
551.46	41530.76
551.66	41473.42
551.87	41512.33
552.07	41536.90
552.27	41551.24
552.47	41469.32
552.67	42032.51
552.87	41762.18
553.07	41966.98
553.28	42014.08
553.48	42423.67
553.68	42114.43
553.88	42485.11
554.08	42399.10
554.28	42239.36
554.48	42073.47
554.69	42444.15
554.89	42478.97
555.09	42536.31
555.29	42345.85
555.49	42599.80
555.69	42708.34
555.89	42810.74
556.10	42923.38
556.30	42577.27
556.50	42720.63
556.70	42634.61
556.90	42794.36
557.10	43107.69
557.30	42651.00
557.50	43384.17
557.70	43472.23
557.91	43466.09
558.11	43332.97
558.31	43689.32
558.51	43281.77
558.71	43572.58
558.91	43271.53
559.11	43494.76
559.31	43302.25
559.51	43466.09
559.72	43461.99
559.92	43844.96
560.12	43658.60
560.32	44012.90
560.52	43476.33
560.72	43865.44
560.92	44029.28
561.12	43779.43
561.32	44260.70
561.52	43689.32
561.72	44615.00
561.93	43865.44
562.13	43965.79
562.33	44189.02
562.53	44795.22
562.73	44442.97
562.93	44561.75
563.13	44246.36
563.33	44055.90
563.53	44473.69
563.73	44385.63
563.93	44768.60
564.13	45139.28
564.33	44668.25
564.53	44295.52
564.74	44889.43
564.94	44555.61
565.14	44963.15
565.34	44563.80
565.54	44404.06
565.74	44944.72
565.94	45108.56
566.14	44967.25
566.34	44901.71
566.54	45335.88
566.74	44639.57
566.94	45382.99
567.14	45126.99
567.34	44758.36
567.54	45141.33
567.74	44756.31
567.94	44776.79
568.14	45225.29
568.34	45661.51
568.54	45249.87
568.74	45002.07
568.94	45225.29
569.14	45602.12
569.34	45407.56
569.54	45462.86
569.75	44856.66
569.95	45540.68
570.15	45673.80
570.35	45421.90
570.55	45800.77
570.75	45649.22
570.95	45116.75
571.15	45634.89
571.35	45481.29
571.55	45751.62
571.75	45327.69
571.95	45581.64
572.15	45579.59
572.35	45835.59
572.55	46198.08
572.75	45630.79
572.95	45479.24
573.15	45794.63
573.35	45876.55
573.55	45651.27
573.75	45890.88
573.95	46034.24
574.15	45778.25
574.35	45854.02
574.55	45839.68
574.75	45835.59
574.95	46218.56
575.15	45700.42
575.34	45980.99
575.54	46282.05
575.74	46253.37
575.94	46302.53
576.14	46067.01
576.34	46282.05
576.54	46148.93
576.74	46609.72
576.94	46316.86
577.14	46202.18
577.34	46810.42
577.54	46302.53
577.74	46413.12
577.94	46648.63
578.14	46388.54
578.34	47177.01
578.54	46347.58
578.74	46212.41
578.94	46404.92
579.14	46255.42
579.34	46292.29
579.54	46603.58
579.74	47068.47
579.94	46720.31
580.13	46945.59
580.33	46937.40
580.53	47140.14
580.73	47172.91
580.93	47019.31
581.13	47123.76
581.33	47068.47
581.53	47103.28
581.73	47525.16
581.93	47320.37
582.13	47248.69
582.33	47762.73
582.53	47203.63
582.73	47256.88
582.92	47228.21
583.12	47404.33
583.32	47291.69
583.52	47361.33
583.72	47854.89
583.92	47660.33
584.12	47912.23
584.32	48041.25
584.52	47873.32
584.72	47568.17
584.92	47965.48
585.11	48092.45
585.31	48102.69
585.51	48211.23
585.71	48080.16
585.91	48098.59
586.11	48235.81
586.31	48237.86
586.51	48323.87
586.71	48540.96
586.91	48561.44
587.10	48323.87
587.30	48196.90
587.50	48727.32
587.70	48430.36
587.90	48358.69
588.10	49034.52
588.30	48317.73
588.50	48823.58
