SpectraSuite Data File
++++++++++++++++++++++++++++++++++++
Date: Fri Jun 02 14:44:36 CEST 2017
User: INFO_000
Dark Spectrum Present: No
Reference Spectrum Present: No
Number of Sampled Component Spectra: 1
Spectrometers: USB4H00879
Integration Time (usec): 80000 (USB4H00879)
Spectra Averaged: 1 (USB4H00879)
Boxcar Smoothing: 0 (USB4H00879)
Correct for Electrical Dark: No (USB4H00879)
Strobe/Lamp Enabled: No (USB4H00879)
Correct for Detector Non-linearity: No (USB4H00879)
Correct for Stray Light: No (USB4H00879)
Number of Pixels in Processed Spectrum: 3648
>>>>>Begin Processed Spectral Data<<<<<
345.13	1314.80
345.34	1314.80
345.56	1314.80
345.78	1255.40
345.99	1239.02
346.21	1726.44
346.42	1597.42
346.64	1585.13
346.86	1832.93
347.07	1656.81
347.29	1722.34
347.50	1671.14
347.72	1658.85
347.94	1736.68
348.15	1503.21
348.37	1509.35
348.59	1691.62
348.80	1640.42
349.02	1777.64
349.23	1816.55
349.45	1851.36
349.67	1830.88
349.88	1753.06
350.10	1994.72
350.31	1751.01
350.53	1806.31
350.75	2011.11
350.96	1796.07
351.18	1929.19
351.39	1804.26
351.61	1757.16
351.82	1896.42
352.04	1890.28
352.26	1761.25
352.47	1877.99
352.69	1818.60
352.90	1714.15
353.12	1867.75
353.34	1851.36
353.55	1964.00
353.77	1865.70
353.98	1806.31
354.20	1812.45
354.41	1951.71
354.63	1884.13
354.85	1986.53
355.06	1906.66
355.28	1789.92
355.49	1898.47
355.71	1912.80
355.92	1937.38
356.14	1953.76
356.35	1824.74
356.57	1886.18
356.79	1925.09
357.00	1863.65
357.22	1951.71
357.43	1828.84
357.65	1996.77
357.86	1808.36
358.08	1910.75
358.29	1945.57
358.51	2004.96
358.72	1964.00
358.94	1892.32
359.16	1896.42
359.37	1828.84
359.59	1912.80
359.80	1972.19
360.02	1984.48
360.23	1931.23
360.45	2054.11
360.66	1867.75
360.88	1894.37
361.09	1966.05
361.31	1964.00
361.52	1925.09
361.74	2019.30
361.95	2007.01
362.17	2002.91
362.38	2095.07
362.60	2013.15
362.81	1906.66
363.03	2035.68
363.24	1968.10
363.46	2076.64
363.67	2082.78
363.89	2004.96
364.10	2054.11
364.32	1986.53
364.53	2043.87
364.75	1898.47
364.96	2039.78
365.18	2039.78
365.39	1982.43
365.61	1976.29
365.82	2041.82
366.04	2013.15
366.25	1984.48
366.47	2101.22
366.68	2002.91
366.90	1927.14
367.11	2113.50
367.33	2101.22
367.54	2117.60
367.76	2031.58
367.97	1974.24
368.19	2041.82
368.40	2103.26
368.62	1961.95
368.83	2011.11
369.05	2052.06
369.26	1988.58
369.48	1990.63
369.69	1998.82
369.91	2050.02
370.12	2058.21
370.33	2127.84
370.55	1910.75
370.76	1994.72
370.98	2150.37
371.19	2009.06
371.41	2056.16
371.62	2011.11
371.84	1992.67
372.05	2174.94
372.27	2023.39
372.48	2133.98
372.69	2097.12
372.91	2133.98
373.12	2187.23
373.34	2011.11
373.55	2045.92
373.77	2185.18
373.98	2078.69
374.20	2181.09
374.41	2246.62
374.62	2050.02
374.84	2162.66
375.05	2240.48
375.27	2201.57
375.48	2191.33
375.70	2187.23
375.91	2207.71
376.12	2252.77
376.34	2121.70
376.55	2201.57
376.77	2191.33
376.98	2060.26
377.19	2176.99
377.41	2133.98
377.62	2258.91
377.84	2273.25
378.05	2232.29
378.27	2195.42
378.48	2322.40
378.69	2359.26
378.91	2328.54
379.12	2170.85
379.34	2195.42
379.55	2287.58
379.76	2275.29
379.98	2246.62
380.19	2232.29
380.41	2209.76
380.62	2379.74
380.83	2129.89
381.05	2238.43
381.26	2400.22
381.47	2203.61
381.69	2308.06
381.90	2381.79
382.12	2316.25
382.33	2287.58
382.54	2293.72
382.76	2344.92
382.97	2320.35
383.19	2303.96
383.40	2318.30
383.61	2326.49
383.83	2279.39
384.04	2334.68
384.25	2332.64
384.47	2385.88
384.68	2346.97
384.89	2314.20
385.11	2312.16
385.32	2363.36
385.54	2291.68
385.75	2383.84
385.96	2371.55
386.18	2443.23
386.39	2394.08
386.60	2357.21
386.82	2459.61
387.03	2377.69
387.24	2463.71
387.46	2435.03
387.67	2461.66
387.88	2432.99
388.10	2502.62
388.31	2506.71
388.52	2574.30
388.74	2586.58
388.95	2527.19
389.16	2539.48
389.38	2533.34
389.59	2627.54
389.80	2688.98
390.02	2519.00
390.23	2541.53
390.44	2488.28
390.66	2488.28
390.87	2596.82
391.08	2584.54
391.30	2717.65
391.51	2588.63
391.72	2686.94
391.94	2772.95
392.15	2639.83
392.36	2637.78
392.58	2584.54
392.79	2662.36
393.00	2607.06
393.22	2713.56
393.43	2785.24
393.64	2770.90
393.85	2797.53
394.07	2652.12
394.28	2633.69
394.49	2766.81
394.71	2803.67
394.92	2813.91
395.13	2748.37
395.35	2705.37
395.56	2762.71
395.77	2842.58
395.98	2811.86
396.20	2891.73
396.41	2813.91
396.62	2830.29
396.84	2777.05
397.05	2846.68
397.26	2895.83
397.47	2973.65
397.69	2916.31
397.90	3028.95
398.11	2883.54
398.32	2924.50
398.54	2904.02
398.75	2863.06
398.96	2949.08
399.18	2998.23
399.39	2865.11
399.60	2983.89
399.81	2881.49
400.03	2891.73
400.24	3258.32
400.45	2998.23
400.66	3114.96
400.88	2949.08
401.09	3198.93
401.30	3030.99
401.51	3125.20
401.73	3078.10
401.94	3043.28
402.15	3090.38
402.36	3137.49
402.58	3188.69
402.79	3162.06
403.00	3219.41
403.21	3067.86
403.43	3129.30
403.64	3395.53
403.85	3127.25
404.06	3252.17
404.27	3137.49
404.49	3272.65
404.70	3164.11
404.91	3272.65
405.12	3223.50
405.34	3262.41
405.55	3405.77
405.76	3149.78
405.97	3299.28
406.19	3426.25
406.40	3332.05
406.61	3383.24
406.82	3330.00
407.03	3346.38
407.25	3278.80
407.46	3456.97
407.67	3416.01
407.88	3553.23
408.09	3397.58
408.31	3299.28
408.52	3370.96
408.73	3418.06
408.94	3375.05
409.15	3551.18
409.37	3647.43
409.58	3538.89
409.79	3514.31
410.00	3518.41
410.21	3540.94
410.43	3471.31
410.64	3397.58
410.85	3631.05
411.06	3502.03
411.27	3645.38
411.48	3549.13
411.70	3452.88
411.91	3565.51
412.12	3674.06
412.33	3641.29
412.54	3575.75
412.76	3755.97
412.97	3735.50
413.18	3637.19
413.39	3741.64
413.60	3657.67
413.81	3649.48
414.03	3606.47
414.24	3653.58
414.45	3885.00
414.66	3655.62
414.87	3794.89
415.08	3776.45
415.30	3694.54
415.51	3770.31
415.72	3682.25
415.93	3794.89
416.14	3809.22
416.35	3874.76
416.56	3798.98
416.78	3723.21
416.99	3805.13
417.20	3717.06
417.41	3934.15
417.62	3946.44
417.83	3848.13
418.04	3811.27
418.26	3946.44
418.47	3977.16
418.68	4081.60
418.89	4007.87
419.10	4032.45
419.31	4026.31
419.52	4089.79
419.73	4048.83
419.95	4116.42
420.16	3991.49
420.37	4089.79
420.58	4106.18
420.79	3968.96
421.00	4108.23
421.21	4085.70
421.42	3921.86
421.63	4046.79
421.85	4054.98
422.06	4202.43
422.27	4120.51
422.48	4167.62
422.69	4274.11
422.90	4216.77
423.11	4200.38
423.32	4296.64
423.53	4507.58
423.75	4401.08
423.96	4390.84
424.17	4376.51
424.38	4442.04
424.59	4374.46
424.80	4536.25
425.01	4458.43
425.22	4403.13
425.43	4431.80
425.64	4483.00
425.85	4661.18
426.06	4652.98
426.28	4573.11
426.49	4421.56
426.70	4530.11
426.91	4526.01
427.12	4642.75
427.33	4583.35
427.54	4591.55
427.75	4650.94
427.96	4745.14
428.17	4761.53
428.38	4865.97
428.59	4784.06
428.80	4665.27
429.01	4872.12
429.23	4747.19
429.44	4804.53
429.65	4960.18
429.86	4847.54
430.07	4790.20
430.28	4855.73
430.49	5046.20
430.70	5056.43
430.91	5183.41
431.12	5111.73
431.33	5124.02
431.54	5230.51
431.75	5308.34
431.96	5195.70
432.17	5062.58
432.38	5167.03
432.59	5392.30
432.80	5373.87
433.01	5298.10
433.22	5298.10
433.43	5406.64
433.64	5337.01
433.85	5296.05
434.06	5463.98
434.27	5246.90
434.49	5470.12
434.70	5527.47
434.91	5466.03
435.12	5529.52
435.33	5476.27
435.54	5535.66
435.75	5371.82
435.96	5607.34
436.17	5451.69
436.38	5529.52
436.59	5730.22
436.80	5535.66
437.01	5826.47
437.22	5697.45
437.43	5900.20
437.64	5814.18
437.85	5756.84
438.06	5834.66
438.27	5642.15
438.48	5894.05
438.69	5894.05
438.90	5861.29
439.11	5836.71
439.32	5908.39
439.53	5930.92
439.74	5975.97
439.95	6125.47
440.16	5875.62
440.37	5939.11
440.57	5834.66
440.78	6021.03
440.99	6184.87
441.20	5949.35
441.41	5922.73
441.62	6117.28
441.83	5965.73
442.04	6066.08
442.25	6131.62
442.46	6082.47
442.67	6305.70
442.88	6637.47
443.09	6158.24
443.30	6234.02
443.51	6348.70
443.72	6530.97
443.93	6215.59
444.14	6573.98
444.35	6223.78
444.56	6352.80
444.77	6348.70
444.98	6373.28
445.19	6598.56
445.40	6539.16
445.61	6412.19
445.81	6659.99
446.02	6547.36
446.23	6483.87
446.44	6305.70
446.65	6494.11
446.86	6512.54
447.07	6688.67
447.28	6879.13
447.49	6840.22
447.70	6758.30
447.91	6731.67
448.12	6770.58
448.33	6850.46
448.54	6838.17
448.74	6571.93
448.95	6715.29
449.16	6815.64
449.37	7075.73
449.58	6911.89
449.79	7006.10
450.00	6817.69
450.21	6887.32
450.42	7065.49
450.63	6936.47
450.84	7161.75
451.05	7030.68
451.25	7004.05
451.46	6959.00
451.67	7102.36
451.88	7235.47
452.09	7184.27
452.30	7110.55
452.51	7227.28
452.72	7335.82
452.93	7608.20
453.13	7169.94
453.34	7202.71
453.55	7329.68
453.76	7221.14
453.97	7692.17
454.18	7434.13
454.39	7640.97
454.60	7485.33
454.81	7485.33
455.01	7700.36
455.22	7405.46
455.43	7591.82
455.64	7677.83
455.85	7899.02
456.06	7989.13
456.27	7942.02
456.48	7739.27
456.68	7819.14
456.89	8046.47
457.10	7767.95
457.31	7948.17
457.52	7978.89
457.73	8064.90
457.94	8394.62
458.14	7911.30
458.35	8474.49
458.56	8220.55
458.77	8152.96
458.98	8294.27
459.19	8304.51
459.39	8419.20
459.60	8411.01
459.81	8349.57
460.02	8595.32
460.23	8525.69
460.44	8597.37
460.65	8802.17
460.85	8646.52
461.06	8785.79
461.27	8503.17
461.48	9052.02
461.69	8994.68
461.89	8669.05
462.10	9015.16
462.31	8925.05
462.52	8777.59
462.73	9041.78
462.94	9230.20
463.14	9240.44
463.35	9152.37
463.56	9359.22
463.77	9602.93
463.98	9338.74
464.18	9303.92
464.39	9594.73
464.60	9719.66
464.81	9746.28
465.02	9744.24
465.23	9768.81
465.43	9633.64
465.64	10002.28
465.85	9865.07
466.06	9985.90
466.27	10020.71
466.47	10237.80
466.68	10221.41
466.89	10073.96
467.10	10413.92
467.30	10123.11
467.51	10258.28
467.72	10569.57
467.93	10159.97
468.14	10399.59
468.34	10831.71
468.55	10493.79
468.76	10657.63
468.97	10637.15
469.17	10671.97
469.38	11067.22
469.59	11118.42
469.80	10841.95
470.01	11116.37
470.21	11018.07
470.42	11288.40
470.63	11206.48
470.84	11134.81
471.04	11439.95
471.25	11562.83
471.46	11601.74
471.67	11949.90
471.87	11685.71
472.08	11880.27
472.29	11992.90
472.50	11689.81
472.70	11919.18
472.91	11882.31
473.12	12296.00
473.33	12283.72
473.53	12138.31
473.74	12273.48
473.95	12470.08
474.16	12693.31
474.36	12437.31
474.57	12877.63
474.78	12959.55
474.99	12713.79
475.19	12797.76
475.40	13072.18
475.61	12988.22
475.81	13356.85
476.02	13475.63
476.23	13305.65
476.44	13346.61
476.64	13684.53
476.85	13743.92
477.06	13643.57
477.27	13870.89
477.47	13920.04
477.68	14026.54
477.89	14036.78
478.09	14120.74
478.30	14229.29
478.51	14182.18
478.71	14116.65
478.92	14520.10
479.13	14608.16
479.34	14718.75
479.54	14655.26
479.75	14769.95
479.96	14858.01
480.16	15099.67
480.37	14896.92
480.58	15062.81
480.78	15314.71
480.99	15396.63
481.20	15585.04
481.41	15589.14
481.61	15642.39
481.82	15673.10
482.03	15634.19
482.23	15685.39
482.44	16041.74
482.65	16213.77
482.85	16277.26
483.06	16051.98
483.27	16396.04
483.47	16355.08
483.68	16334.60
483.89	16455.43
484.09	16461.57
484.30	16850.69
484.51	16785.15
484.71	16715.52
484.92	16877.31
485.13	17211.13
485.33	17096.44
485.54	16803.58
485.75	17313.53
485.95	17311.48
486.16	17291.00
486.37	17684.21
486.57	17536.76
486.78	17600.24
486.98	17565.43
487.19	17852.14
487.40	17948.40
487.60	17815.28
487.81	18331.37
488.02	18222.83
488.22	17846.00
488.43	18446.05
488.64	18421.48
488.84	18538.21
489.05	18527.97
489.25	18657.00
489.46	18855.65
489.67	18722.53
489.87	19056.35
490.08	19197.66
490.29	19123.93
490.49	19517.14
490.70	19306.20
490.90	19752.66
491.11	19511.00
491.32	19429.08
491.52	19810.00
491.73	19797.71
491.94	19889.87
492.14	19531.48
492.35	20045.52
492.55	20373.19
492.76	20192.97
492.97	20303.56
493.17	20145.87
493.38	20473.54
493.58	20651.72
493.79	20625.09
494.00	20637.38
494.20	20780.74
494.41	20987.58
494.61	21030.59
494.82	20973.25
495.02	20729.54
495.23	21323.45
495.44	21319.35
495.64	21757.62
495.85	21749.43
496.05	21509.82
496.26	21706.42
496.47	21974.70
496.67	21784.24
496.88	21966.51
497.08	21878.45
497.29	22210.22
497.49	22130.35
497.70	22222.51
497.91	22482.60
498.11	22464.17
498.32	22806.18
498.52	22892.19
498.73	22691.49
498.93	22847.14
499.14	22810.28
499.34	23064.22
499.55	22984.35
499.76	22873.76
499.96	23332.51
500.17	23371.42
500.37	23422.62
500.58	23246.49
500.78	23529.11
500.99	23695.00
501.19	23754.39
501.40	23635.61
501.60	23748.25
501.81	23733.91
502.02	23950.99
502.22	24096.40
502.43	24262.29
502.63	24446.60
502.84	24374.92
503.04	24401.55
503.25	24301.20
503.45	24678.02
503.66	24946.31
503.86	24663.69
504.07	25067.14
504.27	24968.84
504.48	25075.33
504.68	25230.98
504.89	25319.04
505.09	25532.03
505.30	25314.94
505.50	25511.55
505.71	25005.70
505.91	25646.71
506.12	25357.95
506.32	25742.97
506.53	25824.89
506.73	25632.38
506.94	25798.26
507.14	26044.02
507.35	26027.63
507.55	26248.82
507.76	26261.10
507.96	25896.56
508.17	25986.68
508.37	26056.31
508.58	26113.65
508.78	26445.42
508.99	26775.14
509.19	26617.45
509.40	26719.85
509.60	26695.27
509.81	26918.50
510.01	26914.41
510.22	26756.71
510.42	26904.17
510.63	27176.55
510.83	26769.00
511.04	27008.61
511.24	27166.31
511.44	27055.72
511.65	27209.31
511.85	27299.42
512.06	27211.36
512.26	27360.86
512.47	27526.75
512.67	27348.57
512.88	27623.00
513.08	27162.21
513.29	27528.80
513.49	27731.54
513.69	27713.11
513.90	27797.08
514.10	27870.81
514.31	28028.50
514.51	27860.57
514.72	28077.65
514.92	28028.50
515.13	28243.54
515.33	28128.85
515.53	28124.75
515.74	27965.01
515.94	28544.59
516.15	28524.11
516.35	27979.35
516.56	28753.48
516.76	28302.93
516.96	28485.20
517.17	28804.68
517.37	28509.77
517.58	28534.35
517.78	28741.19
517.99	28550.73
518.19	28939.85
518.39	28911.17
518.60	29093.44
518.80	28978.76
519.01	29187.65
519.21	29132.36
519.41	29109.83
519.62	29058.63
519.82	29275.71
520.03	29619.77
520.23	29558.33
520.43	28950.09
520.64	29814.33
520.84	29623.87
521.05	29249.09
521.25	29505.09
521.45	29517.37
521.66	29789.75
521.86	29804.09
522.07	29804.09
522.27	30166.58
522.47	30119.48
522.68	30225.97
522.88	30160.44
523.08	30135.86
523.29	30457.39
523.49	30092.85
523.70	30518.83
523.90	30438.96
524.10	30174.77
524.31	30844.46
524.51	30608.94
524.71	30776.87
524.92	30783.02
525.12	30873.13
525.33	30805.55
525.53	31051.30
525.73	31430.18
525.94	31055.40
526.14	31112.74
526.34	31356.45
526.55	31366.69
526.75	31192.61
526.95	31620.64
527.16	31432.22
527.36	31454.75
527.56	31784.48
527.77	32202.26
527.97	31833.63
528.17	32329.23
528.38	31839.77
528.58	32019.99
528.78	32284.18
528.99	31968.79
529.19	32355.86
529.39	32071.19
529.60	32269.84
529.80	32710.16
530.00	32687.63
530.21	32724.49
530.41	32982.54
530.61	32912.91
530.82	32986.63
531.02	33408.51
531.22	33322.50
531.43	33209.86
531.63	33426.95
531.83	33232.39
532.04	33809.92
532.24	33431.04
532.44	34010.62
532.64	33725.95
532.85	34029.05
533.05	34080.25
533.25	33979.90
533.46	33705.47
533.66	34643.44
533.86	34285.04
534.07	34876.91
534.27	34684.40
534.47	34745.84
534.67	34788.85
534.88	34618.86
535.08	34895.34
535.28	35112.42
535.49	35030.51
535.69	35679.71
535.89	35403.24
536.09	35423.72
536.30	35540.45
536.50	35585.50
536.70	36052.44
536.91	35757.53
537.11	35663.33
537.31	36029.91
537.51	36152.79
537.72	36609.49
537.92	36263.38
538.12	36730.32
538.32	36236.76
538.53	36529.62
538.73	36578.77
538.93	36617.68
539.13	36937.16
539.34	36722.13
539.54	36918.73
539.74	36955.60
539.94	37189.06
540.15	37045.71
540.35	37316.04
540.55	37418.44
540.75	37236.17
540.96	37602.75
541.16	37596.61
541.36	37776.83
541.56	37699.01
541.77	38114.75
541.97	37936.57
542.17	38190.52
542.37	38331.83
542.58	38211.00
542.78	38450.61
542.98	38516.15
543.18	38872.49
543.38	39237.03
543.59	38495.67
543.79	39120.30
543.99	38618.55
544.19	39093.68
544.40	38974.89
544.60	39083.44
544.80	39120.30
545.00	39116.20
545.20	39779.74
545.41	39497.13
545.61	39474.60
545.81	39873.95
546.01	39994.78
546.21	40043.93
546.42	39712.16
546.62	39845.28
546.82	39867.81
547.02	39912.86
547.22	40353.18
547.43	40316.31
547.63	40435.10
547.83	40547.73
548.03	40375.70
548.23	40770.96
548.44	40383.90
548.64	40842.64
548.84	40648.08
549.04	40781.20
549.24	41182.60
549.45	41418.12
549.65	41223.56
549.85	41207.18
550.05	41497.99
550.25	41278.86
550.45	41870.72
550.66	41739.65
550.86	41170.32
551.06	41588.10
551.26	41465.22
551.46	41778.56
551.66	41366.92
551.87	41401.74
552.07	41639.30
552.27	41778.56
552.47	42067.33
552.67	42272.12
552.87	41866.63
553.07	41815.43
553.28	42265.98
553.48	42392.95
553.68	41684.36
553.88	42851.70
554.08	42098.05
554.28	42157.44
554.48	42438.01
554.69	42644.85
554.89	42483.06
555.09	42747.25
555.29	42339.71
555.49	42630.52
555.69	42677.62
555.89	42802.55
556.10	42966.38
556.30	42986.86
556.50	42999.15
556.70	42876.27
556.90	42689.91
557.10	42911.09
557.30	42978.67
557.50	43105.65
557.70	43625.83
557.91	43146.61
558.11	42986.86
558.31	43523.43
558.51	43181.42
558.71	43468.14
558.91	43230.57
559.11	43169.13
559.31	43386.22
559.51	43429.23
559.72	43214.19
559.92	43433.32
560.12	43263.34
560.32	43765.09
560.52	43777.38
560.72	43640.17
560.92	43509.10
561.12	43890.02
561.32	44078.43
561.52	43421.03
561.72	44418.39
561.93	43758.95
562.13	43890.02
562.33	43730.28
562.53	44174.69
562.73	43584.87
562.93	43937.12
563.13	43926.88
563.33	44053.86
563.53	44336.48
563.73	43771.24
563.93	43945.31
564.13	44338.52
564.33	44070.24
564.53	44047.71
564.74	44150.11
564.94	44094.82
565.14	44381.53
565.34	43988.32
565.54	44291.42
565.74	44553.56
565.94	44516.70
566.14	44281.18
566.34	44455.26
566.54	44770.64
566.74	44397.91
566.94	44438.87
567.14	44756.31
567.34	44485.98
567.54	44799.32
567.74	44156.25
567.94	44141.92
568.14	45014.35
568.34	44717.40
568.54	44615.00
568.74	44524.89
568.94	44934.48
569.14	45133.14
569.34	44909.91
569.54	45108.56
569.75	44635.48
569.95	44617.05
570.15	45225.29
570.35	45073.74
570.55	44569.94
570.75	45045.07
570.95	44651.86
571.15	45198.67
571.35	45061.46
571.55	45028.69
571.75	45141.33
571.95	44881.24
572.15	45069.65
572.35	45100.37
572.55	45217.10
572.75	45278.54
572.95	45339.98
573.15	45524.30
573.35	45364.56
573.55	45176.14
573.75	45491.53
573.95	45331.79
574.15	45462.86
574.35	45397.32
574.55	45190.48
574.75	45585.74
574.95	45614.41
575.15	45440.33
575.34	45423.95
575.54	45806.92
575.74	45382.99
575.94	45602.12
576.14	45565.26
576.34	45868.36
576.54	46067.01
576.74	46052.67
576.94	45757.77
577.14	46380.35
577.34	46316.86
577.54	45905.22
577.74	45772.10
577.94	46196.03
578.14	46310.72
578.34	46355.77
578.54	46150.98
578.74	46253.37
578.94	46576.95
579.14	46224.70
579.34	46509.37
579.54	46656.82
579.74	46726.46
579.94	46251.33
580.13	46751.03
580.33	46423.36
580.53	46712.12
580.73	46882.10
580.93	46994.74
581.13	46945.59
581.33	46835.00
581.53	47160.62
581.73	47113.52
581.93	47136.05
582.13	46820.66
582.33	47217.97
582.53	47510.83
582.73	47732.01
582.92	47226.16
583.12	47531.31
583.32	47138.10
583.52	47428.91
583.72	47723.82
583.92	47445.29
584.12	47414.57
584.32	47748.39
584.52	47408.43
584.72	47637.80
584.92	48076.07
585.11	48477.47
585.31	48117.03
585.51	48055.59
585.71	48020.77
585.91	48704.79
586.11	47992.10
586.31	48219.42
586.51	48340.25
586.71	48545.05
586.91	48700.70
587.10	48786.71
587.30	48850.20
587.50	48821.53
587.70	48678.17
587.90	48911.64
588.10	49100.05
588.30	48815.38
588.50	48977.17
