SpectraSuite Data File
++++++++++++++++++++++++++++++++++++
Date: Fri Jun 02 14:44:34 CEST 2017
User: INFO_000
Dark Spectrum Present: No
Reference Spectrum Present: No
Number of Sampled Component Spectra: 1
Spectrometers: USB4H00879
Integration Time (usec): 80000 (USB4H00879)
Spectra Averaged: 1 (USB4H00879)
Boxcar Smoothing: 0 (USB4H00879)
Correct for Electrical Dark: No (USB4H00879)
Strobe/Lamp Enabled: No (USB4H00879)
Correct for Detector Non-linearity: No (USB4H00879)
Correct for Stray Light: No (USB4H00879)
Number of Pixels in Processed Spectrum: 3648
>>>>>Begin Processed Spectral Data<<<<<
345.13	1241.07
345.34	1241.07
345.56	1241.07
345.78	1312.75
345.99	1290.22
346.21	1699.81
346.42	1634.28
346.64	1613.80
346.86	1740.77
347.07	1574.89
347.29	1662.95
347.50	1624.04
347.72	1613.80
347.94	1742.82
348.15	1568.74
348.37	1640.42
348.59	1738.73
348.80	1665.00
349.02	1746.92
349.23	1906.66
349.45	1746.92
349.67	1841.12
349.88	1863.65
350.10	1937.38
350.31	1787.88
350.53	1814.50
350.75	1974.24
350.96	1837.03
351.18	1894.37
351.39	1830.88
351.61	1763.30
351.82	1880.04
352.04	1839.08
352.26	1877.99
352.47	1890.28
352.69	1949.67
352.90	1726.44
353.12	1820.64
353.34	1812.45
353.55	1945.57
353.77	1912.80
353.98	1845.22
354.20	1853.41
354.41	1939.43
354.63	1904.61
354.85	1986.53
355.06	1871.84
355.28	1744.87
355.49	1888.23
355.71	1871.84
355.92	1888.23
356.14	1988.58
356.35	1918.95
356.57	1863.65
356.79	1929.19
357.00	1845.22
357.22	1982.43
357.43	1900.52
357.65	1918.95
357.86	1814.50
358.08	1849.32
358.29	1886.18
358.51	2015.20
358.72	1920.99
358.94	1923.04
359.16	1982.43
359.37	1916.90
359.59	1939.43
359.80	2017.25
360.02	1933.28
360.23	2000.87
360.45	2066.40
360.66	1933.28
360.88	1849.32
361.09	1955.81
361.31	2027.49
361.52	1941.47
361.74	2131.94
361.95	2002.91
362.17	1931.23
362.38	2002.91
362.60	2072.54
362.81	1970.15
363.03	1943.52
363.24	1945.57
363.46	2068.45
363.67	2027.49
363.89	2000.87
364.10	1966.05
364.32	1953.76
364.53	2133.98
364.75	1925.09
364.96	1982.43
365.18	1982.43
365.39	2025.44
365.61	1982.43
365.82	2097.12
366.04	2037.73
366.25	1994.72
366.47	2133.98
366.68	1994.72
366.90	1998.82
367.11	2052.06
367.33	2072.54
367.54	2080.74
367.76	2109.41
367.97	2115.55
368.19	2019.30
368.40	2105.31
368.62	1945.57
368.83	2035.68
369.05	2084.83
369.26	2007.01
369.48	2041.82
369.69	2019.30
369.91	2017.25
370.12	1990.63
370.33	2111.46
370.55	2013.15
370.76	1970.15
370.98	2187.23
371.19	2074.59
371.41	1955.81
371.62	2054.11
371.84	2000.87
372.05	2136.03
372.27	2099.17
372.48	2101.22
372.69	2072.54
372.91	2131.94
373.12	2189.28
373.34	2009.06
373.55	2119.65
373.77	2158.56
373.98	2072.54
374.20	2187.23
374.41	2236.38
374.62	2107.36
374.84	2176.99
375.05	2222.05
375.27	2220.00
375.48	2166.75
375.70	2133.98
375.91	2189.28
376.12	2293.72
376.34	2123.74
376.55	2166.75
376.77	2289.63
376.98	2142.18
377.19	2142.18
377.41	2146.27
377.62	2226.14
377.84	2232.29
378.05	2271.20
378.27	2238.43
378.48	2369.50
378.69	2383.84
378.91	2349.02
379.12	2209.76
379.34	2222.05
379.55	2287.58
379.76	2303.96
379.98	2181.09
380.19	2293.72
380.41	2209.76
380.62	2306.01
380.83	2238.43
381.05	2246.62
381.26	2402.27
381.47	2252.77
381.69	2334.68
381.90	2365.40
382.12	2318.30
382.33	2267.10
382.54	2371.55
382.76	2275.29
382.97	2289.63
383.19	2279.39
383.40	2400.22
383.61	2346.97
383.83	2240.48
384.04	2314.20
384.25	2430.94
384.47	2373.60
384.68	2359.26
384.89	2332.64
385.11	2344.92
385.32	2371.55
385.54	2346.97
385.75	2336.73
385.96	2330.59
386.18	2416.60
386.39	2402.27
386.60	2349.02
386.82	2396.12
387.03	2410.46
387.24	2557.91
387.46	2535.39
387.67	2598.87
387.88	2521.05
388.10	2508.76
388.31	2506.71
388.52	2629.59
388.74	2539.48
388.95	2410.46
389.16	2469.85
389.38	2467.80
389.59	2535.39
389.80	2654.17
390.02	2607.06
390.23	2592.73
390.44	2566.10
390.66	2521.05
390.87	2535.39
391.08	2580.44
391.30	2772.95
391.51	2674.65
391.72	2701.27
391.94	2719.70
392.15	2598.87
392.36	2666.46
392.58	2631.64
392.79	2703.32
393.00	2752.47
393.22	2672.60
393.43	2725.85
393.64	2807.77
393.85	2779.09
394.07	2664.41
394.28	2758.61
394.49	2779.09
394.71	2785.24
394.92	2863.06
395.13	2805.72
395.35	2752.47
395.56	2629.59
395.77	2775.00
395.98	2699.22
396.20	2842.58
396.41	2744.28
396.62	2813.91
396.84	2840.53
397.05	2873.30
397.26	2850.77
397.47	2944.98
397.69	2748.37
397.90	2981.84
398.11	2971.60
398.32	2957.27
398.54	2871.25
398.75	2924.50
398.96	2893.78
399.18	3078.10
399.39	2947.03
399.60	3037.14
399.81	2912.21
400.03	2904.02
400.24	3262.41
400.45	2934.74
400.66	3057.62
400.88	3178.45
401.09	3323.85
401.30	3051.47
401.51	3250.13
401.73	3241.93
401.94	3147.73
402.15	3215.31
402.36	3266.51
402.58	3102.67
402.79	3211.22
403.00	3166.16
403.21	3188.69
403.43	3235.79
403.64	3332.05
403.85	3164.11
404.06	3252.17
404.27	3110.86
404.49	3315.66
404.70	3127.25
404.91	3235.79
405.12	3225.55
405.34	3336.14
405.55	3469.26
405.76	3194.83
405.97	3225.55
406.19	3459.02
406.40	3307.47
406.61	3344.33
406.82	3305.42
407.03	3284.94
407.25	3311.57
407.46	3387.34
407.67	3272.65
407.88	3493.83
408.09	3297.23
408.31	3338.19
408.52	3284.94
408.73	3364.81
408.94	3315.66
409.15	3407.82
409.37	3497.93
409.58	3502.03
409.79	3489.74
410.00	3600.33
410.21	3456.97
410.43	3518.41
410.64	3467.21
410.85	3405.77
411.06	3497.93
411.27	3573.71
411.48	3657.67
411.70	3622.86
411.91	3551.18
412.12	3629.00
412.33	3538.89
412.54	3600.33
412.76	3674.06
412.97	3680.20
413.18	3567.56
413.39	3637.19
413.60	3794.89
413.81	3629.00
414.03	3502.03
414.24	3639.24
414.45	3856.33
414.66	3629.00
414.87	3684.30
415.08	3676.10
415.30	3747.78
415.51	3805.13
415.72	3807.17
415.93	3805.13
416.14	3817.41
416.35	3755.97
416.56	3760.07
416.78	3745.73
416.99	3805.13
417.20	3903.43
417.41	3936.20
417.62	3968.96
417.83	3977.16
418.04	3891.14
418.26	3964.87
418.47	4011.97
418.68	3973.06
418.89	3917.76
419.10	4018.11
419.31	4050.88
419.52	4030.40
419.73	4034.50
419.95	4124.61
420.16	4081.60
420.37	3983.30
420.58	4075.46
420.79	3860.42
421.00	3995.59
421.21	4059.07
421.42	4048.83
421.63	4065.22
421.85	4110.27
422.06	4231.10
422.27	4192.19
422.48	4255.68
422.69	4362.17
422.90	4265.92
423.11	4284.35
423.32	4384.70
423.53	4378.56
423.75	4409.28
423.96	4523.96
424.17	4403.13
424.38	4767.67
424.59	4493.24
424.80	4562.87
425.01	4417.47
425.22	4526.01
425.43	4542.39
425.64	4632.51
425.85	4665.27
426.06	4616.12
426.28	4593.59
426.49	4421.56
426.70	4579.26
426.91	4638.65
427.12	4757.43
427.33	4702.14
427.54	4759.48
427.75	4732.86
427.96	4771.77
428.17	4706.23
428.38	4937.65
428.59	4868.02
428.80	4872.12
429.01	4779.96
429.23	4816.82
429.44	5038.00
429.65	4976.56
429.86	4951.99
430.07	4935.60
430.28	4859.83
430.49	5148.59
430.70	4970.42
430.91	5250.99
431.12	4997.04
431.33	5269.42
431.54	5115.83
431.75	5173.17
431.96	5171.12
432.17	5187.50
432.38	5044.15
432.59	5359.53
432.80	5367.73
433.01	5312.43
433.22	5341.10
433.43	5312.43
433.64	5296.05
433.85	5312.43
434.06	5451.69
434.27	5273.52
434.49	5504.94
434.70	5433.26
434.91	5525.42
435.12	5398.45
435.33	5449.64
435.54	5484.46
435.75	5375.92
435.96	5435.31
436.17	5420.97
436.38	5550.00
436.59	5644.20
436.80	5439.40
437.01	5742.50
437.22	5683.11
437.43	5425.07
437.64	5453.74
437.85	5730.22
438.06	5832.62
438.27	5646.25
438.48	5629.87
438.69	5951.40
438.90	5805.99
439.11	5824.42
439.32	5828.52
439.53	5629.87
439.74	5926.82
439.95	5885.86
440.16	5953.45
440.37	5750.70
440.57	5765.03
440.78	6070.18
440.99	5908.39
441.20	6066.08
441.41	5982.12
441.62	5904.29
441.83	5941.16
442.04	6197.15
442.25	6037.41
442.46	6111.14
442.67	6174.63
442.88	6539.16
443.09	5943.21
443.30	6246.30
443.51	6340.51
443.72	6395.81
443.93	6107.04
444.14	6537.12
444.35	6221.73
444.56	6274.98
444.77	6315.94
444.98	6350.75
445.19	6432.67
445.40	6346.66
445.61	6459.29
445.81	6451.10
446.02	6590.36
446.23	6418.33
446.44	6410.14
446.65	6612.89
446.86	6500.25
447.07	6584.22
447.28	6698.91
447.49	6637.47
447.70	6748.06
447.91	6789.02
448.12	6608.80
448.33	6723.48
448.54	6803.35
448.74	6688.67
448.95	6909.85
449.16	6815.64
449.37	7110.55
449.58	6866.84
449.79	7008.15
450.00	6764.44
450.21	6985.62
450.42	7059.35
450.63	7061.40
450.84	7090.07
451.05	7053.20
451.25	7206.80
451.46	6983.57
451.67	7309.20
451.88	7298.96
452.09	7253.91
452.30	7036.82
452.51	7372.69
452.72	7415.69
452.93	7548.81
453.13	7108.50
453.34	7206.80
453.55	7458.70
453.76	7260.05
453.97	7679.88
454.18	7600.01
454.39	7479.18
454.60	7477.13
454.81	7475.09
455.01	7825.29
455.22	7415.69
455.43	7632.78
455.64	7896.97
455.85	8013.70
456.06	8017.80
456.27	7718.79
456.48	7843.72
456.68	7964.55
456.89	7933.83
457.10	8009.61
457.31	7978.89
457.52	7958.41
457.73	7946.12
457.94	8281.99
458.14	8126.34
458.35	8507.26
458.56	8202.11
458.77	8271.75
458.98	8398.72
459.19	8456.06
459.39	8380.29
459.60	8454.02
459.81	8238.98
460.02	8521.60
460.23	8386.43
460.44	8791.93
460.65	8769.40
460.85	8605.56
461.06	8863.61
461.27	8632.19
461.48	8920.95
461.69	9193.33
461.89	8617.85
462.10	8963.96
462.31	8832.89
462.52	8857.46
462.73	9187.19
462.94	9224.05
463.14	9135.99
463.35	9293.68
463.56	9459.57
463.77	9564.01
463.98	9232.24
464.18	9262.96
464.39	9609.07
464.60	9641.84
464.81	9650.03
465.02	9572.21
465.23	9740.14
465.43	9740.14
465.64	10030.95
465.85	9854.83
466.06	9817.96
466.27	10004.33
466.47	9916.26
466.68	10055.53
466.89	10104.68
467.10	10223.46
467.30	9895.78
467.51	10301.28
467.72	10379.11
467.93	10235.75
468.14	10354.53
468.34	10647.39
468.55	10686.30
468.76	10651.49
468.97	10401.63
469.17	10639.20
469.38	10729.31
469.59	11044.70
469.80	10909.53
470.01	10766.17
470.21	10905.43
470.42	11030.36
470.63	11327.32
470.84	11173.72
471.04	11241.30
471.25	11278.16
471.46	11263.83
471.67	11599.70
471.87	11435.86
472.08	11644.75
472.29	11755.34
472.50	11521.87
472.70	11558.74
472.91	11835.21
473.12	11784.01
473.33	12128.07
473.53	12242.76
473.74	11988.81
473.95	12463.94
474.16	12326.72
474.36	12289.86
474.57	12457.79
474.78	12769.09
474.99	12619.58
475.19	12603.20
475.40	12934.97
475.61	13059.90
475.81	13113.14
476.02	13107.00
476.23	13102.90
476.44	13242.17
476.64	13594.42
476.85	13512.50
477.06	13526.83
477.27	13754.16
477.47	13930.28
477.68	13713.20
477.89	14106.41
478.09	14135.08
478.30	14049.07
478.51	13956.91
478.71	14393.12
478.92	14583.59
479.13	14634.78
479.34	14436.13
479.54	14720.80
479.75	14702.37
479.96	14837.53
480.16	14847.77
480.37	15103.77
480.58	15152.92
480.78	15359.77
480.99	15226.65
481.20	15472.40
481.41	15298.33
481.61	15593.23
481.82	15718.16
482.03	15724.30
482.23	16037.64
482.44	15986.44
482.65	16150.28
482.85	16512.77
483.06	16291.59
483.27	16590.59
483.47	16457.48
483.68	16404.23
483.89	16631.55
484.09	16740.10
484.30	16576.26
484.51	17073.92
484.71	17037.05
484.92	16938.75
485.13	17053.44
485.33	17202.94
485.54	17215.23
485.75	17547.00
485.95	17628.92
486.16	17915.63
486.37	17725.17
486.57	17573.62
486.78	17864.43
486.98	17866.48
487.19	18087.66
487.40	18149.10
487.60	18183.91
487.81	18599.65
488.02	18339.56
488.22	18343.66
488.43	18661.09
488.64	18675.43
488.84	18743.01
489.05	18970.33
489.25	18806.50
489.46	19091.16
489.67	19152.60
489.87	19289.82
490.08	19451.61
490.29	19410.65
490.49	19582.68
490.70	19478.23
490.90	19758.80
491.11	19846.87
491.32	19973.84
491.52	19744.47
491.73	19945.17
491.94	20070.09
492.14	20192.97
492.35	20287.18
492.55	20592.33
492.76	20307.66
492.97	20580.04
493.17	20827.84
493.38	20786.88
493.58	21141.18
493.79	20825.79
494.00	20807.36
494.20	21137.09
494.41	20983.49
494.61	21348.03
494.82	21270.20
495.02	21249.72
495.23	21483.19
495.44	21597.88
495.64	21792.44
495.85	21823.16
496.05	21624.50
496.26	21860.02
496.47	21894.83
496.67	21722.80
496.88	22216.36
497.08	21950.13
497.29	22593.19
497.49	22347.44
497.70	22275.76
497.91	22329.00
498.11	22726.31
498.32	22843.04
498.52	22869.67
498.73	22804.13
498.93	22777.51
499.14	22886.05
499.34	23211.68
499.55	23328.41
499.76	23152.29
499.96	23166.62
500.17	23371.42
500.37	23416.47
500.58	23414.43
500.78	23402.14
500.99	23285.40
501.19	24108.69
501.40	23961.23
501.60	23512.73
501.81	23961.23
502.02	23678.61
502.22	23996.05
502.43	24098.45
502.63	24407.69
502.84	23957.14
503.04	24213.13
503.25	24276.62
503.45	24440.46
503.66	24512.14
503.86	24428.17
504.07	25056.90
504.27	24467.08
504.48	24798.85
504.68	24635.02
504.89	25038.47
505.09	25101.95
505.30	25044.61
505.50	24835.72
505.71	25265.79
505.91	25425.53
506.12	25290.37
506.32	25423.48
506.53	25441.92
506.73	25276.03
506.94	25659.00
507.14	25452.16
507.35	25382.52
507.55	25867.89
507.76	25550.46
507.96	25642.62
508.17	25980.53
508.37	25763.45
508.58	25820.79
508.78	26029.68
508.99	25992.82
509.19	25882.23
509.40	26252.91
509.60	25925.24
509.81	26500.72
510.01	26021.49
510.22	25874.04
510.42	26367.60
510.63	26404.46
510.83	26791.53
511.04	26797.67
511.24	27117.15
511.44	26578.54
511.65	26914.41
511.85	26678.89
512.06	26846.82
512.26	27080.29
512.47	27192.93
512.67	26887.78
512.88	26959.46
513.08	26740.33
513.29	27426.40
513.49	27215.46
513.69	27334.24
513.90	27151.97
514.10	27534.94
514.31	27358.81
514.51	27631.19
514.72	27713.11
514.92	27666.01
515.13	27498.08
515.33	27879.00
515.53	27962.97
515.74	27817.56
515.94	27895.38
516.15	28044.88
516.35	27842.14
516.56	28229.20
516.76	27936.34
516.96	27795.03
517.17	28292.69
517.37	28405.33
517.58	28534.35
517.78	28456.53
517.99	28440.14
518.19	28651.08
518.39	28984.90
518.60	28628.56
518.80	28675.66
519.01	28878.41
519.21	28726.86
519.41	29218.37
519.62	28927.56
519.82	28968.52
520.03	29122.12
520.23	29001.29
520.43	29111.88
520.64	29591.10
520.84	29550.14
521.05	29404.74
521.25	29763.13
521.45	29738.55
521.66	29693.50
521.86	29562.43
522.07	29963.83
522.27	30273.07
522.47	29820.47
522.68	30496.30
522.88	30094.90
523.08	30234.16
523.29	30193.20
523.49	30377.52
523.70	30414.38
523.90	30627.37
524.10	30387.76
524.31	31221.28
524.51	30434.86
524.71	31090.21
524.92	30737.96
525.12	31290.91
525.33	31143.46
525.53	31403.55
525.73	31524.38
525.94	31694.36
526.14	31274.53
526.34	31911.45
526.55	31589.92
526.75	31338.02
526.95	32513.55
527.16	31702.56
527.36	31936.02
527.56	32396.82
527.77	32292.37
527.97	32273.94
528.17	32144.92
528.38	32405.01
528.58	32433.68
528.78	32194.07
528.99	32486.93
529.19	32658.96
529.39	32546.32
529.60	32960.01
529.80	33007.11
530.00	33000.97
530.21	33142.28
530.41	33568.26
530.61	33138.18
530.82	33302.02
531.02	33263.11
531.22	33676.80
531.43	33697.28
531.63	33885.69
531.83	34196.98
532.04	34237.94
532.24	33764.86
532.44	34246.13
532.64	34571.76
532.85	34457.07
533.05	34616.82
533.25	34436.59
533.46	34510.32
533.66	34833.90
533.86	34874.86
534.07	35114.47
534.27	35323.36
534.47	35218.92
534.67	35257.83
534.88	34991.59
535.08	35257.83
535.28	35694.05
535.49	35702.24
535.69	36136.41
535.89	35976.67
536.09	36023.77
536.30	35890.65
536.50	35681.76
536.70	36034.01
536.91	35950.04
537.11	36380.12
537.31	36339.16
537.51	36718.03
537.72	36804.05
537.92	36509.14
538.12	36928.97
538.32	37076.43
538.53	36939.21
538.73	36787.66
538.93	37139.91
539.13	37107.15
539.34	37008.84
539.54	37199.30
539.74	37383.62
539.94	37115.34
540.15	37101.00
540.35	37606.85
540.55	37610.95
540.75	37619.14
540.96	37930.43
541.16	37811.65
541.36	38000.06
541.56	38239.67
541.77	37987.77
541.97	38077.88
542.17	38245.82
542.37	38008.25
542.58	38235.58
542.78	38163.90
542.98	38131.13
543.18	38374.84
543.38	39032.24
543.59	39083.44
543.79	38682.03
543.99	38342.07
544.19	39108.01
544.40	38704.56
544.60	39196.07
544.80	39179.69
545.00	39167.40
545.20	39220.65
545.41	38960.56
545.61	39284.14
545.81	39620.00
546.01	39617.96
546.21	39433.64
546.42	39544.23
546.62	39413.16
546.82	39378.34
547.02	40064.41
547.22	39796.13
547.43	39683.49
547.63	39896.48
547.83	39771.55
548.03	40078.75
548.23	40134.04
548.44	39841.18
548.64	40494.49
548.84	40715.67
549.04	40461.72
549.24	40324.50
549.45	40830.35
549.65	40312.22
549.85	40697.24
550.05	40586.64
550.25	40463.77
550.45	40877.46
550.66	40699.28
550.86	40525.21
551.06	40631.70
551.26	41219.47
551.46	40938.90
551.66	40947.09
551.87	40940.94
552.07	41532.81
552.27	40848.78
552.47	40996.24
552.67	41354.63
552.87	41424.26
553.07	41442.70
553.28	41162.12
553.48	41268.62
553.68	41301.39
553.88	41983.36
554.08	41696.64
554.28	41723.27
554.48	41444.74
554.69	42083.71
554.89	41495.94
555.09	41600.39
555.29	41735.56
555.49	42012.03
555.69	42132.86
555.89	42255.74
556.10	41813.38
556.30	41710.98
556.50	42452.34
556.70	41993.60
556.90	42345.85
557.10	42368.38
557.30	42220.92
557.50	42390.91
557.70	42411.38
557.91	42374.52
558.11	42411.38
558.31	42579.32
558.51	42618.23
558.71	42872.18
558.91	43136.37
559.11	42511.74
559.31	42501.50
559.51	42550.65
559.72	42526.07
559.92	42958.19
560.12	43095.41
560.32	43023.73
560.52	42722.68
560.72	43142.51
560.92	43425.13
561.12	43115.89
561.32	43785.57
561.52	42478.97
561.72	43484.52
561.93	43267.44
562.13	43380.07
562.33	42986.86
562.53	43738.47
562.73	43162.99
562.93	43253.10
563.13	43484.52
563.33	43079.02
563.53	43775.33
563.73	43326.83
563.93	43599.21
564.13	43969.89
564.33	43652.45
564.53	43492.71
564.74	43939.17
564.94	43564.39
565.14	43980.13
565.34	44244.32
565.54	43672.93
565.74	43849.06
565.94	44184.93
566.14	44279.13
566.34	43847.01
566.54	44201.31
566.74	44031.33
566.94	44500.31
567.14	44856.66
567.34	43687.27
567.54	44592.47
567.74	44514.65
567.94	44350.81
568.14	44309.85
568.34	44680.53
568.54	44483.93
568.74	44488.03
568.94	44555.61
569.14	45149.52
569.34	44463.45
569.54	44926.29
569.75	45092.18
569.95	44819.80
570.15	45192.53
570.35	44924.24
570.55	44938.58
570.75	44993.87
570.95	44905.81
571.15	45462.86
571.35	45217.10
571.55	45544.78
571.75	45329.74
571.95	45475.15
572.15	45028.69
572.35	45841.73
572.55	45096.27
572.75	45759.81
572.95	45794.63
573.15	45864.26
573.35	45151.57
573.55	45442.38
573.75	45725.00
573.95	45735.24
574.15	45538.63
574.35	46011.71
574.55	46069.06
574.75	46126.40
574.95	46239.04
575.15	45913.41
575.34	46015.81
575.54	46179.65
575.74	46110.02
575.94	46822.71
576.14	46613.82
576.34	46535.99
576.54	46595.38
576.74	46918.96
576.94	46273.85
577.14	46396.73
577.34	46921.01
577.54	46775.61
577.74	46738.74
577.94	46769.46
578.14	46863.67
578.34	47062.32
578.54	46527.80
578.74	46828.85
578.94	46927.16
579.14	46560.57
579.34	47260.97
579.54	47461.68
579.74	47670.57
579.94	47469.87
580.13	47572.27
580.33	47314.22
580.53	47129.90
580.73	47541.55
580.93	47889.70
581.13	47473.96
581.33	47883.56
581.53	48114.98
581.73	47992.10
581.93	47715.62
582.13	48225.57
582.33	48020.77
582.53	47928.61
582.73	48260.38
582.92	48209.18
583.12	48305.44
583.32	48299.30
583.52	47953.19
583.72	48336.16
583.92	48477.47
584.12	48418.08
584.32	48676.12
584.52	48780.57
584.72	48674.07
584.92	48545.05
585.11	49036.56
585.31	48753.94
585.51	48448.80
585.71	48940.31
585.91	49098.00
586.11	48882.97
586.31	48823.58
586.51	49173.78
586.71	49108.24
586.91	49628.43
587.10	49206.55
587.30	49222.93
587.50	49134.87
587.70	49566.99
587.90	49523.98
588.10	49960.20
588.30	49599.76
588.50	49747.21
