SpectraSuite Data File
++++++++++++++++++++++++++++++++++++
Date: Fri Jun 02 14:57:19 CEST 2017
User: INFO_000
Dark Spectrum Present: No
Reference Spectrum Present: No
Number of Sampled Component Spectra: 1
Spectrometers: USB4H00879
Integration Time (usec): 80000 (USB4H00879)
Spectra Averaged: 1 (USB4H00879)
Boxcar Smoothing: 0 (USB4H00879)
Correct for Electrical Dark: No (USB4H00879)
Strobe/Lamp Enabled: No (USB4H00879)
Correct for Detector Non-linearity: No (USB4H00879)
Correct for Stray Light: No (USB4H00879)
Number of Pixels in Processed Spectrum: 3648
>>>>>Begin Processed Spectral Data<<<<<
345.13	1286.12
345.34	1286.12
345.56	1286.12
345.78	1273.84
345.99	1298.41
346.21	1726.44
346.42	1720.29
346.64	1613.80
346.86	1832.93
347.07	1615.85
347.29	1755.11
347.50	1675.24
347.72	1671.14
347.94	1705.96
348.15	1597.42
348.37	1630.18
348.59	1665.00
348.80	1624.04
349.02	1814.50
349.23	1880.04
349.45	1857.51
349.67	1896.42
349.88	1845.22
350.10	1959.91
350.31	1898.47
350.53	1857.51
350.75	2009.06
350.96	1744.87
351.18	1927.14
351.39	1755.11
351.61	1759.21
351.82	1877.99
352.04	1839.08
352.26	1820.64
352.47	1884.13
352.69	2000.87
352.90	1699.81
353.12	1845.22
353.34	1851.36
353.55	1914.85
353.77	1851.36
353.98	1843.17
354.20	1847.27
354.41	1986.53
354.63	1925.09
354.85	1964.00
355.06	1896.42
355.28	1771.49
355.49	1925.09
355.71	1871.84
355.92	1841.12
356.14	1953.76
356.35	1859.56
356.57	1888.23
356.79	1970.15
357.00	1871.84
357.22	1912.80
357.43	1949.67
357.65	2007.01
357.86	1796.07
358.08	1826.79
358.29	1935.33
358.51	1935.33
358.72	1964.00
358.94	1943.52
359.16	1865.70
359.37	1937.38
359.59	1972.19
359.80	1978.34
360.02	1990.63
360.23	1959.91
360.45	1937.38
360.66	1992.67
360.88	1908.71
361.09	1902.56
361.31	2025.44
361.52	1918.95
361.74	2052.06
361.95	2107.36
362.17	1877.99
362.38	2047.97
362.60	2107.36
362.81	1990.63
363.03	1920.99
363.24	1976.29
363.46	2002.91
363.67	1949.67
363.89	1974.24
364.10	1957.86
364.32	1943.52
364.53	2150.37
364.75	1998.82
364.96	2068.45
365.18	2121.70
365.39	1982.43
365.61	1929.19
365.82	2052.06
366.04	2047.97
366.25	1986.53
366.47	2070.50
366.68	2060.26
366.90	2033.63
367.11	2076.64
367.33	2148.32
367.54	2023.39
367.76	2047.97
367.97	2154.46
368.19	2025.44
368.40	2072.54
368.62	2031.58
368.83	2015.20
369.05	2062.30
369.26	2035.68
369.48	2013.15
369.69	2060.26
369.91	2131.94
370.12	2060.26
370.33	2195.42
370.55	2027.49
370.76	2068.45
370.98	2172.89
371.19	2074.59
371.41	2031.58
371.62	2123.74
371.84	1941.47
372.05	2185.18
372.27	2082.78
372.48	2072.54
372.69	2052.06
372.91	2142.18
373.12	2121.70
373.34	2090.98
373.55	2117.60
373.77	2150.37
373.98	2103.26
374.20	2183.13
374.41	2291.68
374.62	2136.03
374.84	2117.60
375.05	2207.71
375.27	2142.18
375.48	2189.28
375.70	2181.09
375.91	2297.82
376.12	2287.58
376.34	2179.04
376.55	2213.85
376.77	2152.42
376.98	2160.61
377.19	2050.02
377.41	2166.75
377.62	2281.44
377.84	2258.91
378.05	2357.21
378.27	2260.96
378.48	2285.53
378.69	2410.46
378.91	2273.25
379.12	2185.18
379.34	2222.05
379.55	2312.16
379.76	2275.29
379.98	2312.16
380.19	2248.67
380.41	2197.47
380.62	2355.16
380.83	2201.57
381.05	2220.00
381.26	2463.71
381.47	2228.19
381.69	2289.63
381.90	2385.88
382.12	2291.68
382.33	2281.44
382.54	2299.87
382.76	2328.54
382.97	2322.40
383.19	2336.73
383.40	2320.35
383.61	2351.07
383.83	2215.90
384.04	2377.69
384.25	2418.65
384.47	2328.54
384.68	2295.77
384.89	2439.13
385.11	2342.88
385.32	2379.74
385.54	2338.78
385.75	2369.50
385.96	2385.88
386.18	2461.66
386.39	2422.75
386.60	2355.16
386.82	2451.42
387.03	2441.18
387.24	2502.62
387.46	2383.84
387.67	2469.85
387.88	2580.44
388.10	2465.75
388.31	2600.92
388.52	2541.53
388.74	2461.66
388.95	2519.00
389.16	2580.44
389.38	2447.32
389.59	2564.06
389.80	2557.91
390.02	2598.87
390.23	2559.96
390.44	2533.34
390.66	2580.44
390.87	2461.66
391.08	2572.25
391.30	2715.61
391.51	2615.26
391.72	2645.98
391.94	2650.07
392.15	2543.58
392.36	2621.40
392.58	2617.30
392.79	2662.36
393.00	2691.03
393.22	2768.85
393.43	2752.47
393.64	2801.62
393.85	2844.63
394.07	2656.22
394.28	2670.55
394.49	2738.13
394.71	2750.42
394.92	2738.13
395.13	2645.98
395.35	2828.24
395.56	2744.28
395.77	2865.11
395.98	2793.43
396.20	2799.57
396.41	2875.35
396.62	2906.07
396.84	2793.43
397.05	2715.61
397.26	2910.16
397.47	2875.35
397.69	2873.30
397.90	2940.88
398.11	2858.96
398.32	2916.31
398.54	2893.78
398.75	2893.78
398.96	2981.84
399.18	3010.51
399.39	2914.26
399.60	3010.51
399.81	2992.08
400.03	2969.55
400.24	3252.17
400.45	2965.46
400.66	3157.97
400.88	3035.09
401.09	3137.49
401.30	3014.61
401.51	3080.14
401.73	3151.82
401.94	3200.98
402.15	3110.86
402.36	3184.59
402.58	3133.39
402.79	3196.88
403.00	3114.96
403.21	3286.99
403.43	3129.30
403.64	3225.55
403.85	3114.96
404.06	3248.08
404.27	3131.34
404.49	3157.97
404.70	3190.74
404.91	3266.51
405.12	3307.47
405.34	3266.51
405.55	3407.82
405.76	3231.69
405.97	3223.50
406.19	3397.58
406.40	3278.80
406.61	3393.48
406.82	3299.28
407.03	3299.28
407.25	3196.88
407.46	3477.45
407.67	3420.11
407.88	3540.94
408.09	3422.16
408.31	3389.39
408.52	3375.05
408.73	3348.43
408.94	3399.63
409.15	3428.30
409.37	3520.46
409.58	3475.40
409.79	3452.88
410.00	3522.51
410.21	3434.44
410.43	3483.59
410.64	3303.37
410.85	3479.50
411.06	3524.55
411.27	3579.85
411.48	3649.48
411.70	3579.85
411.91	3573.71
412.12	3663.82
412.33	3596.23
412.54	3571.66
412.76	3649.48
412.97	3618.76
413.18	3526.60
413.39	3735.50
413.60	3807.17
413.81	3674.06
414.03	3708.87
414.24	3602.38
414.45	3782.60
414.66	3530.70
414.87	3803.08
415.08	3749.83
415.30	3792.84
415.51	3803.08
415.72	3676.10
415.93	3778.50
416.14	3729.35
416.35	3792.84
416.56	3893.19
416.78	3872.71
416.99	3903.43
417.20	3817.41
417.41	3952.58
417.62	3821.51
417.83	3897.28
418.04	3954.63
418.26	3882.95
418.47	3807.17
418.68	3993.54
418.89	3936.20
419.10	4120.51
419.31	4190.14
419.52	4143.04
419.73	4016.07
419.95	4167.62
420.16	3983.30
420.37	4067.27
420.58	4196.29
420.79	3870.66
421.00	4231.10
421.21	4169.66
421.42	4057.03
421.63	4198.34
421.85	4048.83
422.06	4181.95
422.27	4227.01
422.48	4247.49
422.69	4265.92
422.90	4198.34
423.11	4181.95
423.32	4290.49
423.53	4466.62
423.75	4366.27
423.96	4571.07
424.17	4513.72
424.38	4562.87
424.59	4433.85
424.80	4538.30
425.01	4442.04
425.22	4323.26
425.43	4546.49
425.64	4652.98
425.85	4630.46
426.06	4540.35
426.28	4636.60
426.49	4452.28
426.70	4519.87
426.91	4607.93
427.12	4693.94
427.33	4870.07
427.54	4550.59
427.75	4798.39
427.96	4851.64
428.17	4743.10
428.38	4939.70
428.59	4857.78
428.80	4835.25
429.01	4868.02
429.23	4954.04
429.44	5038.00
429.65	5095.35
429.86	4990.90
430.07	4759.48
430.28	4839.35
430.49	4990.90
430.70	5148.59
430.91	5173.17
431.12	4976.56
431.33	5201.84
431.54	5300.14
431.75	5156.79
431.96	5185.46
432.17	5259.18
432.38	5115.83
432.59	5347.25
432.80	5330.86
433.01	5222.32
433.22	5359.53
433.43	5291.95
433.64	5185.46
433.85	5337.01
434.06	5590.95
434.27	5265.33
434.49	5439.40
434.70	5416.88
434.91	5306.29
435.12	5416.88
435.33	5582.76
435.54	5568.43
435.75	5263.28
435.96	5498.80
436.17	5410.73
436.38	5572.52
436.59	5732.26
436.80	5679.02
437.01	5955.49
437.22	5685.16
437.43	5652.39
437.64	5564.33
437.85	5902.25
438.06	5752.74
438.27	5615.53
438.48	5691.31
438.69	5885.86
438.90	5818.28
439.11	5750.70
439.32	5846.95
439.53	5998.50
439.74	5943.21
439.95	5990.31
440.16	5754.79
440.37	5955.49
440.57	5799.85
440.78	6070.18
440.99	5955.49
441.20	5932.97
441.41	5945.25
441.62	6047.65
441.83	5894.05
442.04	5998.50
442.25	6119.33
442.46	6070.18
442.67	6152.10
442.88	6504.35
443.09	6082.47
443.30	5996.45
443.51	6143.91
443.72	6467.49
443.93	6139.81
444.14	6424.48
444.35	6102.95
444.56	6299.55
444.77	6340.51
444.98	6301.60
445.19	6356.90
445.40	6414.24
445.61	6274.98
445.81	6291.36
446.02	6547.36
446.23	6426.53
446.44	6371.23
446.65	6457.25
446.86	6565.79
447.07	6522.78
447.28	6762.39
447.49	6645.66
447.70	6461.34
447.91	6659.99
448.12	6795.16
448.33	6791.06
448.54	6827.93
448.74	6645.66
448.95	6786.97
449.16	6606.75
449.37	6690.71
449.58	6764.44
449.79	7004.05
450.00	6692.76
450.21	6891.41
450.42	6938.52
450.63	6926.23
450.84	6952.85
451.05	7034.77
451.25	6852.50
451.46	6991.77
451.67	7073.68
451.88	7159.70
452.09	7180.18
452.30	7034.77
452.51	6983.57
452.72	7106.45
452.93	7440.27
453.13	7112.60
453.34	7227.28
453.55	7204.75
453.76	7262.10
453.97	7655.31
454.18	7337.87
454.39	7389.07
454.60	7489.42
454.81	7421.84
455.01	7655.31
455.22	7278.48
455.43	7438.22
455.64	7735.18
455.85	7649.16
456.06	7870.34
456.27	7714.70
456.48	7921.54
456.68	7729.03
456.89	7774.09
457.10	7911.30
457.31	7970.69
457.52	7899.02
457.73	8030.09
457.94	8128.39
458.14	7876.49
458.35	8335.23
458.56	8249.22
458.77	8187.78
458.98	8187.78
459.19	8294.27
459.39	8431.49
459.60	8267.65
459.81	8351.62
460.02	8439.68
460.23	8324.99
460.44	8589.18
460.65	8511.36
460.85	8382.34
461.06	8646.52
461.27	8425.34
461.48	8820.60
461.69	8859.51
461.89	8556.41
462.10	8902.52
462.31	8578.94
462.52	8775.55
462.73	8834.94
462.94	9076.60
463.14	9058.17
463.35	9006.97
463.56	9402.22
463.77	9203.57
463.98	9060.21
464.18	9131.89
464.39	9447.28
464.60	9637.74
464.81	9537.39
465.02	9402.22
465.23	9527.15
465.43	9527.15
465.64	9912.17
465.85	9693.04
466.06	9709.42
466.27	10067.81
466.47	9885.55
466.68	9867.11
466.89	9916.26
467.10	10043.24
467.30	9725.80
467.51	9975.66
467.72	10348.39
467.93	10106.73
468.14	10157.92
468.34	10536.80
468.55	10235.75
468.76	10473.31
468.97	10540.90
469.17	10739.55
469.38	10796.89
469.59	10772.32
469.80	10522.46
470.01	10755.93
470.21	10839.90
470.42	11147.09
470.63	11253.59
470.84	11013.98
471.04	11343.70
471.25	11132.76
471.46	11237.20
471.67	11620.17
471.87	11241.30
472.08	11573.07
472.29	11765.58
472.50	11394.90
472.70	11476.82
472.91	11792.20
473.12	11765.58
473.33	11966.28
473.53	12306.24
473.74	12007.24
473.95	12066.63
474.16	12220.23
474.36	12408.64
474.57	12531.52
474.78	12699.45
474.99	12470.08
475.19	12490.56
475.40	12894.01
475.61	12836.67
475.81	13055.80
476.02	13135.67
476.23	12941.11
476.44	13383.48
476.64	13520.69
476.85	13694.77
477.06	13502.26
477.27	13756.21
477.47	13639.47
477.68	13903.66
477.89	14079.79
478.09	14085.93
478.30	13967.15
478.51	14161.70
478.71	14356.26
478.92	14386.98
479.13	14548.77
479.34	14614.30
479.54	14413.60
479.75	14739.23
479.96	14583.59
480.16	14737.18
480.37	14896.92
480.58	15017.75
480.78	15376.15
480.99	15079.19
481.20	15216.41
481.41	15619.86
481.61	15707.92
481.82	15785.74
482.03	15726.35
482.23	15769.36
482.44	15824.65
482.65	15994.64
482.85	16086.79
483.06	16314.12
483.27	16285.45
483.47	16289.54
483.68	16504.58
483.89	16480.00
484.09	16488.20
484.30	16742.14
484.51	16899.84
484.71	17035.00
484.92	16965.37
485.13	17030.91
485.33	17225.47
485.54	17131.26
485.75	17415.93
485.95	17499.89
486.16	17571.57
486.37	17903.34
486.57	17643.25
486.78	17712.88
486.98	17923.82
487.19	17997.55
487.40	17983.21
487.60	17934.06
487.81	18495.21
488.02	18474.73
488.22	18441.96
488.43	18446.05
488.64	18710.24
488.84	18648.80
489.05	18908.90
489.25	18808.54
489.46	19005.15
489.67	19132.12
489.87	19175.13
490.08	19484.37
490.29	19453.66
490.49	19685.08
490.70	19791.57
490.90	19859.15
491.11	19693.27
491.32	19873.49
491.52	19734.23
491.73	20090.57
491.94	20229.84
492.14	20002.51
492.35	20444.87
492.55	20465.35
492.76	20518.60
492.97	20516.55
493.17	20664.00
493.38	20870.85
493.58	20981.44
493.79	20805.31
494.00	20889.28
494.20	20899.52
494.41	21325.50
494.61	21190.33
494.82	21307.07
495.02	21386.94
495.23	21370.55
495.44	21552.82
495.64	21941.94
495.85	21622.45
496.05	21845.68
496.26	21737.14
496.47	22070.96
496.67	21851.83
496.88	22347.44
497.08	22175.41
497.29	22349.48
497.49	22378.15
497.70	22412.97
497.91	22357.67
498.11	22775.46
498.32	22697.64
498.52	22666.92
498.73	23021.22
498.93	22621.86
499.14	23205.53
499.34	22847.14
499.55	23185.05
499.76	23266.97
499.96	23277.21
500.17	23193.25
500.37	23582.36
500.58	23338.65
500.78	23484.06
500.99	23553.69
501.19	23858.84
501.40	23830.16
501.60	23803.54
501.81	23633.56
502.02	24082.06
502.22	23963.28
502.43	23891.60
502.63	23998.10
502.84	24567.43
503.04	24157.84
503.25	24346.25
503.45	24505.99
503.66	24401.55
503.86	24125.07
504.07	24852.10
504.27	24540.81
504.48	24974.98
504.68	24583.82
504.89	25005.70
505.09	24637.06
505.30	24921.73
505.50	25257.60
505.71	25101.95
505.91	25120.38
506.12	25364.09
506.32	24954.50
506.53	25368.19
506.73	25558.65
506.94	25689.72
507.14	25241.21
507.35	25464.44
507.55	25482.88
507.76	25519.74
507.96	25615.99
508.17	25775.73
508.37	25910.90
508.58	25800.31
508.78	25915.00
508.99	26074.74
509.19	26060.40
509.40	26420.84
509.60	26193.52
509.81	26232.43
510.01	26134.13
510.22	26449.52
510.42	26435.18
510.63	26191.47
510.83	26082.93
511.04	26236.53
511.24	26381.93
511.44	26390.13
511.65	26582.63
511.85	26404.46
512.06	26725.99
512.26	26400.37
512.47	26584.68
512.67	27100.77
512.88	26941.03
513.08	26773.10
513.29	27246.18
513.49	27178.59
513.69	27033.19
513.90	27213.41
514.10	27141.73
514.31	27330.14
514.51	27231.84
514.72	27172.45
514.92	27317.86
515.13	27588.19
515.33	27565.66
515.53	27532.89
515.74	27567.71
515.94	27504.22
516.15	27698.78
516.35	27493.98
516.56	27645.53
516.76	27629.15
516.96	27922.01
517.17	27932.25
517.37	28071.51
517.58	28108.37
517.78	28194.39
517.99	27864.66
518.19	28493.39
518.39	28685.90
518.60	28558.92
518.80	28298.83
519.01	28284.50
519.21	28554.83
519.41	28747.34
519.62	28515.92
519.82	28718.67
520.03	28733.00
520.23	28767.82
520.43	28776.01
520.64	29025.86
520.84	29261.38
521.05	28851.78
521.25	29468.22
521.45	28999.24
521.66	29283.91
521.86	29343.30
522.07	29232.71
522.27	29298.24
522.47	29244.99
522.68	29699.64
522.88	29818.42
523.08	29914.68
523.29	29886.01
523.49	29990.45
523.70	30037.56
523.90	30361.14
524.10	29943.35
524.31	30545.45
524.51	30187.06
524.71	30537.26
524.92	30053.94
525.12	30512.69
525.33	30332.47
525.53	30887.46
525.73	30803.50
525.94	30834.22
526.14	30903.85
526.34	31108.65
526.55	31096.36
526.75	30733.87
526.95	31571.49
527.16	31075.88
527.36	31260.20
527.56	31342.11
527.77	31565.34
527.97	31739.42
528.17	31821.34
528.38	32036.38
528.58	31690.27
528.78	31882.78
528.99	31942.17
529.19	32316.95
529.39	31757.85
529.60	32167.45
529.80	32409.11
530.00	32030.23
530.21	32386.58
530.41	32833.04
530.61	32695.82
530.82	33068.55
531.02	32681.49
531.22	33033.74
531.43	33062.41
531.63	32945.67
531.83	33326.60
532.04	33705.47
532.24	33121.80
532.44	33773.05
532.64	33646.08
532.85	33547.78
533.05	33558.02
533.25	33738.24
533.46	33613.31
533.66	34104.82
533.86	33834.49
534.07	34285.04
534.27	34362.87
534.47	34561.52
534.67	34504.18
534.88	34366.96
535.08	34379.25
535.28	34604.53
535.49	34665.97
535.69	35173.86
535.89	35061.22
536.09	35390.95
536.30	35581.41
536.50	34981.35
536.70	35847.64
536.91	35112.42
537.11	35433.96
537.31	35925.47
537.51	35667.42
537.72	35825.12
537.92	36005.34
538.12	36296.15
538.32	35741.15
538.53	36392.40
538.73	36107.74
538.93	36224.47
539.13	36326.87
539.34	36150.74
539.54	36617.68
539.74	36621.78
539.94	36722.13
540.15	36621.78
540.35	36933.07
540.55	37010.89
540.75	37125.58
540.96	36959.69
541.16	37137.87
541.36	37117.39
541.56	37590.47
541.77	37815.74
541.97	37438.92
542.17	37752.26
542.37	37336.52
542.58	37844.41
542.78	37836.22
542.98	37594.56
543.18	38020.54
543.38	38512.05
543.59	38229.43
543.79	38069.69
543.99	37916.09
544.19	38237.62
544.40	38106.55
544.60	38628.79
544.80	38532.53
545.00	38135.23
545.20	38917.55
545.41	38847.92
545.61	38516.15
545.81	39204.27
546.01	39292.33
546.21	38610.35
546.42	39130.54
546.62	39712.16
546.82	38737.33
547.02	39277.99
547.22	39257.51
547.43	39073.20
547.63	39511.46
547.83	39685.54
548.03	39116.20
548.23	39828.90
548.44	39695.78
548.64	39794.08
548.84	40138.14
549.04	39902.62
549.24	40308.12
549.45	40560.02
549.65	40113.56
549.85	40115.61
550.05	40199.58
550.25	40291.74
550.45	40666.52
550.66	40510.87
550.86	40007.07
551.06	40730.00
551.26	40600.98
551.46	40674.71
551.66	40588.69
551.87	40799.63
552.07	40895.89
552.27	40981.90
552.47	40834.45
552.67	41088.40
552.87	40936.85
553.07	41125.26
553.28	40957.33
553.48	41313.67
553.68	41121.16
553.88	41577.86
554.08	41612.68
554.28	41104.78
554.48	41063.82
554.69	41569.67
554.89	41680.26
555.09	41864.58
555.29	41416.07
555.49	41168.27
555.69	41780.61
555.89	41651.59
556.10	42020.22
556.30	41923.97
556.50	41948.54
556.70	41940.35
556.90	42233.21
557.10	42407.29
557.30	42139.00
557.50	42481.02
557.70	42235.26
557.91	42478.97
558.11	42458.49
558.31	42194.30
558.51	42298.75
558.71	42595.70
558.91	42644.85
559.11	42849.65
559.31	42601.85
559.51	42427.77
559.72	42773.88
559.92	42689.91
560.12	42906.99
560.32	43206.00
560.52	42800.50
560.72	43115.89
560.92	43222.38
561.12	43316.59
561.32	43531.62
561.52	42927.47
561.72	43160.94
561.93	42945.90
562.13	43521.38
562.33	43132.27
562.53	43775.33
562.73	43212.14
562.93	43308.40
563.13	43591.01
563.33	43658.60
563.53	43818.34
563.73	43314.54
563.93	43717.99
564.13	44111.20
564.33	43775.33
564.53	43662.69
564.74	44295.52
564.94	43922.79
565.14	43898.21
565.34	43380.07
565.54	44039.52
565.74	44019.04
565.94	44090.72
566.14	44031.33
566.34	44012.90
566.54	44096.86
566.74	43920.74
566.94	44393.82
567.14	44549.46
567.34	44078.43
567.54	44662.10
567.74	44074.34
567.94	44270.94
568.14	44731.73
568.34	44733.78
568.54	44670.29
568.74	44741.97
568.94	44569.94
569.14	44967.25
569.34	44860.76
569.54	44930.39
569.75	44703.06
569.95	44770.64
570.15	44922.19
570.35	44957.01
570.55	45086.03
570.75	45227.34
570.95	45032.78
571.15	45456.71
571.35	45313.36
571.55	45335.88
571.75	45387.08
571.95	45516.11
572.15	45227.34
572.35	45770.05
572.55	45344.08
572.75	45489.48
572.95	45628.74
573.15	45366.60
573.35	45743.43
573.55	45315.40
573.75	45616.46
573.95	45864.26
574.15	45907.27
574.35	45825.35
574.55	46028.10
574.75	45561.16
574.95	45823.30
575.15	45751.62
575.34	45991.23
575.54	46241.09
575.74	46490.94
575.94	46533.95
576.14	46253.37
576.34	46671.16
576.54	46904.63
576.74	46501.18
576.94	46087.49
577.14	46622.01
577.34	47037.75
577.54	46431.55
577.74	46816.57
577.94	46638.39
578.14	46923.06
578.34	46857.52
578.54	46437.69
578.74	46912.82
578.94	47115.57
579.14	46968.12
579.34	46943.54
579.54	47148.34
579.74	47390.00
579.94	46898.48
580.13	47582.51
580.33	47052.08
580.53	47138.10
580.73	47383.85
580.93	46925.11
581.13	47592.75
581.33	48092.45
581.53	47824.17
581.73	47707.43
581.93	47822.12
582.13	47920.42
582.33	47791.40
582.53	47994.15
582.73	48147.75
582.92	47840.55
583.12	47678.76
583.32	48258.34
583.52	47957.28
583.72	48291.10
583.92	48100.64
584.12	48225.57
584.32	48407.84
584.52	48264.48
584.72	48416.03
584.92	48491.80
585.11	48794.90
585.31	48573.72
585.51	48592.15
585.71	48512.28
585.91	48956.69
586.11	48592.15
586.31	48432.41
586.51	48844.05
586.71	48602.39
586.91	49265.94
587.10	49165.59
587.30	49288.46
587.50	49237.26
587.70	49130.77
587.90	49380.62
588.10	49083.67
588.30	49083.67
588.50	49440.01
