SpectraSuite Data File
++++++++++++++++++++++++++++++++++++
Date: Fri Jun 02 14:57:20 CEST 2017
User: INFO_000
Dark Spectrum Present: No
Reference Spectrum Present: No
Number of Sampled Component Spectra: 1
Spectrometers: USB4H00879
Integration Time (usec): 80000 (USB4H00879)
Spectra Averaged: 1 (USB4H00879)
Boxcar Smoothing: 0 (USB4H00879)
Correct for Electrical Dark: No (USB4H00879)
Strobe/Lamp Enabled: No (USB4H00879)
Correct for Detector Non-linearity: No (USB4H00879)
Correct for Stray Light: No (USB4H00879)
Number of Pixels in Processed Spectrum: 3648
>>>>>Begin Processed Spectral Data<<<<<
345.13	1290.22
345.34	1290.22
345.56	1290.22
345.78	1288.17
345.99	1224.69
346.21	1748.97
346.42	1693.67
346.64	1624.04
346.86	1804.26
347.07	1615.85
347.29	1681.38
347.50	1652.71
347.72	1746.92
347.94	1703.91
348.15	1603.56
348.37	1642.47
348.59	1665.00
348.80	1667.05
349.02	1787.88
349.23	1845.22
349.45	1900.52
349.67	1820.64
349.88	1830.88
350.10	1972.19
350.31	1830.88
350.53	1812.45
350.75	1949.67
350.96	1761.25
351.18	1865.70
351.39	1843.17
351.61	1798.12
351.82	1904.61
352.04	1925.09
352.26	1880.04
352.47	1871.84
352.69	1949.67
352.90	1783.78
353.12	1871.84
353.34	1826.79
353.55	1998.82
353.77	1890.28
353.98	1916.90
354.20	1808.36
354.41	1984.48
354.63	1865.70
354.85	2101.22
355.06	1935.33
355.28	1851.36
355.49	1925.09
355.71	1898.47
355.92	1912.80
356.14	1904.61
356.35	1843.17
356.57	1884.13
356.79	1964.00
357.00	1877.99
357.22	2035.68
357.43	1918.95
357.65	2004.96
357.86	1910.75
358.08	1871.84
358.29	1935.33
358.51	1968.10
358.72	2027.49
358.94	1949.67
359.16	1957.86
359.37	1871.84
359.59	1847.27
359.80	1959.91
360.02	2011.11
360.23	1970.15
360.45	2033.63
360.66	1927.14
360.88	1822.69
361.09	1955.81
361.31	2009.06
361.52	1992.67
361.74	2064.35
361.95	2066.40
362.17	1937.38
362.38	2117.60
362.60	2013.15
362.81	1986.53
363.03	2031.58
363.24	1978.34
363.46	2058.21
363.67	2111.46
363.89	2031.58
364.10	2015.20
364.32	1974.24
364.53	2070.50
364.75	1906.66
364.96	1970.15
365.18	2068.45
365.39	2011.11
365.61	1898.47
365.82	2123.74
366.04	1976.29
366.25	1877.99
366.47	2099.17
366.68	2117.60
366.90	2002.91
367.11	2013.15
367.33	2123.74
367.54	2105.31
367.76	2017.25
367.97	2121.70
368.19	1957.86
368.40	2121.70
368.62	2031.58
368.83	1865.70
369.05	2105.31
369.26	1972.19
369.48	1988.58
369.69	1933.28
369.91	2054.11
370.12	2064.35
370.33	2039.78
370.55	2011.11
370.76	2084.83
370.98	2078.69
371.19	2103.26
371.41	2035.68
371.62	2023.39
371.84	1986.53
372.05	2164.70
372.27	1996.77
372.48	2168.80
372.69	2054.11
372.91	2095.07
373.12	2160.61
373.34	2047.97
373.55	2154.46
373.77	2142.18
373.98	2050.02
374.20	2099.17
374.41	2289.63
374.62	2162.66
374.84	2179.04
375.05	2168.80
375.27	2172.89
375.48	2183.13
375.70	2195.42
375.91	2148.32
376.12	2301.92
376.34	2166.75
376.55	2187.23
376.77	2220.00
376.98	2168.80
377.19	2174.94
377.41	2195.42
377.62	2211.81
377.84	2224.09
378.05	2326.49
378.27	2207.71
378.48	2279.39
378.69	2301.92
378.91	2385.88
379.12	2281.44
379.34	2117.60
379.55	2330.59
379.76	2318.30
379.98	2215.90
380.19	2312.16
380.41	2263.01
380.62	2316.25
380.83	2283.49
381.05	2191.33
381.26	2394.08
381.47	2226.14
381.69	2312.16
381.90	2482.14
382.12	2269.15
382.33	2334.68
382.54	2238.43
382.76	2346.97
382.97	2183.13
383.19	2232.29
383.40	2363.36
383.61	2359.26
383.83	2346.97
384.04	2258.91
384.25	2336.73
384.47	2435.03
384.68	2334.68
384.89	2400.22
385.11	2322.40
385.32	2422.75
385.54	2400.22
385.75	2349.02
385.96	2400.22
386.18	2406.36
386.39	2453.47
386.60	2324.44
386.82	2316.25
387.03	2332.64
387.24	2478.04
387.46	2492.38
387.67	2465.75
387.88	2527.19
388.10	2465.75
388.31	2498.52
388.52	2619.35
388.74	2475.99
388.95	2527.19
389.16	2519.00
389.38	2469.85
389.59	2619.35
389.80	2650.07
390.02	2605.02
390.23	2641.88
390.44	2594.78
390.66	2508.76
390.87	2498.52
391.08	2619.35
391.30	2629.59
391.51	2609.11
391.72	2672.60
391.94	2568.15
392.15	2621.40
392.36	2592.73
392.58	2617.30
392.79	2619.35
393.00	2713.56
393.22	2731.99
393.43	2793.43
393.64	2801.62
393.85	2772.95
394.07	2623.45
394.28	2703.32
394.49	2727.89
394.71	2822.10
394.92	2906.07
395.13	2742.23
395.35	2715.61
395.56	2715.61
395.77	2727.89
395.98	2805.72
396.20	2844.63
396.41	2861.01
396.62	2994.13
396.84	2740.18
397.05	2815.96
397.26	2873.30
397.47	3012.56
397.69	2854.87
397.90	3016.66
398.11	2854.87
398.32	2865.11
398.54	2885.59
398.75	2875.35
398.96	2918.36
399.18	3176.40
399.39	2934.74
399.60	3022.80
399.81	2940.88
400.03	2914.26
400.24	3399.63
400.45	2940.88
400.66	3108.82
400.88	2963.41
401.09	3243.98
401.30	3145.68
401.51	3125.20
401.73	3104.72
401.94	3129.30
402.15	3180.50
402.36	3200.98
402.58	3096.53
402.79	3221.45
403.00	3176.40
403.21	3196.88
403.43	3190.74
403.64	3315.66
403.85	3188.69
404.06	3221.45
404.27	3157.97
404.49	3243.98
404.70	3106.77
404.91	3276.75
405.12	3248.08
405.34	3192.78
405.55	3452.88
405.76	3243.98
405.97	3268.56
406.19	3338.19
406.40	3196.88
406.61	3368.91
406.82	3264.46
407.03	3225.55
407.25	3321.81
407.46	3377.10
407.67	3403.72
407.88	3315.66
408.09	3272.65
408.31	3264.46
408.52	3405.77
408.73	3350.48
408.94	3354.57
409.15	3444.68
409.37	3491.79
409.58	3454.92
409.79	3446.73
410.00	3475.40
410.21	3399.63
410.43	3446.73
410.64	3383.24
410.85	3452.88
411.06	3602.38
411.27	3549.13
411.48	3659.72
411.70	3575.75
411.91	3532.75
412.12	3688.39
412.33	3612.62
412.54	3555.27
412.76	3676.10
412.97	3585.99
413.18	3577.80
413.39	3526.60
413.60	3592.14
413.81	3637.19
414.03	3575.75
414.24	3555.27
414.45	3764.17
414.66	3516.36
414.87	3710.92
415.08	3731.40
415.30	3704.78
415.51	3805.13
415.72	3674.06
415.93	3692.49
416.14	3782.60
416.35	3780.55
416.56	3657.67
416.78	3772.36
416.99	3811.27
417.20	3772.36
417.41	3870.66
417.62	3866.56
417.83	3837.89
418.04	3762.12
418.26	3907.52
418.47	3758.02
418.68	3981.25
418.89	3915.72
419.10	3964.87
419.31	3989.44
419.52	3954.63
419.73	3968.96
419.95	3989.44
420.16	3901.38
420.37	4065.22
420.58	4028.35
420.79	3895.24
421.00	3934.15
421.21	4177.86
421.42	3956.68
421.63	4100.03
421.85	4093.89
422.06	4122.56
422.27	4147.14
422.48	4100.03
422.69	4206.53
422.90	4237.25
423.11	4153.28
423.32	4300.73
423.53	4392.89
423.75	4296.64
423.96	4470.72
424.17	4405.18
424.38	4599.74
424.59	4339.65
424.80	4575.16
425.01	4362.17
425.22	4364.22
425.43	4399.04
425.64	4612.03
425.85	4620.22
426.06	4530.11
426.28	4485.05
426.49	4356.03
426.70	4552.63
426.91	4677.56
427.12	4460.48
427.33	4624.31
427.54	4521.92
427.75	4673.46
427.96	4810.68
428.17	4782.01
428.38	4681.66
428.59	4745.14
428.80	4599.74
429.01	4818.87
429.23	4706.23
429.44	4958.13
429.65	4865.97
429.86	4878.26
430.07	4779.96
430.28	4857.78
430.49	4921.27
430.70	5140.40
430.91	5044.15
431.12	4935.60
431.33	5134.26
431.54	5105.59
431.75	5035.96
431.96	5099.44
432.17	5076.91
432.38	5148.59
432.59	5306.29
432.80	5220.27
433.01	5291.95
433.22	5355.44
433.43	5332.91
433.64	5314.48
433.85	5193.65
434.06	5588.91
434.27	5306.29
434.49	5396.40
434.70	5568.43
434.91	5500.84
435.12	5425.07
435.33	5384.11
435.54	5420.97
435.75	5273.52
435.96	5609.39
436.17	5470.12
436.38	5472.17
436.59	5543.85
436.80	5539.76
437.01	5820.33
437.22	5939.11
437.43	5648.30
437.64	5466.03
437.85	5785.51
438.06	5603.24
438.27	5681.07
438.48	5818.28
438.69	5875.62
438.90	5754.79
439.11	5613.48
439.32	5935.01
439.53	5912.49
439.74	5805.99
439.95	5998.50
440.16	5875.62
440.37	5785.51
440.57	5922.73
440.78	6023.08
440.99	5965.73
441.20	6117.28
441.41	5971.88
441.62	6129.57
441.83	5865.38
442.04	6092.71
442.25	6197.15
442.46	6086.56
442.67	6223.78
442.88	6541.21
443.09	6045.60
443.30	6059.94
443.51	6283.17
443.72	6301.60
443.93	6074.28
444.14	6590.36
444.35	6277.02
444.56	6328.22
444.77	6305.70
444.98	6299.55
445.19	6498.20
445.40	6512.54
445.61	6487.96
445.81	6590.36
446.02	6645.66
446.23	6590.36
446.44	6338.46
446.65	6535.07
446.86	6635.42
447.07	6666.14
447.28	6854.55
447.49	6784.92
447.70	6674.33
447.91	6547.36
448.12	6715.29
448.33	6866.84
448.54	6821.78
448.74	6606.75
448.95	6926.23
449.16	6688.67
449.37	6918.04
449.58	6922.13
449.79	7036.82
450.00	6758.30
450.21	6891.41
450.42	7073.68
450.63	7106.45
450.84	7090.07
451.05	6967.19
451.25	7143.32
451.46	7030.68
451.67	7192.47
451.88	7360.40
452.09	7276.43
452.30	7131.03
452.51	7178.13
452.72	7382.93
452.93	7542.67
453.13	7356.30
453.34	7292.82
453.55	7380.88
453.76	7286.67
453.97	7753.61
454.18	7606.16
454.39	7677.83
454.60	7589.77
454.81	7571.34
455.01	7694.22
455.22	7550.86
455.43	7747.47
455.64	7761.80
455.85	7892.87
456.06	8001.41
456.27	7837.58
456.48	7862.15
456.68	7915.40
456.89	7856.01
457.10	8062.85
457.31	8218.50
457.52	7972.74
457.73	7958.41
457.94	8388.48
458.14	7911.30
458.35	8505.21
458.56	8243.07
458.77	8212.35
458.98	8368.00
459.19	8445.82
459.39	8396.67
459.60	8576.89
459.81	8212.35
460.02	8677.24
460.23	8669.05
460.44	8636.28
460.65	8726.39
460.85	8587.13
461.06	8861.56
461.27	8550.27
461.48	8916.86
461.69	8931.19
461.89	8617.85
462.10	8816.51
462.31	8832.89
462.52	8744.83
462.73	8843.13
462.94	9148.28
463.14	9078.65
463.35	9174.90
463.56	9502.58
463.77	9541.49
463.98	9174.90
464.18	9205.62
464.39	9480.05
464.60	9480.05
464.81	9500.53
465.02	9525.10
465.23	9760.62
465.43	9465.71
465.64	9613.17
465.85	9631.60
466.06	9531.25
466.27	10100.58
466.47	9873.26
466.68	10078.05
466.89	9817.96
467.10	9955.18
467.30	9879.40
467.51	9983.85
467.72	10248.04
467.93	10076.01
468.14	10166.12
468.34	10397.54
468.55	10241.89
468.76	10366.82
468.97	10344.29
469.17	10592.09
469.38	10831.71
469.59	10663.77
469.80	10577.76
470.01	10674.01
470.21	10741.60
470.42	11022.17
470.63	11218.77
470.84	10923.87
471.04	11069.27
471.25	11171.67
471.46	11050.84
471.67	11482.96
471.87	11341.65
472.08	11251.54
472.29	11583.31
472.50	11220.82
472.70	11497.30
472.91	11546.45
473.12	11724.62
473.33	11620.17
473.53	11741.00
473.74	11833.16
473.95	12058.44
474.16	12310.34
474.36	12181.32
474.57	12193.61
474.78	12482.37
474.99	12552.00
475.19	12201.80
475.40	12666.69
475.61	12515.14
475.81	12773.18
476.02	12908.35
476.23	12812.09
476.44	13016.89
476.64	13147.96
476.85	13451.06
477.06	13125.43
477.27	13465.39
477.47	13537.07
477.68	13500.21
477.89	13715.25
478.09	13475.63
478.30	13913.90
478.51	13752.11
478.71	13866.80
478.92	13983.53
479.13	13999.91
479.34	14223.14
479.54	14053.16
479.75	14346.02
479.96	14321.45
480.16	14475.04
480.37	14421.80
480.58	14481.19
480.78	14929.69
480.99	14821.15
481.20	14956.32
481.41	15040.28
481.61	15263.51
481.82	15367.96
482.03	15331.09
482.23	15091.48
482.44	15511.32
482.65	15853.33
482.85	15556.37
483.06	15511.32
483.27	15767.31
483.47	15892.24
483.68	15771.41
483.89	16074.51
484.09	16080.65
484.30	16158.47
484.51	16203.53
484.71	16629.51
484.92	16437.00
485.13	16819.97
485.33	16736.00
485.54	16873.21
485.75	16887.55
485.95	17114.87
486.16	17155.83
486.37	17487.61
486.57	17024.76
486.78	17161.98
486.98	17264.38
487.19	17567.48
487.40	17786.61
487.60	17465.08
487.81	17708.79
488.02	17723.12
488.22	17850.10
488.43	18108.14
488.64	18140.91
488.84	17993.45
489.05	18241.26
489.25	18409.19
489.46	18616.04
489.67	18470.63
489.87	18697.95
490.08	18953.95
490.29	18673.38
490.49	18917.09
490.70	19113.69
490.90	19228.38
491.11	19177.18
491.32	19220.19
491.52	19357.40
491.73	19945.17
491.94	19762.90
492.14	19640.02
492.35	19670.74
492.55	19885.78
492.76	19824.34
492.97	20250.32
493.17	20162.25
493.38	20272.84
493.58	20324.04
493.79	20733.64
494.00	20313.80
494.20	20702.92
494.41	20602.57
494.61	20899.52
494.82	20754.12
495.02	21073.60
495.23	21163.71
495.44	21259.96
495.64	21198.52
495.85	21159.61
496.05	21477.05
496.26	21417.66
496.47	21917.36
496.67	21573.30
496.88	22030.00
497.08	21526.20
497.29	22054.58
497.49	22136.49
497.70	22105.77
497.91	22322.86
498.11	22482.60
498.32	22257.32
498.52	22482.60
498.73	22765.22
498.93	22541.99
499.14	22787.75
499.34	22757.03
499.55	22759.08
499.76	22611.62
499.96	23443.10
500.17	22957.73
500.37	23195.29
500.58	23219.87
500.78	23535.26
500.99	23359.13
501.19	23682.71
501.40	23492.25
501.60	23236.25
501.81	23756.44
502.02	23801.49
502.22	23621.27
502.43	24030.87
502.63	23877.27
502.84	24168.08
503.04	24135.31
503.25	24188.56
503.45	24137.36
503.66	24315.53
503.86	24340.11
504.07	24501.90
504.27	24413.84
504.48	24938.12
504.68	24428.17
504.89	24780.42
505.09	24993.41
505.30	24868.48
505.50	25222.78
505.71	24997.51
505.91	25351.81
506.12	25079.43
506.32	25302.65
506.53	25294.46
506.73	25493.12
506.94	25558.65
507.14	25607.80
507.35	25626.23
507.55	25577.08
507.76	25859.70
507.96	25745.02
508.17	25683.58
508.37	25910.90
508.58	26080.88
508.78	26281.58
508.99	26338.93
509.19	26164.85
509.40	26287.73
509.60	26287.73
509.81	26324.59
510.01	26437.23
510.22	26607.21
510.42	26506.86
510.63	26785.38
510.83	26711.66
511.04	26812.01
511.24	26895.97
511.44	26863.21
511.65	27280.99
511.85	27297.38
512.06	26746.47
512.26	27360.86
512.47	27342.43
512.67	27221.60
512.88	27473.50
513.08	27346.53
513.29	27395.68
513.49	27162.21
513.69	27563.61
513.90	27596.38
514.10	27545.18
514.31	27614.81
514.51	27930.20
514.72	27754.07
514.92	27891.29
515.13	28008.02
515.33	27930.20
515.53	27938.39
515.74	28067.41
515.94	28343.89
516.15	28264.02
516.35	28001.88
516.56	28696.14
516.76	28247.63
516.96	28243.54
517.17	28819.02
517.37	28853.83
517.58	28821.06
517.78	28671.56
517.99	28520.01
518.19	28847.69
518.39	28902.98
518.60	29212.23
518.80	29097.54
519.01	28943.94
519.21	29148.74
519.41	29410.88
519.62	29316.67
519.82	29265.47
520.03	29351.49
520.23	29412.93
520.43	29466.17
520.64	29904.44
520.84	29627.96
521.05	29648.44
521.25	29879.86
521.45	29855.29
521.66	30195.25
521.86	29918.78
522.07	30363.18
522.27	30236.21
522.47	30230.07
522.68	30701.10
522.88	30504.49
523.08	30658.09
523.29	30428.72
523.49	30639.66
523.70	30676.52
523.90	30871.08
524.10	30871.08
524.31	31053.35
524.51	30815.79
524.71	31731.23
524.92	30981.67
525.12	31424.03
525.33	31239.72
525.53	31501.86
525.73	31692.32
525.94	31682.08
526.14	31563.29
526.34	31864.35
526.55	31712.80
526.75	31720.99
526.95	32163.35
527.16	32351.76
527.36	31936.02
527.56	31995.42
527.77	32071.19
527.97	31919.64
528.17	32505.36
528.38	32613.90
528.58	32413.20
528.78	32618.00
528.99	32839.18
529.19	32824.84
529.39	32507.41
529.60	32671.25
529.80	33064.46
530.00	32871.95
530.21	33267.20
530.41	33558.02
530.61	33267.20
530.82	33123.85
531.02	33326.60
531.22	33564.16
531.43	33273.35
531.63	33437.19
531.83	34113.02
532.04	34289.14
532.24	33793.53
532.44	34553.33
532.64	34082.30
532.85	34573.81
533.05	34436.59
533.25	34280.95
533.46	34377.20
533.66	34747.89
533.86	34907.63
534.07	35007.98
534.27	34717.17
534.47	34954.73
534.67	35231.21
534.88	35354.08
535.08	34969.07
535.28	35333.60
535.49	35542.50
535.69	35460.58
535.89	36001.24
536.09	35874.27
536.30	35855.84
536.50	35634.66
536.70	36066.78
536.91	35950.04
537.11	35782.11
537.31	36240.86
537.51	36320.73
537.72	36570.58
537.92	36357.59
538.12	36484.56
538.32	36359.64
538.53	36591.06
538.73	36425.17
538.93	36345.30
539.13	36527.57
539.34	36580.82
539.54	36976.08
539.74	36928.97
539.94	36711.89
540.15	36738.51
540.35	37342.66
540.55	37170.63
540.75	37402.05
540.96	37582.27
541.16	37596.61
541.36	37539.27
541.56	37391.81
541.77	38194.62
541.97	37608.90
542.17	37684.67
542.37	37686.72
542.58	37950.91
542.78	37739.97
542.98	37723.58
543.18	38106.55
543.38	38489.52
543.59	38337.98
543.79	38049.21
543.99	38094.27
544.19	38284.73
544.40	38157.75
544.60	38667.70
544.80	38434.23
545.00	38614.45
545.20	38966.70
545.41	38774.19
545.61	38446.52
545.81	38935.98
546.01	38929.84
546.21	38700.47
546.42	38716.85
546.62	38901.17
546.82	38806.96
547.02	38974.89
547.22	39214.51
547.43	39028.14
547.63	39212.46
547.83	38985.13
548.03	38935.98
548.23	39673.25
548.44	39327.14
548.64	39206.31
548.84	39474.60
549.04	39185.83
549.24	39972.25
549.45	39497.13
549.65	39372.20
549.85	39431.59
550.05	39732.64
550.25	39617.96
550.45	40191.39
550.66	40007.07
550.86	39873.95
551.06	39822.75
551.26	40285.59
551.46	40295.83
551.66	40381.85
551.87	40168.86
552.07	40265.11
552.27	40037.79
552.47	40306.07
552.67	40562.07
552.87	40099.23
553.07	40668.56
553.28	40463.77
553.48	40545.69
553.68	40512.92
553.88	41145.74
554.08	40527.25
554.28	40441.24
554.48	40332.70
554.69	40844.69
554.89	40703.38
555.09	40795.54
555.29	40510.87
555.49	40951.18
555.69	40717.71
555.89	40910.22
556.10	40910.22
556.30	40650.13
556.50	41221.52
556.70	40805.78
556.90	41235.85
557.10	41309.58
557.30	40834.45
557.50	41588.10
557.70	41414.02
557.91	41328.01
558.11	41215.37
558.31	41790.85
558.51	41514.37
558.71	41358.73
558.91	41702.79
559.11	41211.28
559.31	41133.45
559.51	41467.27
559.72	41706.88
559.92	42009.98
560.12	41434.50
560.32	41739.65
560.52	41782.66
560.72	41954.69
560.92	42036.61
561.12	42270.08
561.32	42108.29
561.52	42083.71
561.72	42186.11
561.93	41534.85
562.13	41815.43
562.33	41717.12
562.53	42536.31
562.73	41729.41
562.93	41864.58
563.13	42382.71
563.33	42206.59
563.53	42466.68
563.73	42331.51
563.93	42177.92
564.13	42601.85
564.33	42632.57
564.53	42417.53
564.74	42931.57
564.94	42362.23
565.14	42415.48
565.34	42630.52
565.54	42593.65
565.74	42513.78
565.94	43449.70
566.14	42876.27
566.34	43021.68
566.54	43169.13
566.74	42601.85
566.94	43117.93
567.14	43095.41
567.34	42673.52
567.54	43113.84
567.74	43085.17
567.94	42874.23
568.14	43261.29
568.34	43425.13
568.54	43013.49
568.74	43439.47
568.94	43060.59
569.14	43693.41
569.34	43400.55
569.54	43449.70
569.75	43498.86
569.95	43375.98
570.15	43937.12
570.35	43775.33
570.55	43810.15
570.75	43705.70
570.95	43677.03
571.15	43611.49
571.35	44064.10
571.55	43943.27
571.75	43775.33
571.95	43992.42
572.15	44213.60
572.35	44209.50
572.55	44244.32
572.75	44291.42
572.95	44250.46
573.15	44072.29
573.35	44578.14
573.55	44121.44
573.75	44600.66
573.95	44485.98
574.15	44754.26
574.35	44594.52
574.55	44592.47
574.75	44555.61
574.95	44440.92
575.15	44813.65
575.34	44762.45
575.54	44752.21
575.74	45000.02
575.94	44977.49
576.14	44926.29
576.34	45471.05
576.54	45307.21
576.74	45604.17
576.94	45118.80
577.14	45358.41
577.34	45438.28
577.54	45038.93
577.74	45378.89
577.94	45473.10
578.14	45860.16
578.34	45839.68
578.54	44903.76
578.74	45722.95
578.94	45958.47
579.14	45425.99
579.34	45630.79
579.54	46036.29
579.74	46036.29
579.94	46265.66
580.13	46208.32
580.33	46005.57
580.53	46595.38
580.73	46478.65
580.93	46001.47
581.13	45991.23
581.33	46216.51
581.53	46552.38
581.73	46976.31
581.93	46888.24
582.13	46431.55
582.33	47117.62
582.53	46781.75
582.73	47093.04
582.92	47045.94
583.12	47170.86
583.32	47125.81
583.52	46937.40
583.72	47205.68
583.92	47254.83
584.12	47420.72
584.32	47664.42
584.52	47359.28
584.72	47500.59
584.92	47590.70
585.11	47926.56
585.31	47973.67
585.51	48119.07
585.71	47830.31
585.91	48160.03
586.11	47758.63
586.31	48211.23
586.51	47719.72
586.71	48196.90
586.91	48418.08
587.10	48622.87
587.30	48657.69
587.50	48401.69
587.70	48622.87
587.90	48854.29
588.10	48667.93
588.30	48721.18
588.50	48831.77
