SpectraSuite Data File
++++++++++++++++++++++++++++++++++++
Date: Fri Jun 02 14:57:22 CEST 2017
User: INFO_000
Dark Spectrum Present: No
Reference Spectrum Present: No
Number of Sampled Component Spectra: 1
Spectrometers: USB4H00879
Integration Time (usec): 80000 (USB4H00879)
Spectra Averaged: 1 (USB4H00879)
Boxcar Smoothing: 0 (USB4H00879)
Correct for Electrical Dark: No (USB4H00879)
Strobe/Lamp Enabled: No (USB4H00879)
Correct for Detector Non-linearity: No (USB4H00879)
Correct for Stray Light: No (USB4H00879)
Number of Pixels in Processed Spectrum: 3648
>>>>>Begin Processed Spectral Data<<<<<
345.13	1320.94
345.34	1320.94
345.56	1320.94
345.78	1228.78
345.99	1202.16
346.21	1765.35
346.42	1693.67
346.64	1638.38
346.86	1796.07
347.07	1636.33
347.29	1697.77
347.50	1591.27
347.72	1617.90
347.94	1796.07
348.15	1595.37
348.37	1656.81
348.59	1708.01
348.80	1615.85
349.02	1791.97
349.23	1908.71
349.45	1890.28
349.67	1853.41
349.88	1769.44
350.10	1972.19
350.31	1892.32
350.53	1808.36
350.75	1994.72
350.96	1724.39
351.18	1918.95
351.39	1918.95
351.61	1818.60
351.82	1843.17
352.04	1845.22
352.26	1812.45
352.47	1920.99
352.69	1902.56
352.90	1822.69
353.12	1814.50
353.34	1877.99
353.55	1957.86
353.77	1925.09
353.98	1877.99
354.20	1898.47
354.41	1945.57
354.63	2015.20
354.85	2033.63
355.06	1912.80
355.28	1757.16
355.49	1920.99
355.71	1890.28
355.92	1832.93
356.14	1957.86
356.35	1867.75
356.57	1853.41
356.79	1918.95
357.00	1914.85
357.22	1959.91
357.43	1824.74
357.65	1959.91
357.86	1871.84
358.08	1920.99
358.29	1929.19
358.51	2033.63
358.72	2000.87
358.94	1961.95
359.16	1914.85
359.37	1947.62
359.59	1961.95
359.80	2009.06
360.02	1920.99
360.23	1964.00
360.45	2004.96
360.66	1906.66
360.88	1943.52
361.09	1941.47
361.31	1959.91
361.52	1937.38
361.74	2058.21
361.95	2103.26
362.17	1966.05
362.38	2179.04
362.60	1990.63
362.81	1996.77
363.03	2002.91
363.24	1961.95
363.46	2035.68
363.67	2031.58
363.89	2066.40
364.10	2017.25
364.32	1998.82
364.53	2052.06
364.75	1984.48
364.96	2056.16
365.18	1945.57
365.39	2072.54
365.61	1984.48
365.82	2107.36
366.04	1992.67
366.25	1974.24
366.47	2052.06
366.68	2045.92
366.90	2004.96
367.11	2080.74
367.33	2060.26
367.54	2072.54
367.76	2000.87
367.97	2123.74
368.19	1982.43
368.40	2060.26
368.62	1955.81
368.83	2015.20
369.05	2127.84
369.26	1900.52
369.48	2007.01
369.69	2035.68
369.91	2170.85
370.12	1992.67
370.33	2095.07
370.55	1992.67
370.76	2033.63
370.98	2109.41
371.19	2050.02
371.41	2062.30
371.62	2066.40
371.84	2047.97
372.05	2164.70
372.27	1996.77
372.48	1992.67
372.69	2062.30
372.91	2121.70
373.12	2133.98
373.34	2109.41
373.55	2099.17
373.77	2207.71
373.98	2095.07
374.20	2211.81
374.41	2199.52
374.62	2156.51
374.84	2168.80
375.05	2236.38
375.27	2199.52
375.48	2117.60
375.70	2174.94
375.91	2244.57
376.12	2220.00
376.34	2213.85
376.55	2289.63
376.77	2191.33
376.98	2129.89
377.19	2144.22
377.41	2166.75
377.62	2164.70
377.84	2166.75
378.05	2316.25
378.27	2187.23
378.48	2232.29
378.69	2334.68
378.91	2232.29
379.12	2222.05
379.34	2244.57
379.55	2283.49
379.76	2271.20
379.98	2113.50
380.19	2273.25
380.41	2242.53
380.62	2328.54
380.83	2279.39
381.05	2260.96
381.26	2400.22
381.47	2260.96
381.69	2226.14
381.90	2439.13
382.12	2338.78
382.33	2332.64
382.54	2281.44
382.76	2312.16
382.97	2334.68
383.19	2254.81
383.40	2402.27
383.61	2342.88
383.83	2191.33
384.04	2332.64
384.25	2346.97
384.47	2336.73
384.68	2373.60
384.89	2238.43
385.11	2297.82
385.32	2234.33
385.54	2349.02
385.75	2326.49
385.96	2410.46
386.18	2469.85
386.39	2428.89
386.60	2387.93
386.82	2420.70
387.03	2400.22
387.24	2471.90
387.46	2441.18
387.67	2432.99
387.88	2494.43
388.10	2383.84
388.31	2469.85
388.52	2553.82
388.74	2516.95
388.95	2482.14
389.16	2451.42
389.38	2420.70
389.59	2557.91
389.80	2553.82
390.02	2557.91
390.23	2654.17
390.44	2512.86
390.66	2580.44
390.87	2529.24
391.08	2633.69
391.30	2688.98
391.51	2562.01
391.72	2611.16
391.94	2697.17
392.15	2564.06
392.36	2629.59
392.58	2629.59
392.79	2600.92
393.00	2693.08
393.22	2705.37
393.43	2777.05
393.64	2861.01
393.85	2729.94
394.07	2598.87
394.28	2715.61
394.49	2758.61
394.71	2719.70
394.92	2875.35
395.13	2629.59
395.35	2770.90
395.56	2742.23
395.77	2766.81
395.98	2805.72
396.20	2799.57
396.41	2840.53
396.62	2854.87
396.84	2830.29
397.05	2912.21
397.26	2895.83
397.47	2987.99
397.69	2858.96
397.90	3024.85
398.11	2920.40
398.32	2918.36
398.54	2967.51
398.75	2805.72
398.96	2955.22
399.18	3051.47
399.39	2871.25
399.60	3000.27
399.81	2969.55
400.03	2973.65
400.24	3207.12
400.45	3004.37
400.66	3049.43
400.88	2987.99
401.09	3143.63
401.30	3088.34
401.51	3174.35
401.73	3182.54
401.94	3071.95
402.15	3237.84
402.36	3207.12
402.58	3063.76
402.79	3160.02
403.00	3137.49
403.21	3235.79
403.43	3231.69
403.64	3416.01
403.85	3110.86
404.06	3254.22
404.27	3080.14
404.49	3196.88
404.70	3149.78
404.91	3233.74
405.12	3243.98
405.34	3194.83
405.55	3467.21
405.76	3241.93
405.97	3301.33
406.19	3434.44
406.40	3239.89
406.61	3420.11
406.82	3282.89
407.03	3354.57
407.25	3301.33
407.46	3434.44
407.67	3489.74
407.88	3434.44
408.09	3327.95
408.31	3483.59
408.52	3448.78
408.73	3334.09
408.94	3467.21
409.15	3434.44
409.37	3528.65
409.58	3463.12
409.79	3530.70
410.00	3639.24
410.21	3420.11
410.43	3571.66
410.64	3512.27
410.85	3526.60
411.06	3475.40
411.27	3567.56
411.48	3692.49
411.70	3594.19
411.91	3735.50
412.12	3747.78
412.33	3506.12
412.54	3563.47
412.76	3741.64
412.97	3778.50
413.18	3534.79
413.39	3805.13
413.60	3694.54
413.81	3598.28
414.03	3702.73
414.24	3657.67
414.45	3870.66
414.66	3674.06
414.87	3717.06
415.08	3835.85
415.30	3755.97
415.51	3835.85
415.72	3721.16
415.93	3694.54
416.14	3735.50
416.35	3858.37
416.56	3899.33
416.78	3809.22
416.99	3913.67
417.20	3844.04
417.41	3973.06
417.62	4030.40
417.83	3975.11
418.04	3885.00
418.26	4009.92
418.47	3909.57
418.68	4014.02
418.89	4007.87
419.10	4022.21
419.31	3899.33
419.52	4169.66
419.73	3981.25
419.95	4143.04
420.16	3913.67
420.37	4057.03
420.58	4028.35
420.79	3964.87
421.00	4065.22
421.21	4151.23
421.42	4071.36
421.63	4102.08
421.85	4124.61
422.06	4192.19
422.27	4155.33
422.48	4216.77
422.69	4175.81
422.90	4184.00
423.11	4280.25
423.32	4310.97
423.53	4296.64
423.75	4265.92
423.96	4384.70
424.17	4497.34
424.38	4548.54
424.59	4310.97
424.80	4499.39
425.01	4462.52
425.22	4378.56
425.43	4390.84
425.64	4724.66
425.85	4648.89
426.06	4480.96
426.28	4523.96
426.49	4446.14
426.70	4521.92
426.91	4546.49
427.12	4624.31
427.33	4681.66
427.54	4591.55
427.75	4724.66
427.96	4810.68
428.17	4599.74
428.38	4827.06
428.59	4788.15
428.80	4749.24
429.01	4851.64
429.23	4777.91
429.44	4886.45
429.65	4906.93
429.86	4992.95
430.07	4810.68
430.28	4798.39
430.49	4997.04
430.70	5193.65
430.91	4968.37
431.12	4939.70
431.33	5035.96
431.54	5003.19
431.75	5017.52
431.96	5097.39
432.17	5023.67
432.38	4974.52
432.59	5423.02
432.80	5173.17
433.01	5205.94
433.22	5302.19
433.43	5300.14
433.64	5220.27
433.85	5173.17
434.06	5382.06
434.27	5228.46
434.49	5306.29
434.70	5496.75
434.91	5494.70
435.12	5500.84
435.33	5375.92
435.54	5265.33
435.75	5212.08
435.96	5318.57
436.17	5369.77
436.38	5617.58
436.59	5660.59
436.80	5500.84
437.01	5562.28
437.22	5701.54
437.43	5662.63
437.64	5474.22
437.85	5642.15
438.06	5550.00
438.27	5728.17
438.48	5603.24
438.69	5621.67
438.90	5683.11
439.11	5564.33
439.32	5859.24
439.53	5693.35
439.74	5875.62
439.95	5920.68
440.16	5773.22
440.37	5730.22
440.57	5803.94
440.78	5883.81
440.99	5791.66
441.20	5943.21
441.41	5771.18
441.62	5992.36
441.83	5853.09
442.04	6043.56
442.25	5947.30
442.46	6051.75
442.67	6119.33
442.88	6451.10
443.09	5803.94
443.30	6006.69
443.51	6205.35
443.72	6389.66
443.93	6113.19
444.14	6324.13
444.35	6227.87
444.56	6125.47
444.77	6154.15
444.98	6266.78
445.19	6344.61
445.40	6424.48
445.61	6223.78
445.81	6555.55
446.02	6496.16
446.23	6277.02
446.44	6332.32
446.65	6383.52
446.86	6549.40
447.07	6463.39
447.28	6776.73
447.49	6588.32
447.70	6424.48
447.91	6537.12
448.12	6729.63
448.33	6926.23
448.54	6799.26
448.74	6627.23
448.95	6596.51
449.16	6696.86
449.37	6975.38
449.58	6694.81
449.79	6885.27
450.00	6764.44
450.21	6893.46
450.42	7055.25
450.63	6922.13
450.84	6875.03
451.05	6920.09
451.25	6909.85
451.46	6952.85
451.67	7141.27
451.88	7264.15
452.09	7249.81
452.30	7139.22
452.51	7294.86
452.72	7323.54
452.93	7534.48
453.13	7034.77
453.34	7278.48
453.55	7307.15
453.76	7225.23
453.97	7704.46
454.18	7421.84
454.39	7524.24
454.60	7407.50
454.81	7577.48
455.01	7749.51
455.22	7417.74
455.43	7788.43
455.64	7919.50
455.85	7761.80
456.06	8052.61
456.27	7745.42
456.48	7790.47
456.68	7872.39
456.89	7925.64
457.10	7978.89
457.31	7874.44
457.52	8019.85
457.73	8073.09
457.94	8232.83
458.14	8079.24
458.35	8482.69
458.56	8316.80
458.77	8138.63
458.98	8439.68
459.19	8261.51
459.39	8529.79
459.60	8464.25
459.81	8331.14
460.02	8695.68
460.23	8488.83
460.44	9029.49
460.65	8767.35
460.85	8802.17
461.06	8720.25
461.27	8488.83
461.48	8982.39
461.69	9092.98
461.89	8685.44
462.10	8873.85
462.31	8988.53
462.52	8890.23
462.73	9052.02
462.94	9197.43
463.14	9004.92
463.35	9285.49
463.56	9654.12
463.77	9543.53
463.98	9238.39
464.18	9367.41
464.39	9564.01
464.60	9889.64
464.81	9473.90
465.02	9527.15
465.23	9926.50
465.43	9631.60
465.64	9785.19
465.85	9885.55
466.06	9715.56
466.27	10278.76
466.47	10026.86
466.68	10010.47
466.89	10049.38
467.10	10233.70
467.30	10047.33
467.51	10350.43
467.72	10557.28
467.93	10028.90
468.14	10528.61
468.34	10741.60
468.55	10620.77
468.76	10772.32
468.97	10415.97
469.17	11005.78
469.38	10878.81
469.59	11091.80
469.80	10837.85
470.01	10991.45
470.21	10909.53
470.42	11282.26
470.63	11335.51
470.84	11200.34
471.04	11378.51
471.25	11497.30
471.46	11405.14
471.67	11624.27
471.87	11370.32
472.08	11628.37
472.29	11845.45
472.50	11540.30
472.70	11620.17
472.91	11974.47
473.12	12097.35
473.33	12021.58
473.53	12347.20
473.74	12119.88
473.95	12336.96
474.16	12535.62
474.36	12287.81
474.57	12734.27
474.78	12642.11
474.99	12588.86
475.19	12597.06
475.40	12822.33
475.61	12891.96
475.81	13043.51
476.02	13299.51
476.23	13307.70
476.44	13143.86
476.64	13479.73
476.85	13604.66
477.06	13524.79
477.27	13745.97
477.47	13823.79
477.68	13915.95
477.89	13813.55
478.09	13870.89
478.30	14081.83
478.51	14126.89
478.71	14233.38
478.92	14114.60
479.13	14380.84
479.34	14444.32
479.54	14651.17
479.75	14778.14
479.96	14733.09
480.16	14905.12
480.37	14806.81
480.58	14960.41
480.78	15277.85
480.99	15238.94
481.20	15257.37
481.41	15388.44
481.61	15449.88
481.82	15626.00
482.03	15640.34
482.23	15470.36
482.44	15640.34
482.65	15912.72
482.85	15816.46
483.06	15845.13
483.27	16146.19
483.47	16070.41
483.68	16430.85
483.89	16318.22
484.09	16418.57
484.30	16559.88
484.51	16750.34
484.71	16824.06
484.92	16617.22
485.13	16803.58
485.33	16881.41
485.54	16930.56
485.75	17282.81
485.95	17141.50
486.16	17309.43
486.37	17534.71
486.57	17245.94
486.78	17483.51
486.98	17538.80
487.19	17909.49
487.40	17710.83
487.60	17725.17
487.81	18128.62
488.02	17647.35
488.22	18052.84
488.43	18130.67
488.64	18206.44
488.84	18470.63
489.05	18505.45
489.25	18482.92
489.46	18515.69
489.67	18581.22
489.87	18833.12
490.08	18857.70
490.29	18869.98
490.49	19209.95
490.70	19318.49
490.90	19273.43
491.11	19199.71
491.32	19441.37
491.52	19222.23
491.73	19476.18
491.94	19572.44
492.14	19435.22
492.35	19654.36
492.55	19820.24
492.76	19947.22
492.97	20018.89
493.17	20018.89
493.38	20360.91
493.58	20360.91
493.79	20287.18
494.00	20594.37
494.20	20412.10
494.41	20887.23
494.61	20680.39
494.82	20881.09
495.02	20651.72
495.23	20786.88
495.44	21075.65
495.64	21212.86
495.85	21143.23
496.05	21266.11
496.26	21321.40
496.47	21524.15
496.67	21356.22
496.88	21470.90
497.08	21653.17
497.29	22007.47
497.49	21595.83
497.70	21841.59
497.91	22021.81
498.11	22095.53
498.32	22204.08
498.52	22208.17
498.73	22394.54
498.93	22425.26
499.14	22077.10
499.34	22527.66
499.55	22349.48
499.76	22439.59
499.96	22552.23
500.17	22544.04
500.37	22804.13
500.58	22675.11
500.78	22832.80
500.99	22757.03
501.19	23359.13
501.40	23060.13
501.60	22927.01
501.81	23238.30
502.02	23230.11
502.22	22988.45
502.43	23412.38
502.63	23584.41
502.84	23541.40
503.04	23754.39
503.25	23756.44
503.45	23656.09
503.66	23733.91
503.86	23932.56
504.07	24432.27
504.27	23926.42
504.48	24170.13
504.68	24088.21
504.89	24434.32
505.09	24403.60
505.30	24467.08
505.50	24487.56
505.71	24723.08
505.91	24704.65
506.12	24512.14
506.32	24573.58
506.53	24596.10
506.73	24718.98
506.94	24733.32
507.14	24917.64
507.35	25013.89
507.55	25075.33
507.76	25034.37
507.96	25007.75
508.17	25142.91
508.37	25345.66
508.58	25489.02
508.78	25558.65
508.99	25826.93
509.19	25970.29
509.40	25558.65
509.60	25501.31
509.81	25683.58
510.01	26199.66
510.22	25790.07
510.42	25699.96
510.63	26201.71
510.83	26146.42
511.04	26041.97
511.24	26056.31
511.44	26056.31
511.65	26244.72
511.85	26523.24
512.06	26502.76
512.26	26418.80
512.47	26601.07
512.67	26482.28
512.88	26881.64
513.08	26201.71
513.29	26748.52
513.49	26992.23
513.69	26785.38
513.90	27135.59
514.10	27031.14
514.31	27111.01
514.51	27199.07
514.72	27086.43
514.92	27166.31
515.13	27455.07
515.33	27158.11
515.53	27319.90
515.74	27547.23
515.94	27995.73
516.15	27647.58
516.35	27614.81
516.56	27952.73
516.76	27778.65
516.96	27825.75
517.17	27721.30
517.37	27901.53
517.58	28091.99
517.78	28100.18
517.99	28374.61
518.19	28380.75
518.39	28421.71
518.60	28794.44
518.80	28622.41
519.01	28794.44
519.21	28563.02
519.41	29050.44
519.62	28661.32
519.82	28896.84
520.03	29072.96
520.23	28806.73
520.43	28862.02
520.64	29296.19
520.84	29478.46
521.05	29025.86
521.25	29560.38
521.45	29623.87
521.66	29607.48
521.86	29617.72
522.07	29697.59
522.27	29503.04
522.47	29845.05
522.68	30008.89
522.88	30117.43
523.08	30414.38
523.29	30477.87
523.49	30791.21
523.70	30387.76
523.90	30510.64
524.10	30291.51
524.31	30901.80
524.51	30508.59
524.71	31063.59
524.92	30983.72
525.12	30981.67
525.33	30912.04
525.53	30998.06
525.73	31542.81
525.94	31415.84
526.14	31151.65
526.34	31471.14
526.55	31401.50
526.75	31489.57
526.95	31974.94
527.16	31495.71
527.36	31551.01
527.56	32292.37
527.77	32620.05
527.97	32419.35
528.17	32433.68
528.38	32624.14
528.58	32235.03
528.78	32534.03
528.99	32765.45
529.19	32722.44
529.39	32261.65
529.60	32886.28
529.80	32878.09
530.00	32857.61
530.21	33209.86
530.41	33588.74
530.61	33568.26
530.82	33689.09
531.02	33261.06
531.22	33609.22
531.43	33949.18
531.63	34024.95
531.83	34260.47
532.04	34237.94
532.24	33953.27
532.44	34393.59
532.64	34729.45
532.85	34125.30
533.05	34678.25
533.25	34412.02
533.46	34719.21
533.66	35018.22
533.86	35126.76
534.07	35270.12
534.27	35122.66
534.47	35450.34
534.67	35446.24
534.88	35034.60
535.08	35577.31
535.28	35491.30
535.49	35345.89
535.69	36150.74
535.89	35794.40
536.09	35749.34
536.30	36419.03
536.50	36156.89
536.70	36619.73
536.91	36320.73
537.11	36167.13
537.31	36775.37
537.51	36722.13
537.72	36992.46
537.92	37150.15
538.12	37440.96
538.32	37002.70
538.53	37125.58
538.73	36756.94
538.93	37219.78
539.13	37406.15
539.34	37144.01
539.54	37187.02
539.74	37584.32
539.94	37834.17
540.15	37475.78
540.35	37860.80
540.55	37582.27
540.75	37907.90
540.96	38151.61
541.16	37901.76
541.36	38180.28
541.56	38720.95
541.77	38323.64
541.97	38194.62
542.17	38512.05
542.37	38612.40
542.58	38809.01
542.78	38632.88
542.98	38831.54
543.18	38841.78
543.38	39267.75
543.59	39300.52
543.79	38917.55
543.99	39275.94
544.19	39323.05
544.40	38913.45
544.60	39495.08
544.80	39337.38
545.00	39706.02
545.20	39622.05
545.41	39337.38
545.61	39613.86
545.81	39906.72
546.01	39998.88
546.21	39761.31
546.42	39738.79
546.62	39810.46
546.82	39890.34
547.02	40144.28
547.22	39802.27
547.43	40029.60
547.63	40344.98
547.83	40283.55
548.03	40050.08
548.23	40215.96
548.44	40275.35
548.64	40385.94
548.84	40416.66
549.04	40717.71
549.24	40492.44
549.45	40832.40
549.65	40596.88
549.85	40502.68
550.05	41063.82
550.25	40875.41
550.45	41125.26
550.66	41371.02
550.86	40707.47
551.06	41151.88
551.26	41043.34
551.46	41127.31
551.66	41440.65
551.87	41387.40
552.07	41176.46
552.27	41483.66
552.47	41436.55
552.67	41375.11
552.87	41491.85
553.07	41405.83
553.28	41643.40
553.48	41790.85
553.68	41477.51
553.88	41872.77
554.08	41823.62
554.28	41796.99
554.48	41758.08
554.69	41940.35
554.89	41866.63
555.09	41821.57
555.29	41866.63
555.49	42491.26
555.69	41874.82
555.89	42096.00
556.10	42231.16
556.30	41856.39
556.50	42126.72
556.70	42124.67
556.90	42007.94
557.10	42204.54
557.30	42114.43
557.50	42562.93
557.70	42311.03
557.91	42552.69
558.11	42444.15
558.31	42851.70
558.51	42034.56
558.71	42489.21
558.91	42780.02
559.11	42265.98
559.31	42538.36
559.51	42198.40
559.72	42706.29
559.92	42605.94
560.12	42405.24
560.32	42829.17
560.52	42560.89
560.72	42892.66
560.92	42904.95
561.12	43105.65
561.32	42853.75
561.52	42767.73
561.72	43091.31
561.93	42610.04
562.13	42990.96
562.33	42653.05
562.53	43335.02
562.73	42542.45
562.93	42607.99
563.13	42810.74
563.33	42820.98
563.53	43375.98
563.73	42859.89
563.93	42880.37
564.13	43588.97
564.33	43119.98
564.53	42950.00
564.74	43558.25
564.94	43603.30
565.14	43701.61
565.34	43287.92
565.54	43445.61
565.74	43279.72
565.94	43572.58
566.14	43273.58
566.34	43627.88
566.54	43507.05
566.74	43455.85
566.94	43689.32
567.14	44088.67
567.34	43488.62
567.54	43935.07
567.74	43808.10
567.94	43629.93
568.14	43738.47
568.34	44076.38
568.54	43328.87
568.74	43916.64
568.94	44070.24
569.14	44285.28
569.34	44215.65
569.54	44072.29
569.75	43824.48
569.95	44111.20
570.15	44373.34
570.35	44135.77
570.55	44152.16
570.75	44168.54
570.95	43949.41
571.15	44287.32
571.35	44455.26
571.55	44442.97
571.75	44154.21
571.95	44733.78
572.15	44160.35
572.35	44531.03
572.55	44438.87
572.75	44526.94
572.95	44320.09
573.15	44211.55
573.35	44229.98
573.55	44610.90
573.75	44326.24
573.95	44901.71
574.15	44692.82
574.35	44721.49
574.55	44535.13
574.75	44668.25
574.95	44957.01
575.15	44631.38
575.34	45112.66
575.54	45122.90
575.74	45315.40
575.94	45487.43
576.14	44905.81
576.34	45253.97
576.54	45073.74
576.74	45471.05
576.94	45348.17
577.14	45237.58
577.34	45450.57
577.54	45186.38
577.74	45823.30
577.94	45307.21
578.14	45604.17
578.34	45647.18
578.54	45362.51
578.74	45735.24
578.94	45702.47
579.14	45677.90
579.34	45675.85
579.54	45841.73
579.74	46167.36
579.94	45905.22
580.13	46224.70
580.33	46058.82
580.53	46253.37
580.73	46175.55
580.93	46218.56
581.13	46110.02
581.33	46490.94
581.53	46828.85
581.73	46732.60
581.93	46210.37
582.13	46650.68
582.33	46816.57
582.53	46224.70
582.73	46724.41
582.92	46411.07
583.12	46918.96
583.32	46445.88
583.52	46540.09
583.72	46945.59
583.92	46718.26
584.12	46751.03
584.32	47052.08
584.52	46703.93
584.72	47291.69
584.92	47070.51
585.11	47797.54
585.31	47439.15
585.51	47043.89
585.71	47349.04
585.91	47709.48
586.11	47256.88
586.31	47193.39
586.51	47129.90
586.71	47582.51
586.91	48067.87
587.10	47338.80
587.30	47650.09
587.50	47875.37
587.70	48063.78
587.90	47764.78
588.10	47971.62
588.30	47834.41
588.50	47506.73
