SpectraSuite Data File
++++++++++++++++++++++++++++++++++++
Date: Fri Jun 02 14:57:21 CEST 2017
User: INFO_000
Dark Spectrum Present: No
Reference Spectrum Present: No
Number of Sampled Component Spectra: 1
Spectrometers: USB4H00879
Integration Time (usec): 80000 (USB4H00879)
Spectra Averaged: 1 (USB4H00879)
Boxcar Smoothing: 0 (USB4H00879)
Correct for Electrical Dark: No (USB4H00879)
Strobe/Lamp Enabled: No (USB4H00879)
Correct for Detector Non-linearity: No (USB4H00879)
Correct for Stray Light: No (USB4H00879)
Number of Pixels in Processed Spectrum: 3648
>>>>>Begin Processed Spectral Data<<<<<
345.13	1314.80
345.34	1314.80
345.56	1314.80
345.78	1277.93
345.99	1339.37
346.21	1746.92
346.42	1634.28
346.64	1669.09
346.86	1796.07
347.07	1607.66
347.29	1677.29
347.50	1648.61
347.72	1634.28
347.94	1804.26
348.15	1535.98
348.37	1583.08
348.59	1673.19
348.80	1683.43
349.02	1773.54
349.23	1871.84
349.45	1826.79
349.67	1902.56
349.88	1767.40
350.10	1904.61
350.31	1900.52
350.53	1804.26
350.75	2011.11
350.96	1783.78
351.18	1812.45
351.39	1800.16
351.61	1853.41
351.82	1830.88
352.04	1949.67
352.26	1804.26
352.47	1925.09
352.69	1914.85
352.90	1800.16
353.12	1843.17
353.34	1892.32
353.55	1873.89
353.77	1806.31
353.98	1869.80
354.20	1849.32
354.41	1910.75
354.63	1945.57
354.85	2045.92
355.06	1880.04
355.28	1845.22
355.49	1925.09
355.71	1834.98
355.92	1888.23
356.14	2004.96
356.35	1929.19
356.57	1892.32
356.79	1992.67
357.00	1869.80
357.22	1892.32
357.43	1869.80
357.65	1943.52
357.86	1816.55
358.08	1875.94
358.29	1914.85
358.51	1978.34
358.72	1961.95
358.94	1943.52
359.16	1933.28
359.37	1861.60
359.59	1964.00
359.80	2000.87
360.02	1916.90
360.23	1978.34
360.45	1916.90
360.66	1931.23
360.88	1873.89
361.09	1894.37
361.31	1978.34
361.52	1929.19
361.74	2062.30
361.95	2060.26
362.17	1994.72
362.38	2082.78
362.60	2113.50
362.81	1957.86
363.03	1884.13
363.24	1923.04
363.46	2093.02
363.67	2152.42
363.89	2035.68
364.10	2007.01
364.32	1994.72
364.53	2052.06
364.75	1892.32
364.96	1978.34
365.18	1998.82
365.39	2037.73
365.61	1982.43
365.82	2170.85
366.04	2027.49
366.25	2023.39
366.47	2074.59
366.68	2002.91
366.90	1951.71
367.11	2103.26
367.33	1990.63
367.54	2052.06
367.76	1984.48
367.97	2035.68
368.19	2113.50
368.40	2115.55
368.62	2043.87
368.83	1929.19
369.05	2109.41
369.26	2017.25
369.48	2090.98
369.69	1992.67
369.91	2029.54
370.12	1994.72
370.33	2097.12
370.55	2054.11
370.76	2045.92
370.98	2142.18
371.19	2054.11
371.41	2009.06
371.62	2035.68
371.84	2062.30
372.05	2170.85
372.27	2103.26
372.48	2205.66
372.69	2111.46
372.91	2154.46
373.12	2168.80
373.34	2101.22
373.55	2168.80
373.77	2172.89
373.98	2119.65
374.20	2109.41
374.41	2316.25
374.62	2082.78
374.84	2170.85
375.05	2265.05
375.27	2148.32
375.48	2187.23
375.70	2156.51
375.91	2260.96
376.12	2308.06
376.34	2127.84
376.55	2174.94
376.77	2240.48
376.98	2142.18
377.19	2078.69
377.41	2170.85
377.62	2236.38
377.84	2287.58
378.05	2359.26
378.27	2189.28
378.48	2428.89
378.69	2346.97
378.91	2265.05
379.12	2193.37
379.34	2230.24
379.55	2336.73
379.76	2303.96
379.98	2277.34
380.19	2289.63
380.41	2246.62
380.62	2314.20
380.83	2258.91
381.05	2148.32
381.26	2367.45
381.47	2310.11
381.69	2285.53
381.90	2353.12
382.12	2246.62
382.33	2291.68
382.54	2295.77
382.76	2392.03
382.97	2353.12
383.19	2254.81
383.40	2355.16
383.61	2359.26
383.83	2371.55
384.04	2324.44
384.25	2346.97
384.47	2402.27
384.68	2377.69
384.89	2295.77
385.11	2310.11
385.32	2359.26
385.54	2336.73
385.75	2322.40
385.96	2381.79
386.18	2453.47
386.39	2373.60
386.60	2375.64
386.82	2463.71
387.03	2463.71
387.24	2453.47
387.46	2484.19
387.67	2463.71
387.88	2543.58
388.10	2508.76
388.31	2457.56
388.52	2512.86
388.74	2506.71
388.95	2494.43
389.16	2498.52
389.38	2510.81
389.59	2625.50
389.80	2607.06
390.02	2527.19
390.23	2580.44
390.44	2559.96
390.66	2488.28
390.87	2480.09
391.08	2619.35
391.30	2678.74
391.51	2605.02
391.72	2650.07
391.94	2709.46
392.15	2662.36
392.36	2596.82
392.58	2639.83
392.79	2736.09
393.00	2658.26
393.22	2760.66
393.43	2795.48
393.64	2844.63
393.85	2848.72
394.07	2707.41
394.28	2734.04
394.49	2822.10
394.71	2781.14
394.92	2932.69
395.13	2588.63
395.35	2715.61
395.56	2801.62
395.77	2783.19
395.98	2891.73
396.20	2846.68
396.41	2822.10
396.62	2901.97
396.84	2791.38
397.05	2869.20
397.26	2959.31
397.47	2936.79
397.69	2877.40
397.90	3051.47
398.11	2877.40
398.32	2861.01
398.54	2846.68
398.75	2877.40
398.96	2891.73
399.18	3043.28
399.39	3041.23
399.60	2992.08
399.81	2977.75
400.03	2992.08
400.24	3248.08
400.45	2926.55
400.66	3174.35
400.88	3041.23
401.09	3196.88
401.30	3057.62
401.51	3194.83
401.73	3137.49
401.94	3100.62
402.15	3084.24
402.36	3114.96
402.58	3192.78
402.79	3139.54
403.00	3100.62
403.21	3233.74
403.43	3282.89
403.64	3258.32
403.85	3100.62
404.06	3231.69
404.27	3108.82
404.49	3270.61
404.70	3237.84
404.91	3229.65
405.12	3325.90
405.34	3262.41
405.55	3383.24
405.76	3289.04
405.97	3254.22
406.19	3411.92
406.40	3225.55
406.61	3362.76
406.82	3383.24
407.03	3278.80
407.25	3233.74
407.46	3393.48
407.67	3377.10
407.88	3467.21
408.09	3327.95
408.31	3391.44
408.52	3323.85
408.73	3395.53
408.94	3346.38
409.15	3354.57
409.37	3467.21
409.58	3397.58
409.79	3467.21
410.00	3528.65
410.21	3534.79
410.43	3276.75
410.64	3393.48
410.85	3528.65
411.06	3491.79
411.27	3461.07
411.48	3651.53
411.70	3516.36
411.91	3497.93
412.12	3682.25
412.33	3551.18
412.54	3604.42
412.76	3590.09
412.97	3618.76
413.18	3590.09
413.39	3633.10
413.60	3663.82
413.81	3661.77
414.03	3645.38
414.24	3643.34
414.45	3887.04
414.66	3549.13
414.87	3727.30
415.08	3624.90
415.30	3667.91
415.51	3727.30
415.72	3682.25
415.93	3743.69
416.14	3708.87
416.35	3796.93
416.56	3835.85
416.78	3749.83
416.99	3821.51
417.20	3755.97
417.41	3887.04
417.62	3919.81
417.83	3903.43
418.04	3841.99
418.26	3923.91
418.47	3829.70
418.68	3866.56
418.89	3901.38
419.10	4122.56
419.31	3962.82
419.52	3985.35
419.73	3977.16
419.95	3917.76
420.16	4016.07
420.37	3919.81
420.58	4075.46
420.79	3944.39
421.00	4128.70
421.21	4157.38
421.42	4120.51
421.63	4265.92
421.85	4046.79
422.06	4198.34
422.27	4210.62
422.48	4171.71
422.69	4325.31
422.90	4276.16
423.11	4128.70
423.32	4302.78
423.53	4440.00
423.75	4149.18
423.96	4597.69
424.17	4313.02
424.38	4489.15
424.59	4468.67
424.80	4390.84
425.01	4491.20
425.22	4306.88
425.43	4374.46
425.64	4722.62
425.85	4597.69
426.06	4593.59
426.28	4495.29
426.49	4358.08
426.70	4546.49
426.91	4642.75
427.12	4632.51
427.33	4564.92
427.54	4593.59
427.75	4718.52
427.96	4767.67
428.17	4820.92
428.38	4620.22
428.59	4792.25
428.80	4728.76
429.01	4816.82
429.23	4743.10
429.44	5009.33
429.65	4919.22
429.86	4984.76
430.07	4775.86
430.28	4902.84
430.49	4956.08
430.70	5068.72
430.91	5103.54
431.12	4882.36
431.33	5068.72
431.54	5136.31
431.75	5181.36
431.96	5244.85
432.17	5111.73
432.38	5097.39
432.59	5388.21
432.80	5326.77
433.01	5369.77
433.22	5318.57
433.43	5296.05
433.64	5355.44
433.85	5115.83
434.06	5408.69
434.27	5212.08
434.49	5367.73
434.70	5515.18
434.91	5289.90
435.12	5459.88
435.33	5556.14
435.54	5406.64
435.75	5281.71
435.96	5603.24
436.17	5388.21
436.38	5472.17
436.59	5687.21
436.80	5543.85
437.01	5697.45
437.22	5795.75
437.43	5586.86
437.64	5582.76
437.85	5844.90
438.06	5838.76
438.27	5623.72
438.48	5676.97
438.69	5865.38
438.90	5711.78
439.11	5719.98
439.32	5914.53
439.53	5861.29
439.74	5824.42
439.95	5777.32
440.16	5867.43
440.37	5867.43
440.57	5750.70
440.78	5992.36
440.99	5863.33
441.20	5941.16
441.41	5838.76
441.62	5949.35
441.83	5873.57
442.04	6186.91
442.25	6193.06
442.46	6064.04
442.67	6094.76
442.88	6522.78
443.09	6094.76
443.30	6268.83
443.51	6279.07
443.72	6516.64
443.93	6336.42
444.14	6494.11
444.35	6307.74
444.56	6352.80
444.77	6438.81
444.98	6270.88
445.19	6408.09
445.40	6586.27
445.61	6442.91
445.81	6557.60
446.02	6602.65
446.23	6465.44
446.44	6440.86
446.65	6416.29
446.86	6703.00
447.07	6619.04
447.28	6727.58
447.49	6651.80
447.70	6537.12
447.91	6662.04
448.12	6850.46
448.33	6827.93
448.54	6801.30
448.74	6696.86
448.95	6952.85
449.16	6809.50
449.37	7423.89
449.58	6926.23
449.79	6983.57
450.00	6950.81
450.21	6975.38
450.42	7069.59
450.63	6930.33
450.84	6924.18
451.05	7045.01
451.25	7141.27
451.46	7139.22
451.67	7245.71
451.88	7319.44
452.09	7139.22
452.30	7081.88
452.51	7163.79
452.72	7231.38
452.93	7415.69
453.13	7184.27
453.34	7313.30
453.55	7303.06
453.76	7303.06
453.97	7665.55
454.18	7399.31
454.39	7563.15
454.60	7458.70
454.81	7440.27
455.01	7759.75
455.22	7368.59
455.43	7634.83
455.64	7903.11
455.85	7808.90
456.06	7968.65
456.27	7751.56
456.48	7810.95
456.68	7974.79
456.89	7925.64
457.10	7921.54
457.31	7964.55
457.52	7880.58
457.73	8060.80
457.94	8281.99
458.14	8021.89
458.35	8388.48
458.56	8120.20
458.77	8081.28
458.98	8251.27
459.19	8306.56
459.39	8351.62
459.60	8494.97
459.81	8425.34
460.02	8527.74
460.23	8472.45
460.44	8804.22
460.65	8413.06
460.85	8605.56
461.06	8785.79
461.27	8669.05
461.48	8869.75
461.69	9047.93
461.89	8572.80
462.10	8861.56
462.31	8824.70
462.52	8867.70
462.73	8931.19
462.94	9222.00
463.14	9068.41
463.35	9027.45
463.56	9516.91
463.77	9426.80
463.98	9289.59
464.18	9131.89
464.39	9566.06
464.60	9713.52
464.81	9490.29
465.02	9525.10
465.23	9676.65
465.43	9662.32
465.64	9955.18
465.85	9774.95
466.06	9713.52
466.27	10004.33
466.47	9768.81
466.68	9985.90
466.89	9926.50
467.10	10133.35
467.30	10028.90
467.51	10256.23
467.72	10227.56
467.93	10112.87
468.14	10272.61
468.34	10391.39
468.55	10442.59
468.76	10569.57
468.97	10450.78
469.17	10684.25
469.38	10596.19
469.59	10827.61
469.80	10520.42
470.01	10706.78
470.21	10805.08
470.42	10919.77
470.63	11138.90
470.84	11003.74
471.04	11190.10
471.25	11341.65
471.46	11073.37
471.67	11540.30
471.87	11411.28
472.08	11595.60
472.29	11919.18
472.50	11333.46
472.70	11485.01
472.91	11519.82
473.12	11892.55
473.33	11923.27
473.53	11839.31
473.74	11999.05
473.95	12097.35
474.16	12394.31
474.36	12105.54
474.57	12422.98
474.78	12672.83
474.99	12562.24
475.19	12683.07
475.40	12670.78
475.61	12805.95
475.81	13000.51
476.02	12957.50
476.23	12818.24
476.44	13004.60
476.64	13213.49
476.85	13430.58
477.06	13260.60
477.27	13674.29
477.47	13594.42
477.68	13561.65
477.89	13754.16
478.09	13799.21
478.30	13721.39
478.51	13815.60
478.71	14159.66
478.92	14202.66
479.13	14288.68
479.34	14487.33
479.54	14036.78
479.75	14343.97
479.96	14481.19
480.16	14677.79
480.37	14552.87
480.58	14976.80
480.78	15146.78
480.99	15109.91
481.20	15152.92
481.41	15003.42
481.61	15200.02
481.82	15146.78
482.03	15449.88
482.23	15406.87
482.44	15802.13
482.65	15968.01
482.85	15791.89
483.06	15838.99
483.27	16109.32
483.47	16043.79
483.68	16158.47
483.89	16215.82
484.09	16189.19
484.30	16176.91
484.51	16543.49
484.71	16606.98
484.92	16457.48
485.13	16848.64
485.33	16699.14
485.54	16838.40
485.75	16944.89
485.95	17194.75
486.16	17430.26
486.37	17458.93
486.57	17264.38
486.78	17250.04
486.98	17686.26
487.19	17487.61
487.40	17829.62
487.60	17684.21
487.81	18130.67
488.02	18058.99
488.22	17979.12
488.43	18173.67
488.64	18159.34
488.84	18470.63
489.05	18730.72
489.25	18355.94
489.46	18575.08
489.67	18679.52
489.87	19095.26
490.08	18966.24
490.29	18912.99
490.49	19283.67
490.70	19222.23
490.90	19226.33
491.11	19285.72
491.32	19392.22
491.52	19861.20
491.73	19592.92
491.94	19558.10
492.14	19744.47
492.35	20262.60
492.55	19846.87
492.76	20115.15
492.97	20334.28
493.17	20131.53
493.38	20377.29
493.58	20584.13
493.79	20287.18
494.00	20631.24
494.20	20827.84
494.41	20584.13
494.61	20739.78
494.82	20989.63
495.02	20907.71
495.23	20797.12
495.44	21280.44
495.64	21565.11
495.85	21571.25
496.05	21460.66
496.26	21395.13
496.47	21657.27
496.67	21802.68
496.88	21876.40
497.08	21509.82
497.29	21821.11
497.49	22015.66
497.70	22341.29
497.91	22150.83
498.11	22372.01
498.32	22599.34
498.52	22417.07
498.73	22974.11
498.93	22480.55
499.14	22763.17
499.34	22791.84
499.55	23291.55
499.76	22505.13
499.96	23166.62
500.17	23035.55
500.37	23068.32
500.58	23170.72
500.78	23207.58
500.99	23373.47
501.19	23975.57
501.40	23535.26
501.60	23811.73
501.81	23590.55
502.02	23809.68
502.22	23647.90
502.43	23887.51
502.63	24258.19
502.84	24155.79
503.04	24102.54
503.25	24317.58
503.45	24133.26
503.66	24395.40
503.86	24376.97
504.07	24843.91
504.27	24293.01
504.48	24692.36
504.68	24827.53
504.89	25224.83
505.09	24802.95
505.30	25327.23
505.50	25288.32
505.71	24977.03
505.91	25304.70
506.12	25046.66
506.32	25263.74
506.53	25179.78
506.73	25495.16
506.94	25581.18
507.14	25699.96
507.35	25306.75
507.55	26097.27
507.76	26060.40
507.96	25788.02
508.17	26011.25
508.37	26054.26
508.58	25845.37
508.78	25857.65
508.99	26050.16
509.19	26111.60
509.40	26607.21
509.60	26308.21
509.81	26433.13
510.01	26398.32
510.22	26484.33
510.42	26715.75
510.63	26738.28
510.83	27074.15
511.04	26678.89
511.24	26900.07
511.44	26906.21
511.65	26838.63
511.85	27082.34
512.06	26938.98
512.26	27068.00
512.47	27129.44
512.67	27274.85
512.88	27137.63
513.08	27151.97
513.29	27438.69
513.49	27436.64
513.69	27358.81
513.90	27493.98
514.10	27553.37
514.31	27438.69
514.51	27967.06
514.72	27717.21
514.92	27932.25
515.13	27786.84
515.33	27887.19
515.53	27926.10
515.74	28214.87
515.94	28370.51
516.15	28216.91
516.35	28057.17
516.56	28423.76
516.76	28323.41
516.96	28173.91
517.17	28651.08
517.37	28438.09
517.58	28769.86
517.78	28651.08
517.99	28685.90
518.19	28945.99
518.39	29066.82
518.60	29187.65
518.80	29247.04
519.01	28972.61
519.21	29238.85
519.41	29212.23
519.62	29087.30
519.82	29482.56
520.03	29400.64
520.23	29496.89
520.43	29406.78
520.64	29687.36
520.84	29978.17
521.05	29666.88
521.25	29849.14
521.45	29955.64
521.66	29974.07
521.86	29832.76
522.07	30244.40
522.27	30058.04
522.47	30047.80
522.68	30371.38
522.88	30172.72
523.08	30498.35
523.29	30703.15
523.49	30565.93
523.70	30707.24
523.90	31086.12
524.10	30848.55
524.31	30625.32
524.51	30463.54
524.71	31266.34
524.92	31186.47
525.12	31333.92
525.33	31413.79
525.53	31319.59
525.73	31665.69
525.94	31598.11
526.14	31731.23
526.34	31807.00
526.55	31712.80
526.75	31604.25
526.95	32151.06
527.16	31897.11
527.36	32093.72
527.56	32241.17
527.77	32198.16
527.97	32060.95
528.17	32163.35
528.38	32263.70
528.58	32359.95
528.78	32634.38
528.99	32622.09
529.19	32654.86
529.39	32607.76
529.60	33099.27
529.80	32880.14
530.00	32837.13
530.21	33306.12
530.41	33609.22
530.61	33193.48
530.82	33242.63
531.02	33226.24
531.22	33758.72
531.43	33447.43
531.63	33629.69
531.83	33994.23
532.04	34018.81
532.24	33723.90
532.44	34000.38
532.64	33928.70
532.85	34459.12
533.05	34616.82
533.25	34553.33
533.46	34461.17
533.66	34866.67
533.86	34336.24
534.07	34977.26
534.27	34967.02
534.47	35466.72
534.67	34852.33
534.88	35157.48
535.08	35012.07
535.28	35573.22
535.49	35280.36
535.69	35857.88
535.89	35702.24
536.09	35565.03
536.30	35980.76
536.50	35982.81
536.70	35859.93
536.91	36259.29
537.11	35866.08
537.31	36300.25
537.51	36122.07
537.72	36304.34
537.92	36546.00
538.12	36888.01
538.32	36500.95
538.53	36769.23
538.73	36799.95
538.93	36273.62
539.13	36853.20
539.34	36978.12
539.54	36675.02
539.74	37060.04
539.94	36943.31
540.15	36982.22
540.35	37150.15
540.55	37236.17
540.75	37555.65
540.96	37258.70
541.16	37289.42
541.36	37410.25
541.56	37639.62
541.77	37850.56
541.97	37768.64
542.17	37977.53
542.37	37762.50
542.58	37938.62
542.78	38161.85
542.98	37981.63
543.18	38159.80
543.38	38159.80
543.59	38510.00
543.79	38172.09
543.99	38014.40
544.19	38350.26
544.40	38532.53
544.60	38964.65
544.80	38669.75
545.00	38753.71
545.20	38841.78
545.41	38417.85
545.61	38745.52
545.81	39099.82
546.01	38872.49
546.21	38778.29
546.42	38804.91
546.62	39261.61
546.82	39079.34
547.02	39163.31
547.22	39234.99
547.43	39030.19
547.63	39335.34
547.83	39304.62
548.03	39136.68
548.23	39347.62
548.44	39460.26
548.64	39503.27
548.84	39652.77
549.04	39523.75
549.24	39685.54
549.45	40125.85
549.65	39687.59
549.85	39931.29
550.05	40517.01
550.25	40236.44
550.45	40703.38
550.66	40799.63
550.86	39826.85
551.06	40263.07
551.26	40064.41
551.46	40607.12
551.66	40301.98
551.87	40232.35
552.07	40304.02
552.27	40482.20
552.47	40490.39
552.67	40539.54
552.87	40539.54
553.07	40840.59
553.28	40867.22
553.48	40836.50
553.68	40629.65
553.88	40965.52
554.08	41168.27
554.28	40873.36
554.48	41145.74
554.69	40873.36
554.89	41155.98
555.09	41129.36
555.29	40854.93
555.49	41321.87
555.69	41354.63
555.89	41246.09
556.10	41442.70
556.30	41045.39
556.50	41497.99
556.70	41262.47
556.90	41178.51
557.10	41782.66
557.30	41282.95
557.50	41479.56
557.70	41561.48
557.91	41604.49
558.11	41850.24
558.31	41475.46
558.51	41862.53
558.71	41792.90
558.91	41612.68
559.11	41872.77
559.31	41760.13
559.51	41641.35
559.72	41905.54
559.92	41895.30
560.12	42065.28
560.32	42014.08
560.52	41962.88
560.72	42268.03
560.92	42308.99
561.12	42349.95
561.32	42730.87
561.52	42112.38
561.72	42517.88
561.93	42333.56
562.13	42106.24
562.33	42173.82
562.53	42710.39
562.73	42126.72
562.93	42048.89
563.13	42730.87
563.33	42231.16
563.53	42818.93
563.73	42141.05
563.93	42331.51
564.13	42698.10
564.33	42704.24
564.53	43222.38
564.74	42972.53
564.94	42616.18
565.14	42950.00
565.34	42438.01
565.54	43308.40
565.74	42886.51
565.94	43447.66
566.14	42906.99
566.34	43064.69
566.54	43396.46
566.74	42866.03
566.94	43414.89
567.14	43466.09
567.34	42894.71
567.54	43525.48
567.74	43117.93
567.94	42988.91
568.14	43627.88
568.34	43511.14
568.54	43660.65
568.74	43986.27
568.94	43490.66
569.14	43763.04
569.34	43908.45
569.54	43939.17
569.75	43619.69
569.95	43857.25
570.15	44266.84
570.35	43717.99
570.55	43949.41
570.75	43785.57
570.95	43799.91
571.15	44152.16
571.35	44496.22
571.55	44393.82
571.75	44336.48
571.95	44205.41
572.15	44191.07
572.35	44477.79
572.55	44328.28
572.75	44297.56
572.95	44225.89
573.15	44440.92
573.35	44291.42
573.55	44653.91
573.75	44531.03
573.95	44653.91
574.15	44447.07
574.35	44770.64
574.55	44809.56
574.75	44385.63
574.95	45063.50
575.15	44873.04
575.34	44895.57
575.54	45178.19
575.74	45497.67
575.94	45096.27
576.14	45337.93
576.34	45339.98
576.54	45458.76
576.74	45385.04
576.94	45315.40
577.14	45598.02
577.34	46097.73
577.54	45417.80
577.74	45827.40
577.94	45323.60
578.14	45999.43
578.34	46005.57
578.54	45581.64
578.74	45804.87
578.94	46175.55
579.14	45847.88
579.34	46222.65
579.54	46347.58
579.74	46619.96
579.94	46622.01
580.13	46525.75
580.33	46146.88
580.53	46079.30
580.73	46413.12
580.93	46720.31
581.13	46773.56
581.33	46863.67
581.53	46867.76
581.73	46646.58
581.93	47220.02
582.13	47052.08
582.33	47078.71
582.53	46785.85
582.73	47373.61
582.92	46828.85
583.12	47645.99
583.32	47099.19
583.52	47260.97
583.72	47674.66
583.92	47045.94
584.12	47594.79
584.32	47932.71
584.52	47451.44
584.72	47678.76
584.92	47961.38
585.11	48297.25
585.31	48127.27
585.51	48026.92
585.71	47988.00
585.91	48735.51
586.11	48035.11
586.31	47895.85
586.51	48295.20
586.71	48325.92
586.91	48549.15
587.10	48588.06
587.30	48592.15
587.50	48885.01
587.70	48639.26
587.90	48600.35
588.10	49204.50
588.30	48968.98
588.50	49274.13
