SpectraSuite Data File
++++++++++++++++++++++++++++++++++++
Date: Fri Jun 02 14:57:22 CEST 2017
User: INFO_000
Dark Spectrum Present: No
Reference Spectrum Present: No
Number of Sampled Component Spectra: 1
Spectrometers: USB4H00879
Integration Time (usec): 80000 (USB4H00879)
Spectra Averaged: 1 (USB4H00879)
Boxcar Smoothing: 0 (USB4H00879)
Correct for Electrical Dark: No (USB4H00879)
Strobe/Lamp Enabled: No (USB4H00879)
Correct for Detector Non-linearity: No (USB4H00879)
Correct for Stray Light: No (USB4H00879)
Number of Pixels in Processed Spectrum: 3648
>>>>>Begin Processed Spectral Data<<<<<
345.13	1351.66
345.34	1351.66
345.56	1351.66
345.78	1257.45
345.99	1318.89
346.21	1748.97
346.42	1679.33
346.64	1630.18
346.86	1785.83
347.07	1671.14
347.29	1742.82
347.50	1615.85
347.72	1671.14
347.94	1781.73
348.15	1613.80
348.37	1626.09
348.59	1744.87
348.80	1628.14
349.02	1744.87
349.23	1871.84
349.45	1896.42
349.67	1896.42
349.88	1796.07
350.10	1998.82
350.31	1830.88
350.53	1763.30
350.75	1974.24
350.96	1841.12
351.18	1843.17
351.39	1824.74
351.61	1763.30
351.82	1869.80
352.04	1970.15
352.26	1757.16
352.47	1918.95
352.69	1892.32
352.90	1810.40
353.12	1837.03
353.34	1781.73
353.55	1863.65
353.77	1941.47
353.98	1896.42
354.20	1847.27
354.41	1943.52
354.63	1886.18
354.85	1949.67
355.06	1937.38
355.28	1759.21
355.49	1906.66
355.71	1931.23
355.92	1875.94
356.14	1890.28
356.35	1886.18
356.57	1861.60
356.79	1933.28
357.00	1824.74
357.22	2052.06
357.43	1863.65
357.65	2013.15
357.86	1839.08
358.08	1920.99
358.29	1941.47
358.51	1968.10
358.72	1990.63
358.94	1847.27
359.16	1970.15
359.37	1947.62
359.59	1920.99
359.80	2052.06
360.02	2000.87
360.23	1935.33
360.45	2037.73
360.66	1949.67
360.88	1859.56
361.09	1906.66
361.31	1945.57
361.52	1935.33
361.74	2072.54
361.95	1970.15
362.17	1959.91
362.38	2088.93
362.60	1966.05
362.81	1980.39
363.03	1978.34
363.24	2041.82
363.46	2035.68
363.67	2021.35
363.89	2031.58
364.10	1951.71
364.32	2004.96
364.53	2011.11
364.75	1888.23
364.96	1996.77
365.18	2027.49
365.39	2064.35
365.61	1941.47
365.82	2109.41
366.04	2023.39
366.25	1937.38
366.47	2052.06
366.68	2068.45
366.90	2011.11
367.11	2052.06
367.33	2109.41
367.54	2123.74
367.76	1976.29
367.97	2107.36
368.19	2009.06
368.40	1998.82
368.62	1966.05
368.83	1900.52
369.05	2052.06
369.26	1961.95
369.48	2033.63
369.69	1943.52
369.91	2043.87
370.12	1957.86
370.33	2129.89
370.55	1982.43
370.76	2072.54
370.98	2166.75
371.19	2058.21
371.41	1996.77
371.62	2000.87
371.84	2015.20
372.05	2197.47
372.27	2000.87
372.48	2033.63
372.69	2101.22
372.91	2213.85
373.12	2215.90
373.34	2117.60
373.55	2187.23
373.77	2125.79
373.98	2072.54
374.20	2166.75
374.41	2242.53
374.62	2088.93
374.84	2220.00
375.05	2158.56
375.27	2162.66
375.48	2125.79
375.70	2129.89
375.91	2168.80
376.12	2281.44
376.34	2191.33
376.55	2220.00
376.77	2197.47
376.98	2121.70
377.19	2164.70
377.41	2133.98
377.62	2174.94
377.84	2131.94
378.05	2246.62
378.27	2209.76
378.48	2328.54
378.69	2398.17
378.91	2260.96
379.12	2236.38
379.34	2242.53
379.55	2273.25
379.76	2232.29
379.98	2191.33
380.19	2236.38
380.41	2217.95
380.62	2379.74
380.83	2234.33
381.05	2230.24
381.26	2418.65
381.47	2197.47
381.69	2250.72
381.90	2389.98
382.12	2277.34
382.33	2232.29
382.54	2232.29
382.76	2297.82
382.97	2346.97
383.19	2263.01
383.40	2338.78
383.61	2267.10
383.83	2269.15
384.04	2222.05
384.25	2289.63
384.47	2338.78
384.68	2351.07
384.89	2287.58
385.11	2291.68
385.32	2377.69
385.54	2355.16
385.75	2404.32
385.96	2342.88
386.18	2467.80
386.39	2320.35
386.60	2414.56
386.82	2437.08
387.03	2400.22
387.24	2408.41
387.46	2455.51
387.67	2402.27
387.88	2510.81
388.10	2449.37
388.31	2435.03
388.52	2564.06
388.74	2590.68
388.95	2580.44
389.16	2494.43
389.38	2465.75
389.59	2547.67
389.80	2574.30
390.02	2533.34
390.23	2693.08
390.44	2533.34
390.66	2488.28
390.87	2516.95
391.08	2525.15
391.30	2775.00
391.51	2686.94
391.72	2760.66
391.94	2602.97
392.15	2576.34
392.36	2578.39
392.58	2527.19
392.79	2609.11
393.00	2721.75
393.22	2748.37
393.43	2818.00
393.64	2834.39
393.85	2723.80
394.07	2715.61
394.28	2686.94
394.49	2756.57
394.71	2838.48
394.92	2826.20
395.13	2693.08
395.35	2750.42
395.56	2787.29
395.77	2797.53
395.98	2815.96
396.20	2908.12
396.41	2854.87
396.62	2938.84
396.84	2848.72
397.05	2793.43
397.26	2914.26
397.47	3010.51
397.69	2838.48
397.90	3026.90
398.11	2881.49
398.32	2830.29
398.54	2947.03
398.75	3024.85
398.96	2901.97
399.18	3147.73
399.39	2955.22
399.60	3049.43
399.81	2936.79
400.03	2990.03
400.24	3260.37
400.45	2906.07
400.66	3125.20
400.88	2975.70
401.09	3282.89
401.30	3033.04
401.51	3219.41
401.73	3135.44
401.94	3084.24
402.15	3190.74
402.36	3174.35
402.58	3203.02
402.79	3282.89
403.00	3198.93
403.21	3248.08
403.43	3209.17
403.64	3207.12
403.85	3155.92
404.06	3330.00
404.27	3139.54
404.49	3321.81
404.70	3094.48
404.91	3330.00
405.12	3375.05
405.34	3241.93
405.55	3381.20
405.76	3196.88
405.97	3205.07
406.19	3399.63
406.40	3248.08
406.61	3444.68
406.82	3387.34
407.03	3360.72
407.25	3303.37
407.46	3522.51
407.67	3444.68
407.88	3444.68
408.09	3381.20
408.31	3338.19
408.52	3420.11
408.73	3432.40
408.94	3405.77
409.15	3463.12
409.37	3624.90
409.58	3393.48
409.79	3495.88
410.00	3538.89
410.21	3395.53
410.43	3528.65
410.64	3538.89
410.85	3551.18
411.06	3583.95
411.27	3524.55
411.48	3735.50
411.70	3680.20
411.91	3452.88
412.12	3641.29
412.33	3542.99
412.54	3598.28
412.76	3745.73
412.97	3616.71
413.18	3602.38
413.39	3588.04
413.60	3692.49
413.81	3633.10
414.03	3561.42
414.24	3624.90
414.45	3827.65
414.66	3559.37
414.87	3809.22
415.08	3807.17
415.30	3649.48
415.51	3825.61
415.72	3655.62
415.93	3751.88
416.14	3819.46
416.35	3801.03
416.56	3829.70
416.78	3870.66
416.99	3835.85
417.20	3784.65
417.41	3911.62
417.62	3973.06
417.83	3960.77
418.04	3895.24
418.26	3971.01
418.47	3872.71
418.68	3936.20
418.89	3805.13
419.10	4132.80
419.31	3950.53
419.52	3938.24
419.73	4052.93
419.95	4036.55
420.16	3975.11
420.37	4067.27
420.58	4102.08
420.79	3934.15
421.00	3993.54
421.21	4038.59
421.42	3985.35
421.63	4202.43
421.85	4179.90
422.06	4169.66
422.27	4128.70
422.48	4091.84
422.69	4188.10
422.90	4153.28
423.11	4210.62
423.32	4331.45
423.53	4407.23
423.75	4247.49
423.96	4476.86
424.17	4427.71
424.38	4452.28
424.59	4405.18
424.80	4569.02
425.01	4358.08
425.22	4466.62
425.43	4464.57
425.64	4497.34
425.85	4616.12
426.06	4491.20
426.28	4349.89
426.49	4573.11
426.70	4503.48
426.91	4515.77
427.12	4616.12
427.33	4673.46
427.54	4493.24
427.75	4616.12
427.96	4732.86
428.17	4726.71
428.38	4837.30
428.59	4788.15
428.80	4665.27
429.01	4724.66
429.23	4788.15
429.44	5038.00
429.65	4882.36
429.86	5035.96
430.07	4882.36
430.28	4745.14
430.49	4970.42
430.70	5031.86
430.91	4992.95
431.12	4947.89
431.33	5136.31
431.54	5085.11
431.75	5003.19
431.96	5076.91
432.17	5046.20
432.38	5050.29
432.59	5332.91
432.80	5150.64
433.01	5222.32
433.22	5318.57
433.43	5148.59
433.64	5312.43
433.85	5283.76
434.06	5377.97
434.27	5091.25
434.49	5377.97
434.70	5392.30
434.91	5414.83
435.12	5480.36
435.33	5539.76
435.54	5519.28
435.75	5316.53
435.96	5468.08
436.17	5242.80
436.38	5601.19
436.59	5693.35
436.80	5398.45
437.01	5736.36
437.22	5676.97
437.43	5586.86
437.64	5388.21
437.85	5664.68
438.06	5900.20
438.27	5670.83
438.48	5615.53
438.69	5709.74
438.90	5713.83
439.11	5566.38
439.32	5924.77
439.53	5627.82
439.74	5873.57
439.95	5937.06
440.16	5902.25
440.37	5865.38
440.57	5722.02
440.78	5816.23
440.99	5904.29
441.20	5959.59
441.41	5879.72
441.62	5892.01
441.83	5812.14
442.04	6029.22
442.25	5959.59
442.46	5967.78
442.67	6100.90
442.88	6350.75
443.09	6119.33
443.30	6162.34
443.51	6182.82
443.72	6422.43
443.93	6025.12
444.14	6457.25
444.35	6129.57
444.56	6285.22
444.77	6373.28
444.98	6291.36
445.19	6479.77
445.40	6240.16
445.61	6395.81
445.81	6399.90
446.02	6465.44
446.23	6537.12
446.44	6264.74
446.65	6494.11
446.86	6567.84
447.07	6565.79
447.28	6791.06
447.49	6784.92
447.70	6614.94
447.91	6834.07
448.12	6696.86
448.33	6688.67
448.54	6760.34
448.74	6778.78
448.95	6686.62
449.16	6711.19
449.37	7096.21
449.58	6870.94
449.79	7085.97
450.00	6737.82
450.21	7126.93
450.42	7034.77
450.63	7067.54
450.84	7100.31
451.05	7200.66
451.25	7145.36
451.46	6854.55
451.67	7344.02
451.88	7409.55
452.09	7106.45
452.30	7024.53
452.51	7190.42
452.72	7319.44
452.93	7499.66
453.13	7393.17
453.34	7245.71
453.55	7327.63
453.76	7253.91
453.97	7665.55
454.18	7491.47
454.39	7458.70
454.60	7679.88
454.81	7569.29
455.01	7804.81
455.22	7274.38
455.43	7554.96
455.64	7843.72
455.85	8136.58
456.06	7907.21
456.27	7769.99
456.48	7858.06
456.68	7890.82
456.89	8155.01
457.10	8103.81
457.31	8165.25
457.52	7882.63
457.73	8249.22
457.94	8320.90
458.14	8009.61
458.35	8478.59
458.56	8427.39
458.77	8202.11
458.98	8378.24
459.19	8341.38
459.39	8447.87
459.60	8527.74
459.81	8464.25
460.02	8728.44
460.23	8595.32
460.44	8710.01
460.65	8718.20
460.85	8783.74
461.06	8955.77
461.27	8714.11
461.48	9070.45
461.69	9162.61
461.89	8753.02
462.10	8863.61
462.31	8773.50
462.52	8845.18
462.73	9150.32
462.94	9197.43
463.14	9054.07
463.35	9181.04
463.56	9946.98
463.77	9410.42
463.98	9187.19
464.18	9342.83
464.39	9547.63
464.60	9607.02
464.81	9690.99
465.02	9521.01
465.23	9936.74
465.43	9695.08
465.64	10119.01
465.85	9838.44
466.06	9744.24
466.27	10334.05
466.47	10026.86
466.68	10135.40
466.89	10092.39
467.10	10264.42
467.30	10028.90
467.51	10379.11
467.72	10710.88
467.93	10295.14
468.14	10368.87
468.34	10696.54
468.55	10661.73
468.76	10553.18
468.97	10510.18
469.17	10848.09
469.38	10864.47
469.59	11061.08
469.80	10878.81
470.01	10960.73
470.21	10805.08
470.42	11259.73
470.63	11112.28
470.84	11224.92
471.04	11415.38
471.25	11208.53
471.46	11306.84
471.67	11597.65
471.87	11585.36
472.08	11757.39
472.29	11853.64
472.50	11532.11
472.70	11628.37
472.91	11614.03
473.12	12046.15
473.33	11947.85
473.53	12281.67
473.74	11929.42
473.95	12128.07
474.16	12228.42
474.36	12259.14
474.57	12521.28
474.78	12531.52
474.99	12447.55
475.19	12592.96
475.40	12648.26
475.61	12840.76
475.81	13127.48
476.02	13152.06
476.23	13047.61
476.44	13098.81
476.64	13649.71
476.85	13383.48
477.06	13473.59
477.27	13715.25
477.47	13866.80
477.68	13610.80
477.89	14106.41
478.09	13819.69
478.30	14061.35
478.51	13973.29
478.71	14159.66
478.92	14120.74
479.13	14200.62
479.34	14389.03
479.54	14491.43
479.75	14595.87
479.96	14509.86
480.16	14518.05
480.37	14542.63
480.58	14786.33
480.78	15124.25
480.99	15118.11
481.20	15193.88
481.41	15157.02
481.61	15308.57
481.82	15195.93
482.03	15425.30
482.23	15394.58
482.44	15535.89
482.65	15712.02
482.85	15738.64
483.06	15957.77
483.27	15806.22
483.47	15986.44
483.68	15976.20
483.89	16129.80
484.09	16117.51
484.30	16299.78
484.51	16445.19
484.71	16484.10
484.92	16332.55
485.13	16766.72
485.33	16551.68
485.54	16590.59
485.75	17069.82
485.95	16938.75
486.16	17247.99
486.37	17327.86
486.57	17204.99
486.78	17133.31
486.98	17393.40
487.19	17495.80
487.40	17608.44
487.60	17424.12
487.81	17622.77
488.02	17618.68
488.22	17891.06
488.43	17880.82
488.64	18243.31
488.84	18093.80
489.05	18411.24
489.25	18069.23
489.46	18538.21
489.67	18685.67
489.87	18685.67
490.08	18523.88
490.29	18960.09
490.49	19185.37
490.70	19037.92
490.90	19388.12
491.11	19003.10
491.32	19394.26
491.52	19326.68
491.73	19345.11
491.94	19515.09
492.14	19246.81
492.35	19678.93
492.55	19812.05
492.76	19992.27
492.97	19543.77
493.17	19793.62
493.38	19986.13
493.58	20260.55
493.79	19963.60
494.00	20532.93
494.20	20285.13
494.41	20471.50
494.61	20399.82
494.82	20752.07
495.02	20731.59
495.23	20813.51
495.44	20913.86
495.64	21020.35
495.85	20983.49
496.05	21360.31
496.26	21190.33
496.47	21339.83
496.67	21204.67
496.88	21464.76
497.08	21038.78
497.29	21872.31
497.49	21368.51
497.70	21814.96
497.91	21827.25
498.11	21917.36
498.32	21839.54
498.52	22048.43
498.73	22398.63
498.93	22242.99
499.14	22234.80
499.34	22234.80
499.55	22711.97
499.76	22281.90
499.96	22630.05
500.17	22654.63
500.37	22568.62
500.58	22650.53
500.78	22705.83
500.99	23140.00
501.19	23158.43
501.40	23328.41
501.60	23096.99
501.81	23430.81
502.02	23238.30
502.22	23123.62
502.43	23473.82
502.63	23416.47
502.84	23844.50
503.04	23580.31
503.25	23846.55
503.45	23965.33
503.66	23879.32
503.86	23848.60
504.07	24098.45
504.27	24096.40
504.48	24469.13
504.68	24174.22
504.89	24452.75
505.09	24448.65
505.30	24522.38
505.50	24409.74
505.71	24694.41
505.91	24899.20
506.12	24755.85
506.32	24802.95
506.53	24764.04
506.73	25235.07
506.94	25048.71
507.14	25218.69
507.35	25020.03
507.55	25392.76
507.76	25376.38
507.96	25368.19
508.17	25642.62
508.37	25501.31
508.58	25380.48
508.78	25462.40
508.99	25669.24
509.19	25902.71
509.40	25689.72
509.60	25912.95
509.81	25837.17
510.01	25790.07
510.22	25998.96
510.42	26084.98
510.63	26496.62
510.83	26226.29
511.04	26357.36
511.24	26259.06
511.44	26426.99
511.65	26566.25
511.85	26842.73
512.06	26666.60
512.26	26799.72
512.47	26771.05
512.67	26883.69
512.88	26795.62
513.08	26992.23
513.29	27037.28
513.49	26875.49
513.69	27014.76
513.90	27149.92
514.10	27559.52
514.31	27412.06
514.51	27149.92
514.72	27235.94
514.92	27547.23
515.13	27631.19
515.33	27803.22
515.53	27557.47
515.74	28016.21
515.94	27852.38
516.15	27913.81
516.35	27557.47
516.56	27831.90
516.76	27936.34
516.96	28270.16
517.17	28268.11
517.37	28073.56
517.58	28677.71
517.78	28409.42
517.99	28292.69
518.19	28489.29
518.39	28417.61
518.60	28771.91
518.80	28927.56
519.01	28968.52
519.21	28991.05
519.41	29036.10
519.62	28833.35
519.82	29324.86
520.03	28960.33
520.23	29556.28
520.43	29277.76
520.64	29556.28
520.84	29902.39
521.05	29806.14
521.25	30068.28
521.45	29894.20
521.66	30193.20
521.86	29630.01
522.07	29748.79
522.27	29953.59
522.47	30416.43
522.68	30443.06
522.88	30332.47
523.08	30647.85
523.29	30615.08
523.49	30531.12
523.70	30615.08
523.90	30821.93
524.10	30721.58
524.31	30768.68
524.51	30803.50
524.71	31338.02
524.92	31032.87
525.12	31274.53
525.33	31276.58
525.53	31374.88
525.73	31880.73
525.94	31794.71
526.14	31675.93
526.34	31718.94
526.55	31950.36
526.75	32040.47
526.95	32114.20
527.16	32261.65
527.36	32101.91
527.56	32329.23
527.77	32726.54
527.97	32349.71
528.17	32464.40
528.38	32626.19
528.58	32562.70
528.78	32931.34
528.99	32962.06
529.19	33011.21
529.39	32790.03
529.60	33678.85
529.80	33160.71
530.00	33105.41
530.21	33531.39
530.41	33641.98
530.61	33441.28
530.82	33379.84
531.02	33926.65
531.22	33738.24
531.43	33904.12
531.63	34027.00
531.83	34573.81
532.04	34606.58
532.24	34006.52
532.44	34620.91
532.64	34395.64
532.85	34747.89
533.05	34758.13
533.25	34653.68
533.46	34706.93
533.66	35128.81
533.86	35294.69
534.07	35616.22
534.27	35530.21
534.47	35331.56
534.67	35374.56
534.88	35347.94
535.08	35948.00
535.28	35913.18
535.49	35784.16
535.69	36275.67
535.89	36296.15
536.09	36322.77
536.30	36736.46
536.50	36355.54
536.70	36503.00
536.91	36261.33
537.11	36496.85
537.31	36595.15
537.51	36683.22
537.72	37217.74
537.92	37189.06
538.12	37443.01
538.32	37496.26
538.53	37543.36
538.73	36990.41
538.93	37344.71
539.13	37367.24
539.34	37293.51
539.54	37510.60
539.74	38014.40
539.94	37389.77
540.15	37449.16
540.35	37809.60
540.55	38114.75
540.75	37492.16
540.96	38008.25
541.16	38190.52
541.36	38231.48
541.56	38245.82
541.77	38720.95
541.97	38518.20
542.17	38518.20
542.37	38344.12
542.58	38630.83
542.78	38571.44
542.98	38688.18
543.18	38913.45
543.38	39044.52
543.59	39108.01
543.79	38919.60
543.99	38974.89
544.19	39263.66
544.40	39314.86
544.60	39380.39
544.80	39261.61
545.00	39701.92
545.20	39286.18
545.41	39425.45
545.61	39165.35
545.81	39622.05
546.01	39898.53
546.21	39699.87
546.42	39665.06
546.62	40146.33
546.82	39679.39
547.02	40101.28
547.22	40142.24
547.43	40287.64
547.63	39908.77
547.83	40295.83
548.03	39869.86
548.23	40068.51
548.44	40367.51
548.64	39976.35
548.84	40402.33
549.04	40396.18
549.24	40680.85
549.45	40957.33
549.65	40101.28
549.85	40381.85
550.05	40748.43
550.25	40347.03
550.45	40875.41
550.66	40793.49
550.86	40580.50
551.06	40732.05
551.26	40701.33
551.46	41235.85
551.66	41035.15
551.87	40816.02
552.07	41131.40
552.27	41067.92
552.47	41098.64
552.67	41215.37
552.87	40971.66
553.07	41276.81
553.28	41110.92
553.48	41121.16
553.68	41223.56
553.88	41891.20
554.08	41422.22
554.28	41555.33
554.48	41371.02
554.69	41569.67
554.89	41223.56
555.09	41620.87
555.29	41260.43
555.49	41270.67
555.69	41409.93
555.89	41489.80
556.10	41522.57
556.30	41258.38
556.50	41926.02
556.70	41747.84
556.90	41983.36
557.10	42032.51
557.30	41852.29
557.50	42257.79
557.70	41817.47
557.91	42734.96
558.11	42360.19
558.31	42444.15
558.51	41889.15
558.71	42337.66
558.91	42190.20
559.11	42139.00
559.31	42202.49
559.51	42456.44
559.72	42192.25
559.92	42456.44
560.12	42026.37
560.32	42571.13
560.52	42351.99
560.72	42376.57
560.92	42423.67
561.12	42407.29
561.32	42612.09
561.52	42636.66
561.72	43009.39
561.93	42847.60
562.13	42452.34
562.33	42466.68
562.53	42990.96
562.73	42442.10
562.93	42417.53
563.13	42558.84
563.33	42636.66
563.53	43023.73
563.73	42614.13
563.93	42440.06
564.13	43154.80
564.33	43097.45
564.53	42960.24
564.74	43070.83
564.94	42909.04
565.14	42898.80
565.34	42665.33
565.54	42958.19
565.74	43052.40
565.94	43154.80
566.14	42900.85
566.34	42843.51
566.54	43339.11
566.74	43054.45
566.94	43498.86
567.14	43429.23
567.34	43023.73
567.54	43461.99
567.74	43492.71
567.94	43234.67
568.14	43382.12
568.34	43582.82
568.54	43382.12
568.74	43355.50
568.94	43963.75
569.14	43599.21
569.34	43410.79
569.54	43650.41
569.75	43457.90
569.95	43609.45
570.15	44156.25
570.35	43756.90
570.55	43703.65
570.75	43236.72
570.95	43726.18
571.15	44277.08
571.35	44414.30
571.55	44127.58
571.75	44143.97
571.95	43894.11
572.15	43840.87
572.35	44070.24
572.55	43824.48
572.75	44422.49
572.95	43875.68
573.15	44449.11
573.35	43982.18
573.55	44373.34
573.75	43926.88
573.95	44725.59
574.15	44535.13
574.35	44684.63
574.55	44455.26
574.75	44500.31
574.95	44430.68
575.15	43910.50
575.34	44496.22
575.54	44819.80
575.74	44832.08
575.94	44938.58
576.14	44928.34
576.34	45114.70
576.54	45200.72
576.74	45020.50
576.94	44676.44
577.14	44946.77
577.34	45346.12
577.54	44889.43
577.74	44985.68
577.94	45012.31
578.14	45520.20
578.34	45378.89
578.54	44909.91
578.74	44948.82
578.94	45751.62
579.14	45339.98
579.34	45788.49
579.54	45708.61
579.74	45608.26
579.94	45509.96
580.13	45997.38
580.33	45483.34
580.53	45804.87
580.73	46062.91
580.93	46089.54
581.13	46175.55
581.33	46245.18
581.53	46327.10
581.73	46355.77
581.93	46245.18
582.13	46476.60
582.33	46216.51
582.53	46415.16
582.73	46183.74
582.92	46525.75
583.12	46529.85
583.32	46791.99
583.52	46701.88
583.72	46753.08
583.92	46787.89
584.12	46697.78
584.32	47244.59
584.52	46921.01
584.72	47045.94
584.92	47060.27
585.11	47306.03
585.31	46959.92
585.51	47367.47
585.71	47183.15
585.91	47299.89
586.11	47226.16
586.31	47068.47
586.51	47117.62
586.71	47494.44
586.91	47656.23
587.10	47566.12
587.30	47672.62
587.50	47592.75
587.70	47713.58
587.90	47863.08
588.10	48026.92
588.30	47781.16
588.50	47740.20
