SpectraSuite Data File
++++++++++++++++++++++++++++++++++++
Date: Fri Jun 02 14:57:16 CEST 2017
User: INFO_000
Dark Spectrum Present: No
Reference Spectrum Present: No
Number of Sampled Component Spectra: 1
Spectrometers: USB4H00879
Integration Time (usec): 80000 (USB4H00879)
Spectra Averaged: 1 (USB4H00879)
Boxcar Smoothing: 0 (USB4H00879)
Correct for Electrical Dark: No (USB4H00879)
Strobe/Lamp Enabled: No (USB4H00879)
Correct for Detector Non-linearity: No (USB4H00879)
Correct for Stray Light: No (USB4H00879)
Number of Pixels in Processed Spectrum: 3648
>>>>>Begin Processed Spectral Data<<<<<
345.13	1273.84
345.34	1273.84
345.56	1273.84
345.78	1253.36
345.99	1286.12
346.21	1699.81
346.42	1683.43
346.64	1535.98
346.86	1779.68
347.07	1654.76
347.29	1732.58
347.50	1611.75
347.72	1617.90
347.94	1779.68
348.15	1562.60
348.37	1667.05
348.59	1738.73
348.80	1705.96
349.02	1710.05
349.23	1789.92
349.45	1740.77
349.67	1699.81
349.88	1722.34
350.10	1834.98
350.31	1740.77
350.53	1681.38
350.75	1841.12
350.96	1656.81
351.18	1722.34
351.39	1675.24
351.61	1685.48
351.82	1798.12
352.04	1769.44
352.26	1722.34
352.47	1832.93
352.69	1732.58
352.90	1599.46
353.12	1697.77
353.34	1724.39
353.55	1753.06
353.77	1742.82
353.98	1683.43
354.20	1667.05
354.41	1779.68
354.63	1705.96
354.85	1814.50
355.06	1765.35
355.28	1640.42
355.49	1677.29
355.71	1679.33
355.92	1683.43
356.14	1757.16
356.35	1699.81
356.57	1722.34
356.79	1744.87
357.00	1701.86
357.22	1755.11
357.43	1654.76
357.65	1853.41
357.86	1675.24
358.08	1724.39
358.29	1740.77
358.51	1765.35
358.72	1693.67
358.94	1687.53
359.16	1705.96
359.37	1703.91
359.59	1708.01
359.80	1777.64
360.02	1683.43
360.23	1775.59
360.45	1757.16
360.66	1675.24
360.88	1560.55
361.09	1691.62
361.31	1814.50
361.52	1732.58
361.74	1748.97
361.95	1816.55
362.17	1665.00
362.38	1806.31
362.60	1789.92
362.81	1679.33
363.03	1693.67
363.24	1679.33
363.46	1804.26
363.67	1728.49
363.89	1781.73
364.10	1708.01
364.32	1697.77
364.53	1687.53
364.75	1605.61
364.96	1746.92
365.18	1640.42
365.39	1738.73
365.61	1650.66
365.82	1826.79
366.04	1646.57
366.25	1558.50
366.47	1691.62
366.68	1775.59
366.90	1589.22
367.11	1732.58
367.33	1843.17
367.54	1693.67
367.76	1667.05
367.97	1738.73
368.19	1701.86
368.40	1753.06
368.62	1585.13
368.83	1726.44
369.05	1705.96
369.26	1609.70
369.48	1658.85
369.69	1679.33
369.91	1730.53
370.12	1720.29
370.33	1779.68
370.55	1615.85
370.76	1691.62
370.98	1767.40
371.19	1701.86
371.41	1609.70
371.62	1691.62
371.84	1619.94
372.05	1755.11
372.27	1652.71
372.48	1650.66
372.69	1679.33
372.91	1777.64
373.12	1753.06
373.34	1660.90
373.55	1679.33
373.77	1789.92
373.98	1701.86
374.20	1751.01
374.41	1927.14
374.62	1712.10
374.84	1722.34
375.05	1710.05
375.27	1716.20
375.48	1695.72
375.70	1656.81
375.91	1734.63
376.12	1773.54
376.34	1650.66
376.55	1722.34
376.77	1769.44
376.98	1693.67
377.19	1656.81
377.41	1599.46
377.62	1646.57
377.84	1720.29
378.05	1761.25
378.27	1703.91
378.48	1816.55
378.69	1861.60
378.91	1748.97
379.12	1621.99
379.34	1722.34
379.55	1851.36
379.76	1785.83
379.98	1675.24
380.19	1691.62
380.41	1683.43
380.62	1767.40
380.83	1685.48
381.05	1617.90
381.26	1804.26
381.47	1705.96
381.69	1679.33
381.90	1720.29
382.12	1662.95
382.33	1730.53
382.54	1703.91
382.76	1753.06
382.97	1705.96
383.19	1548.26
383.40	1712.10
383.61	1636.33
383.83	1654.76
384.04	1675.24
384.25	1771.49
384.47	1734.63
384.68	1736.68
384.89	1568.74
385.11	1640.42
385.32	1685.48
385.54	1640.42
385.75	1669.09
385.96	1697.77
386.18	1636.33
386.39	1720.29
386.60	1658.85
386.82	1753.06
387.03	1726.44
387.24	1736.68
387.46	1703.91
387.67	1708.01
387.88	1734.63
388.10	1703.91
388.31	1673.19
388.52	1763.30
388.74	1658.85
388.95	1652.71
389.16	1718.25
389.38	1660.90
389.59	1761.25
389.80	1777.64
390.02	1689.57
390.23	1767.40
390.44	1712.10
390.66	1624.04
390.87	1642.47
391.08	1660.90
391.30	1789.92
391.51	1759.21
391.72	1687.53
391.94	1683.43
392.15	1732.58
392.36	1660.90
392.58	1673.19
392.79	1716.20
393.00	1787.88
393.22	1695.72
393.43	1757.16
393.64	1826.79
393.85	1753.06
394.07	1578.98
394.28	1683.43
394.49	1712.10
394.71	1708.01
394.92	1718.25
395.13	1597.42
395.35	1673.19
395.56	1726.44
395.77	1712.10
395.98	1695.72
396.20	1691.62
396.41	1699.81
396.62	1765.35
396.84	1665.00
397.05	1693.67
397.26	1744.87
397.47	1759.21
397.69	1642.47
397.90	1847.27
398.11	1699.81
398.32	1656.81
398.54	1648.61
398.75	1669.09
398.96	1703.91
399.18	1804.26
399.39	1765.35
399.60	1800.16
399.81	1671.14
400.03	1621.99
400.24	1941.47
400.45	1705.96
400.66	1716.20
400.88	1585.13
401.09	1818.60
401.30	1751.01
401.51	1787.88
401.73	1796.07
401.94	1798.12
402.15	1673.19
402.36	1800.16
402.58	1744.87
402.79	1746.92
403.00	1667.05
403.21	1755.11
403.43	1783.78
403.64	1789.92
403.85	1724.39
404.06	1740.77
404.27	1589.22
404.49	1683.43
404.70	1662.95
404.91	1830.88
405.12	1701.86
405.34	1703.91
405.55	1839.08
405.76	1615.85
405.97	1755.11
406.19	1808.36
406.40	1626.09
406.61	1765.35
406.82	1720.29
407.03	1628.14
407.25	1695.72
407.46	1873.89
407.67	1726.44
407.88	1761.25
408.09	1765.35
408.31	1728.49
408.52	1767.40
408.73	1695.72
408.94	1697.77
409.15	1716.20
409.37	1734.63
409.58	1767.40
409.79	1699.81
410.00	1853.41
410.21	1687.53
410.43	1652.71
410.64	1683.43
410.85	1777.64
411.06	1742.82
411.27	1736.68
411.48	1834.98
411.70	1724.39
411.91	1705.96
412.12	1763.30
412.33	1724.39
412.54	1640.42
412.76	1748.97
412.97	1763.30
413.18	1718.25
413.39	1783.78
413.60	1742.82
413.81	1722.34
414.03	1675.24
414.24	1638.38
414.45	1791.97
414.66	1654.76
414.87	1658.85
415.08	1703.91
415.30	1685.48
415.51	1753.06
415.72	1718.25
415.93	1609.70
416.14	1732.58
416.35	1683.43
416.56	1722.34
416.78	1710.05
416.99	1679.33
417.20	1761.25
417.41	1738.73
417.62	1679.33
417.83	1662.95
418.04	1732.58
418.26	1716.20
418.47	1712.10
418.68	1742.82
418.89	1802.21
419.10	1875.94
419.31	1732.58
419.52	1736.68
419.73	1683.43
419.95	1757.16
420.16	1753.06
420.37	1705.96
420.58	1755.11
420.79	1535.98
421.00	1640.42
421.21	1695.72
421.42	1677.29
421.63	1675.24
421.85	1669.09
422.06	1728.49
422.27	1755.11
422.48	1722.34
422.69	1705.96
422.90	1619.94
423.11	1675.24
423.32	1773.54
423.53	1855.46
423.75	1675.24
423.96	1728.49
424.17	1769.44
424.38	1802.21
424.59	1654.76
424.80	1628.14
425.01	1689.57
425.22	1634.28
425.43	1730.53
425.64	1837.03
425.85	1751.01
426.06	1843.17
426.28	1652.71
426.49	1650.66
426.70	1632.23
426.91	1665.00
427.12	1646.57
427.33	1718.25
427.54	1636.33
427.75	1660.90
427.96	1757.16
428.17	1828.84
428.38	1673.19
428.59	1755.11
428.80	1765.35
429.01	1607.66
429.23	1638.38
429.44	1683.43
429.65	1703.91
429.86	1665.00
430.07	1701.86
430.28	1654.76
430.49	1796.07
430.70	1722.34
430.91	1800.16
431.12	1576.94
431.33	1658.85
431.54	1812.45
431.75	1712.10
431.96	1658.85
432.17	1673.19
432.38	1755.11
432.59	1789.92
432.80	1779.68
433.01	1667.05
433.22	1662.95
433.43	1744.87
433.64	1773.54
433.85	1730.53
434.06	1759.21
434.27	1619.94
434.49	1632.23
434.70	1746.92
434.91	1675.24
435.12	1708.01
435.33	1728.49
435.54	1708.01
435.75	1599.46
435.96	1716.20
436.17	1685.48
436.38	1785.83
436.59	1773.54
436.80	1626.09
437.01	1806.31
437.22	1730.53
437.43	1767.40
437.64	1667.05
437.85	1724.39
438.06	1763.30
438.27	1689.57
438.48	1730.53
438.69	1781.73
438.90	1699.81
439.11	1744.87
439.32	1779.68
439.53	1662.95
439.74	1636.33
439.95	1673.19
440.16	1658.85
440.37	1634.28
440.57	1624.04
440.78	1699.81
440.99	1689.57
441.20	1830.88
441.41	1601.51
441.62	1585.13
441.83	1683.43
442.04	1656.81
442.25	1687.53
442.46	1621.99
442.67	1687.53
442.88	1884.13
443.09	1740.77
443.30	1605.61
443.51	1695.72
443.72	1619.94
443.93	1593.32
444.14	1875.94
444.35	1687.53
444.56	1724.39
444.77	1648.61
444.98	1744.87
445.19	1714.15
445.40	1718.25
445.61	1654.76
445.81	1644.52
446.02	1798.12
446.23	1642.47
446.44	1708.01
446.65	1656.81
446.86	1685.48
447.07	1855.46
447.28	1738.73
447.49	1720.29
447.70	1644.52
447.91	1714.15
448.12	1683.43
448.33	1720.29
448.54	1683.43
448.74	1740.77
448.95	1677.29
449.16	1732.58
449.37	1753.06
449.58	1761.25
449.79	1824.74
450.00	1605.61
450.21	1650.66
450.42	1628.14
450.63	1748.97
450.84	1605.61
451.05	1724.39
451.25	1695.72
451.46	1628.14
451.67	1783.78
451.88	1685.48
452.09	1626.09
452.30	1650.66
452.51	1677.29
452.72	1761.25
452.93	1755.11
453.13	1675.24
453.34	1611.75
453.55	1777.64
453.76	1673.19
453.97	1689.57
454.18	1599.46
454.39	1708.01
454.60	1646.57
454.81	1773.54
455.01	1697.77
455.22	1585.13
455.43	1658.85
455.64	1751.01
455.85	1775.59
456.06	1771.49
456.27	1785.83
456.48	1787.88
456.68	1732.58
456.89	1814.50
457.10	1699.81
457.31	1691.62
457.52	1753.06
457.73	1724.39
457.94	1732.58
458.14	1619.94
458.35	1708.01
458.56	1591.27
458.77	1716.20
458.98	1658.85
459.19	1658.85
459.39	1714.15
459.60	1636.33
459.81	1718.25
460.02	1621.99
460.23	1716.20
460.44	1650.66
460.65	1740.77
460.85	1675.24
461.06	1679.33
461.27	1695.72
461.48	1626.09
461.69	1632.23
461.89	1609.70
462.10	1691.62
462.31	1566.70
462.52	1570.79
462.73	1585.13
462.94	1726.44
463.14	1699.81
463.35	1644.52
463.56	1822.69
463.77	1699.81
463.98	1642.47
464.18	1683.43
464.39	1728.49
464.60	1757.16
464.81	1542.12
465.02	1773.54
465.23	1740.77
465.43	1708.01
465.64	1699.81
465.85	1656.81
466.06	1665.00
466.27	1738.73
466.47	1621.99
466.68	1720.29
466.89	1621.99
467.10	1572.84
467.30	1624.04
467.51	1785.83
467.72	1716.20
467.93	1630.18
468.14	1658.85
468.34	1748.97
468.55	1726.44
468.76	1777.64
468.97	1687.53
469.17	1777.64
469.38	1855.46
469.59	1697.77
469.80	1722.34
470.01	1732.58
470.21	1662.95
470.42	1673.19
470.63	1808.36
470.84	1812.45
471.04	1693.67
471.25	1775.59
471.46	1738.73
471.67	1826.79
471.87	1687.53
472.08	1675.24
472.29	1591.27
472.50	1757.16
472.70	1669.09
472.91	1609.70
473.12	1665.00
473.33	1763.30
473.53	1761.25
473.74	1677.29
473.95	1673.19
474.16	1671.14
474.36	1634.28
474.57	1775.59
474.78	1669.09
474.99	1775.59
475.19	1693.67
475.40	1712.10
475.61	1804.26
475.81	1699.81
476.02	1660.90
476.23	1757.16
476.44	1656.81
476.64	1648.61
476.85	1755.11
477.06	1667.05
477.27	1662.95
477.47	1675.24
477.68	1695.72
477.89	1714.15
478.09	1726.44
478.30	1615.85
478.51	1646.57
478.71	1613.80
478.92	1759.21
479.13	1703.91
479.34	1679.33
479.54	1665.00
479.75	1669.09
479.96	1716.20
480.16	1650.66
480.37	1720.29
480.58	1738.73
480.78	1800.16
480.99	1626.09
481.20	1681.38
481.41	1716.20
481.61	1785.83
481.82	1726.44
482.03	1611.75
482.23	1632.23
482.44	1769.44
482.65	1826.79
482.85	1736.68
483.06	1716.20
483.27	1667.05
483.47	1718.25
483.68	1710.05
483.89	1705.96
484.09	1746.92
484.30	1724.39
484.51	1779.68
484.71	1624.04
484.92	1615.85
485.13	1681.38
485.33	1654.76
485.54	1687.53
485.75	1675.24
485.95	1753.06
486.16	1662.95
486.37	1730.53
486.57	1648.61
486.78	1705.96
486.98	1718.25
487.19	1648.61
487.40	1779.68
487.60	1708.01
487.81	1724.39
488.02	1617.90
488.22	1744.87
488.43	1783.78
488.64	1689.57
488.84	1607.66
489.05	1738.73
489.25	1679.33
489.46	1712.10
489.67	1677.29
489.87	1789.92
490.08	1701.86
490.29	1689.57
490.49	1744.87
490.70	1794.02
490.90	1736.68
491.11	1710.05
491.32	1673.19
491.52	1624.04
491.73	1708.01
491.94	1779.68
492.14	1624.04
492.35	1703.91
492.55	1810.40
492.76	1601.51
492.97	1660.90
493.17	1675.24
493.38	1826.79
493.58	1785.83
493.79	1724.39
494.00	1679.33
494.20	1632.23
494.41	1812.45
494.61	1673.19
494.82	1703.91
495.02	1593.32
495.23	1822.69
495.44	1660.90
495.64	1658.85
495.85	1685.48
496.05	1712.10
496.26	1705.96
496.47	1759.21
496.67	1751.01
496.88	1806.31
497.08	1699.81
497.29	1601.51
497.49	1746.92
497.70	1681.38
497.91	1712.10
498.11	1722.34
498.32	1705.96
498.52	1777.64
498.73	1644.52
498.93	1777.64
499.14	1820.64
499.34	1736.68
499.55	1763.30
499.76	1634.28
499.96	1753.06
500.17	1667.05
500.37	1683.43
500.58	1658.85
500.78	1658.85
500.99	1642.47
501.19	1724.39
501.40	1777.64
501.60	1650.66
501.81	1697.77
502.02	1757.16
502.22	1671.14
502.43	1675.24
502.63	1847.27
502.84	1701.86
503.04	1673.19
503.25	1730.53
503.45	1705.96
503.66	1617.90
503.86	1763.30
504.07	1742.82
504.27	1714.15
504.48	1685.48
504.68	1679.33
504.89	1824.74
505.09	1665.00
505.30	1634.28
505.50	1751.01
505.71	1675.24
505.91	1740.77
506.12	1732.58
506.32	1640.42
506.53	1667.05
506.73	1744.87
506.94	1699.81
507.14	1738.73
507.35	1777.64
507.55	1658.85
507.76	1669.09
507.96	1691.62
508.17	1755.11
508.37	1652.71
508.58	1886.18
508.78	1779.68
508.99	1820.64
509.19	1736.68
509.40	1671.14
509.60	1667.05
509.81	1791.97
510.01	1660.90
510.22	1705.96
510.42	1757.16
510.63	1785.83
510.83	1650.66
511.04	1566.70
511.24	1798.12
511.44	1689.57
511.65	1728.49
511.85	1662.95
512.06	1724.39
512.26	1660.90
512.47	1783.78
512.67	1646.57
512.88	1787.88
513.08	1607.66
513.29	1703.91
513.49	1597.42
513.69	1667.05
513.90	1667.05
514.10	1759.21
514.31	1718.25
514.51	1675.24
514.72	1681.38
514.92	1740.77
515.13	1656.81
515.33	1675.24
515.53	1619.94
515.74	1703.91
515.94	1693.67
516.15	1736.68
516.35	1628.14
516.56	1638.38
516.76	1718.25
516.96	1691.62
517.17	1665.00
517.37	1712.10
517.58	1671.14
517.78	1626.09
517.99	1695.72
518.19	1937.38
518.39	1703.91
518.60	1730.53
518.80	1652.71
519.01	1757.16
519.21	1660.90
519.41	1697.77
519.62	1597.42
519.82	1800.16
520.03	1634.28
520.23	1642.47
520.43	1648.61
520.64	1808.36
520.84	1777.64
521.05	1601.51
521.25	1740.77
521.45	1740.77
521.66	1681.38
521.86	1734.63
522.07	1689.57
522.27	1751.01
522.47	1601.51
522.68	1640.42
522.88	1679.33
523.08	1765.35
523.29	1603.56
523.49	1640.42
523.70	1683.43
523.90	1650.66
524.10	1736.68
524.31	1667.05
524.51	1525.74
524.71	1781.73
524.92	1726.44
525.12	1634.28
525.33	1753.06
525.53	1681.38
525.73	1703.91
525.94	1624.04
526.14	1605.61
526.34	1619.94
526.55	1652.71
526.75	1714.15
526.95	1820.64
527.16	1660.90
527.36	1662.95
527.56	1787.88
527.77	1617.90
527.97	1765.35
528.17	1712.10
528.38	1740.77
528.58	1687.53
528.78	1755.11
528.99	1683.43
529.19	1689.57
529.39	1626.09
529.60	1636.33
529.80	1712.10
530.00	1679.33
530.21	1777.64
530.41	1708.01
530.61	1740.77
530.82	1675.24
531.02	1697.77
531.22	1662.95
531.43	1718.25
531.63	1650.66
531.83	1716.20
532.04	1818.60
532.24	1757.16
532.44	1628.14
532.64	1736.68
532.85	1630.18
533.05	1662.95
533.25	1634.28
533.46	1718.25
533.66	1714.15
533.86	1718.25
534.07	1746.92
534.27	1732.58
534.47	1746.92
534.67	1693.67
534.88	1652.71
535.08	1726.44
535.28	1722.34
535.49	1746.92
535.69	1814.50
535.89	1736.68
536.09	1761.25
536.30	1724.39
536.50	1566.70
536.70	1761.25
536.91	1658.85
537.11	1761.25
537.31	1683.43
537.51	1716.20
537.72	1744.87
537.92	1763.30
538.12	1757.16
538.32	1705.96
538.53	1650.66
538.73	1699.81
538.93	1710.05
539.13	1712.10
539.34	1779.68
539.54	1556.46
539.74	1773.54
539.94	1650.66
540.15	1728.49
540.35	1640.42
540.55	1656.81
540.75	1630.18
540.96	1722.34
541.16	1667.05
541.36	1736.68
541.56	1708.01
541.77	1787.88
541.97	1802.21
542.17	1640.42
542.37	1783.78
542.58	1744.87
542.78	1667.05
542.98	1710.05
543.18	1693.67
543.38	1728.49
543.59	1730.53
543.79	1712.10
543.99	1654.76
544.19	1642.47
544.40	1677.29
544.60	1691.62
544.80	1671.14
545.00	1640.42
545.20	1820.64
545.41	1701.86
545.61	1613.80
545.81	1689.57
546.01	1667.05
546.21	1650.66
546.42	1712.10
546.62	1818.60
546.82	1683.43
547.02	1716.20
547.22	1642.47
547.43	1828.84
547.63	1662.95
547.83	1697.77
548.03	1632.23
548.23	1726.44
548.44	1671.14
548.64	1671.14
548.84	1646.57
549.04	1597.42
549.24	1841.12
549.45	1920.99
549.65	1638.38
549.85	1675.24
550.05	1705.96
550.25	1515.50
550.45	1796.07
550.66	1773.54
550.86	1646.57
551.06	1679.33
551.26	1644.52
551.46	1642.47
551.66	1673.19
551.87	1740.77
552.07	1685.48
552.27	1658.85
552.47	1802.21
552.67	1667.05
552.87	1748.97
553.07	1683.43
553.28	1658.85
553.48	1761.25
553.68	1662.95
553.88	1736.68
554.08	1699.81
554.28	1679.33
554.48	1691.62
554.69	1798.12
554.89	1724.39
555.09	1638.38
555.29	1630.18
555.49	1720.29
555.69	1658.85
555.89	1695.72
556.10	1720.29
556.30	1660.90
556.50	1665.00
556.70	1714.15
556.90	1753.06
557.10	1665.00
557.30	1751.01
557.50	1601.51
557.70	1681.38
557.91	1621.99
558.11	1638.38
558.31	1740.77
558.51	1716.20
558.71	1794.02
558.91	1761.25
559.11	1732.58
559.31	1650.66
559.51	1667.05
559.72	1769.44
559.92	1685.48
560.12	1621.99
560.32	1806.31
560.52	1728.49
560.72	1665.00
560.92	1765.35
561.12	1722.34
561.32	1648.61
561.52	1607.66
561.72	1869.80
561.93	1830.88
562.13	1656.81
562.33	1683.43
562.53	1708.01
562.73	1701.86
562.93	1611.75
563.13	1812.45
563.33	1736.68
563.53	1712.10
563.73	1791.97
563.93	1789.92
564.13	1718.25
564.33	1775.59
564.53	1656.81
564.74	1662.95
564.94	1689.57
565.14	1806.31
565.34	1763.30
565.54	1761.25
565.74	1662.95
565.94	1671.14
566.14	1648.61
566.34	1689.57
566.54	1642.47
566.74	1669.09
566.94	1689.57
567.14	1708.01
567.34	1775.59
567.54	1705.96
567.74	1732.58
567.94	1767.40
568.14	1705.96
568.34	1728.49
568.54	1648.61
568.74	1732.58
568.94	1703.91
569.14	1769.44
569.34	1681.38
569.54	1679.33
569.75	1607.66
569.95	1742.82
570.15	1773.54
570.35	1662.95
570.55	1716.20
570.75	1665.00
570.95	1722.34
571.15	1763.30
571.35	1716.20
571.55	1636.33
571.75	1738.73
571.95	1665.00
572.15	1611.75
572.35	1658.85
572.55	1759.21
572.75	1654.76
572.95	1601.51
573.15	1728.49
573.35	1728.49
573.55	1746.92
573.75	1669.09
573.95	1822.69
574.15	1695.72
574.35	1722.34
574.55	1761.25
574.75	1632.23
574.95	1691.62
575.15	1593.32
575.34	1724.39
575.54	1703.91
575.74	1636.33
575.94	1603.56
576.14	1615.85
576.34	1728.49
576.54	1626.09
576.74	1763.30
576.94	1638.38
577.14	1640.42
577.34	1796.07
577.54	1617.90
577.74	1560.55
577.94	1650.66
578.14	1656.81
578.34	1775.59
578.54	1583.08
578.74	1697.77
578.94	1644.52
579.14	1802.21
579.34	1630.18
579.54	1806.31
579.74	1630.18
579.94	1624.04
580.13	1703.91
580.33	1624.04
580.53	1662.95
580.73	1656.81
580.93	1740.77
581.13	1693.67
581.33	1687.53
581.53	1671.14
581.73	1687.53
581.93	1634.28
582.13	1703.91
582.33	1714.15
582.53	1607.66
582.73	1712.10
582.92	1699.81
583.12	1777.64
583.32	1658.85
583.52	1716.20
583.72	1779.68
583.92	1722.34
584.12	1712.10
584.32	1732.58
584.52	1538.02
584.72	1660.90
584.92	1703.91
585.11	1718.25
585.31	1771.49
585.51	1630.18
585.71	1683.43
585.91	1732.58
586.11	1683.43
586.31	1726.44
586.51	1650.66
586.71	1796.07
586.91	1687.53
587.10	1769.44
587.30	1791.97
587.50	1691.62
587.70	1703.91
587.90	1791.97
588.10	1597.42
588.30	1697.77
588.50	1683.43
588.69	1660.90
588.89	1712.10
589.09	1806.31
589.29	1632.23
589.49	1722.34
589.69	1630.18
589.89	1722.34
590.08	1675.24
590.28	1683.43
590.48	1753.06
590.68	1703.91
590.88	1683.43
591.08	1656.81
591.28	1781.73
591.47	1710.05
591.67	1613.80
591.87	1714.15
592.07	1753.06
592.27	1667.05
592.47	1564.65
592.67	1716.20
592.86	1693.67
593.06	1677.29
593.26	1777.64
593.46	1755.11
593.66	1583.08
593.86	1753.06
594.05	1748.97
594.25	1705.96
594.45	1673.19
594.65	1824.74
594.85	1775.59
595.05	1656.81
595.24	1720.29
595.44	1687.53
595.64	1703.91
595.84	1744.87
596.04	1732.58
