SpectraSuite Data File
++++++++++++++++++++++++++++++++++++
Date: Fri Jun 02 14:57:21 CEST 2017
User: INFO_000
Dark Spectrum Present: No
Reference Spectrum Present: No
Number of Sampled Component Spectra: 1
Spectrometers: USB4H00879
Integration Time (usec): 80000 (USB4H00879)
Spectra Averaged: 1 (USB4H00879)
Boxcar Smoothing: 0 (USB4H00879)
Correct for Electrical Dark: No (USB4H00879)
Strobe/Lamp Enabled: No (USB4H00879)
Correct for Detector Non-linearity: No (USB4H00879)
Correct for Stray Light: No (USB4H00879)
Number of Pixels in Processed Spectrum: 3648
>>>>>Begin Processed Spectral Data<<<<<
345.13	1263.60
345.34	1263.60
345.56	1263.60
345.78	1329.13
345.99	1265.64
346.21	1699.81
346.42	1611.75
346.64	1609.70
346.86	1738.73
347.07	1652.71
347.29	1732.58
347.50	1654.76
347.72	1636.33
347.94	1724.39
348.15	1609.70
348.37	1617.90
348.59	1740.77
348.80	1667.05
349.02	1734.63
349.23	1884.13
349.45	1839.08
349.67	1968.10
349.88	1765.35
350.10	1951.71
350.31	1863.65
350.53	1775.59
350.75	1925.09
350.96	1804.26
351.18	1873.89
351.39	1851.36
351.61	1787.88
351.82	1830.88
352.04	1935.33
352.26	1830.88
352.47	1880.04
352.69	1920.99
352.90	1765.35
353.12	1765.35
353.34	1828.84
353.55	2033.63
353.77	1861.60
353.98	1812.45
354.20	1830.88
354.41	1884.13
354.63	1894.37
354.85	2039.78
355.06	1896.42
355.28	1789.92
355.49	1966.05
355.71	1896.42
355.92	1861.60
356.14	1900.52
356.35	1898.47
356.57	1826.79
356.79	1884.13
357.00	1837.03
357.22	2004.96
357.43	1871.84
357.65	1957.86
357.86	1957.86
358.08	1841.12
358.29	1945.57
358.51	1957.86
358.72	1959.91
358.94	1892.32
359.16	1869.80
359.37	1920.99
359.59	1931.23
359.80	1957.86
360.02	1892.32
360.23	1953.76
360.45	1988.58
360.66	1900.52
360.88	1863.65
361.09	1972.19
361.31	2052.06
361.52	1941.47
361.74	2090.98
361.95	2099.17
362.17	1955.81
362.38	2148.32
362.60	2031.58
362.81	1892.32
363.03	1949.67
363.24	1920.99
363.46	2045.92
363.67	1982.43
363.89	1970.15
364.10	2035.68
364.32	2084.83
364.53	2060.26
364.75	1865.70
364.96	2097.12
365.18	2004.96
365.39	2007.01
365.61	1902.56
365.82	2095.07
366.04	2056.16
366.25	1955.81
366.47	2043.87
366.68	2090.98
366.90	1990.63
367.11	2052.06
367.33	2029.54
367.54	2088.93
367.76	2076.64
367.97	2052.06
368.19	2060.26
368.40	2062.30
368.62	1906.66
368.83	1998.82
369.05	2060.26
369.26	1966.05
369.48	2035.68
369.69	1959.91
369.91	1990.63
370.12	2021.35
370.33	2078.69
370.55	2000.87
370.76	2127.84
370.98	2179.04
371.19	2062.30
371.41	2111.46
371.62	2084.83
371.84	1947.62
372.05	2320.35
372.27	2009.06
372.48	2097.12
372.69	2041.82
372.91	2187.23
373.12	2174.94
373.34	2084.83
373.55	2181.09
373.77	2230.24
373.98	2166.75
374.20	2211.81
374.41	2291.68
374.62	2115.55
374.84	2129.89
375.05	2136.03
375.27	2088.93
375.48	2289.63
375.70	2170.85
375.91	2183.13
376.12	2306.01
376.34	2133.98
376.55	2209.76
376.77	2174.94
376.98	2082.78
377.19	2125.79
377.41	2088.93
377.62	2207.71
377.84	2283.49
378.05	2410.46
378.27	2144.22
378.48	2312.16
378.69	2387.93
378.91	2275.29
379.12	2332.64
379.34	2281.44
379.55	2248.67
379.76	2213.85
379.98	2215.90
380.19	2303.96
380.41	2312.16
380.62	2256.86
380.83	2306.01
381.05	2164.70
381.26	2312.16
381.47	2289.63
381.69	2312.16
381.90	2449.37
382.12	2330.59
382.33	2242.53
382.54	2285.53
382.76	2322.40
382.97	2324.44
383.19	2246.62
383.40	2281.44
383.61	2334.68
383.83	2242.53
384.04	2328.54
384.25	2336.73
384.47	2463.71
384.68	2385.88
384.89	2383.84
385.11	2299.87
385.32	2371.55
385.54	2320.35
385.75	2389.98
385.96	2336.73
386.18	2412.51
386.39	2387.93
386.60	2412.51
386.82	2463.71
387.03	2410.46
387.24	2527.19
387.46	2445.27
387.67	2392.03
387.88	2473.95
388.10	2404.32
388.31	2494.43
388.52	2572.25
388.74	2547.67
388.95	2463.71
389.16	2445.27
389.38	2465.75
389.59	2541.53
389.80	2639.83
390.02	2625.50
390.23	2680.79
390.44	2600.92
390.66	2504.67
390.87	2523.10
391.08	2592.73
391.30	2756.57
391.51	2627.54
391.72	2666.46
391.94	2598.87
392.15	2637.78
392.36	2699.22
392.58	2566.10
392.79	2711.51
393.00	2779.09
393.22	2721.75
393.43	2725.85
393.64	2801.62
393.85	2727.89
394.07	2717.65
394.28	2654.17
394.49	2781.14
394.71	2715.61
394.92	2885.59
395.13	2711.51
395.35	2844.63
395.56	2793.43
395.77	2772.95
395.98	2738.13
396.20	2885.59
396.41	2904.02
396.62	2953.17
396.84	2779.09
397.05	2793.43
397.26	2871.25
397.47	2938.84
397.69	2807.77
397.90	2951.12
398.11	2904.02
398.32	2871.25
398.54	2871.25
398.75	2865.11
398.96	2985.94
399.18	3166.16
399.39	2973.65
399.60	3043.28
399.81	2936.79
400.03	2922.45
400.24	3166.16
400.45	3037.14
400.66	3139.54
400.88	2912.21
401.09	3157.97
401.30	3131.34
401.51	3162.06
401.73	3104.72
401.94	3088.34
402.15	3184.59
402.36	3096.53
402.58	3209.17
402.79	3297.23
403.00	3170.26
403.21	3252.17
403.43	3260.37
403.64	3272.65
403.85	3088.34
404.06	3207.12
404.27	3168.21
404.49	3063.76
404.70	3274.70
404.91	3327.95
405.12	3231.69
405.34	3342.28
405.55	3413.96
405.76	3209.17
405.97	3153.87
406.19	3317.71
406.40	3274.70
406.61	3289.04
406.82	3360.72
407.03	3497.93
407.25	3313.61
407.46	3442.64
407.67	3422.16
407.88	3393.48
408.09	3280.85
408.31	3248.08
408.52	3434.44
408.73	3338.19
408.94	3452.88
409.15	3381.20
409.37	3422.16
409.58	3499.98
409.79	3520.46
410.00	3530.70
410.21	3352.52
410.43	3524.55
410.64	3403.72
410.85	3522.51
411.06	3596.23
411.27	3569.61
411.48	3618.76
411.70	3610.57
411.91	3575.75
412.12	3639.24
412.33	3567.56
412.54	3616.71
412.76	3686.34
412.97	3657.67
413.18	3467.21
413.39	3618.76
413.60	3649.48
413.81	3661.77
414.03	3655.62
414.24	3676.10
414.45	3751.88
414.66	3616.71
414.87	3661.77
415.08	3665.86
415.30	3682.25
415.51	3723.21
415.72	3731.40
415.93	3592.14
416.14	3803.08
416.35	3788.74
416.56	3805.13
416.78	3852.23
416.99	3833.80
417.20	3798.98
417.41	3766.21
417.62	3755.97
417.83	3876.80
418.04	3975.11
418.26	4067.27
418.47	3885.00
418.68	4042.69
418.89	3923.91
419.10	4085.70
419.31	3919.81
419.52	4175.81
419.73	4097.99
419.95	4118.47
420.16	3977.16
420.37	3917.76
420.58	4024.26
420.79	3846.09
421.00	4014.02
421.21	4165.57
421.42	4120.51
421.63	4124.61
421.85	4083.65
422.06	4253.63
422.27	4151.23
422.48	4124.61
422.69	4227.01
422.90	4235.20
423.11	4083.65
423.32	4222.91
423.53	4280.25
423.75	4296.64
423.96	4435.90
424.17	4317.12
424.38	4446.14
424.59	4421.56
424.80	4556.73
425.01	4493.24
425.22	4296.64
425.43	4399.04
425.64	4661.18
425.85	4730.81
426.06	4579.26
426.28	4499.39
426.49	4329.41
426.70	4437.95
426.91	4501.44
427.12	4550.59
427.33	4659.13
427.54	4616.12
427.75	4566.97
427.96	4769.72
428.17	4609.98
428.38	4736.95
428.59	4769.72
428.80	4825.01
429.01	4818.87
429.23	4704.18
429.44	5033.91
429.65	4872.12
429.86	4915.12
430.07	4825.01
430.28	4847.54
430.49	5046.20
430.70	5126.07
430.91	4974.52
431.12	5015.48
431.33	5117.87
431.54	5173.17
431.75	5119.92
431.96	5136.31
432.17	5109.68
432.38	5179.31
432.59	5410.73
432.80	5248.94
433.01	5277.62
433.22	5236.66
433.43	5210.03
433.64	5265.33
433.85	5261.23
434.06	5359.53
434.27	5246.90
434.49	5267.38
434.70	5498.80
434.91	5386.16
435.12	5474.22
435.33	5357.49
435.54	5486.51
435.75	5281.71
435.96	5474.22
436.17	5353.39
436.38	5638.06
436.59	5545.90
436.80	5613.48
437.01	5746.60
437.22	5726.12
437.43	5668.78
437.64	5418.93
437.85	5568.43
438.06	5709.74
438.27	5623.72
438.48	5689.26
438.69	5795.75
438.90	5765.03
439.11	5672.87
439.32	5760.94
439.53	5726.12
439.74	5910.44
439.95	5980.07
440.16	5941.16
440.37	5949.35
440.57	5959.59
440.78	5939.11
440.99	6148.00
441.20	6113.19
441.41	5855.14
441.62	6061.99
441.83	5871.53
442.04	6117.28
442.25	6141.86
442.46	6064.04
442.67	6107.04
442.88	6561.69
443.09	6041.51
443.30	6186.91
443.51	6086.56
443.72	6317.98
443.93	6205.35
444.14	6459.29
444.35	6145.95
444.56	6375.33
444.77	6365.09
444.98	6436.77
445.19	6440.86
445.40	6371.23
445.61	6457.25
445.81	6623.13
446.02	6616.99
446.23	6449.05
446.44	6383.52
446.65	6709.15
446.86	6533.02
447.07	6655.90
447.28	6752.15
447.49	6653.85
447.70	6526.88
447.91	6678.43
448.12	6666.14
448.33	6827.93
448.54	6743.96
448.74	6694.81
448.95	6795.16
449.16	6602.65
449.37	7071.64
449.58	6754.20
449.79	7145.36
450.00	6825.88
450.21	6920.09
450.42	7116.69
450.63	7083.92
450.84	6942.61
451.05	7034.77
451.25	7045.01
451.46	6979.48
451.67	7237.52
451.88	7112.60
452.09	7153.55
452.30	7106.45
452.51	7174.03
452.72	7376.78
452.93	7595.92
453.13	7204.75
453.34	7337.87
453.55	7319.44
453.76	7352.21
453.97	7630.73
454.18	7481.23
454.39	7516.05
454.60	7364.50
454.81	7604.11
455.01	7790.47
455.22	7538.57
455.43	7559.05
455.64	7880.58
455.85	7952.26
456.06	8073.09
456.27	7655.31
456.48	7847.82
456.68	7878.54
456.89	7935.88
457.10	7929.74
457.31	7925.64
457.52	8093.57
457.73	8032.13
457.94	8253.31
458.14	8009.61
458.35	8392.58
458.56	8161.16
458.77	8157.06
458.98	8265.60
459.19	8191.88
459.39	8390.53
459.60	8425.34
459.81	8400.77
460.02	8679.29
460.23	8505.21
460.44	8624.00
460.65	8677.24
460.85	8654.72
461.06	8879.99
461.27	8640.38
461.48	8871.80
461.69	9021.30
461.89	8593.28
462.10	8927.10
462.31	8648.57
462.52	8916.86
462.73	9013.11
462.94	9203.57
463.14	8873.85
463.35	8966.01
463.56	9521.01
463.77	9426.80
463.98	9113.46
464.18	9594.73
464.39	9490.29
464.60	9690.99
464.81	9492.34
465.02	9508.72
465.23	9668.46
465.43	9568.11
465.64	9815.91
465.85	9707.37
466.06	9660.27
466.27	10065.77
466.47	9940.84
466.68	10024.81
466.89	10018.66
467.10	10024.81
467.30	9897.83
467.51	10108.77
467.72	10309.47
467.93	9940.84
468.14	10317.67
468.34	10243.94
468.55	10352.48
468.76	10344.29
468.97	10254.18
469.17	10514.27
469.38	10551.14
469.59	10833.75
469.80	10628.96
470.01	10651.49
470.21	10837.85
470.42	11186.01
470.63	11077.46
470.84	10809.18
471.04	11050.84
471.25	11224.92
471.46	11456.34
471.67	11165.53
471.87	11231.06
472.08	11507.54
472.29	11546.45
472.50	11243.35
472.70	11485.01
472.91	11501.39
473.12	11755.34
473.33	11757.39
473.53	12080.97
473.74	11720.53
473.95	12076.87
474.16	12281.67
474.36	12076.87
474.57	12336.96
474.78	12480.32
474.99	12306.24
475.19	12388.16
475.40	12674.88
475.61	12717.89
475.81	12740.41
476.02	13039.42
476.23	12754.75
476.44	13139.77
476.64	13217.59
476.85	13422.39
477.06	13205.30
477.27	13563.70
477.47	13469.49
477.68	13498.16
477.89	13684.53
478.09	13692.72
478.30	13795.12
478.51	13864.75
478.71	14065.45
478.92	14169.90
479.13	14173.99
479.34	14411.56
479.54	14556.96
479.75	14546.72
479.96	14462.76
480.16	14546.72
480.37	14724.90
480.58	14835.49
480.78	14997.28
480.99	14868.25
481.20	15042.33
481.41	15036.19
481.61	15236.89
481.82	15449.88
482.03	15351.57
482.23	15281.94
482.44	15423.25
482.65	15746.83
482.85	15726.35
483.06	15701.78
483.27	16039.69
483.47	16125.71
483.68	15953.68
483.89	16025.36
484.09	16342.79
484.30	16240.39
484.51	16588.55
484.71	16559.88
484.92	16572.16
485.13	16742.14
485.33	16654.08
485.54	16717.57
485.75	17196.79
485.95	17030.91
486.16	17078.01
486.37	17321.72
486.57	17258.23
486.78	17436.41
486.98	17444.60
487.19	17577.72
487.40	17575.67
487.60	17516.28
487.81	18177.77
488.02	17979.12
488.22	17999.60
488.43	18099.95
488.64	18142.96
488.84	18329.32
489.05	18243.31
489.25	18628.32
489.46	18970.33
489.67	18511.59
489.87	18880.22
490.08	18683.62
490.29	18835.17
490.49	19142.36
490.70	19400.41
490.90	19388.12
491.11	19226.33
491.32	19379.93
491.52	19594.96
491.73	19805.91
491.94	19717.84
492.14	19670.74
492.35	20016.85
492.55	20047.57
492.76	20213.45
492.97	20266.70
493.17	20094.67
493.38	20272.84
493.58	20625.09
493.79	20408.01
494.00	20508.36
494.20	20778.69
494.41	21030.59
494.61	21053.12
494.82	20719.30
495.02	20557.51
495.23	21110.46
495.44	21106.37
495.64	21262.01
495.85	21411.51
496.05	21446.33
496.26	21479.10
496.47	21800.63
496.67	21370.55
496.88	21835.44
497.08	21954.22
497.29	22173.36
497.49	21886.64
497.70	22273.71
497.91	22410.92
498.11	22505.13
498.32	22253.23
498.52	22339.24
498.73	22841.00
498.93	22478.50
499.14	22914.72
499.34	22836.90
499.55	22834.85
499.76	23299.74
499.96	22765.22
500.17	22841.00
500.37	23205.53
500.58	23439.00
500.78	23449.24
500.99	23588.50
501.19	23584.41
501.40	23529.11
501.60	23363.23
501.81	23453.34
502.02	23948.95
502.22	23449.24
502.43	23762.58
502.63	24125.07
502.84	24168.08
503.04	24030.87
503.25	24200.85
503.45	24276.62
503.66	24569.48
503.86	24333.96
504.07	24770.18
504.27	24379.02
504.48	24843.91
504.68	24489.61
504.89	24934.02
505.09	24843.91
505.30	25003.65
505.50	24753.80
505.71	25083.52
505.91	25155.20
506.12	25226.88
506.32	25202.30
506.53	24972.93
506.73	25421.44
506.94	25677.43
507.14	25646.71
507.35	25589.37
507.55	25599.61
507.76	25605.75
507.96	25720.44
508.17	25941.62
508.37	25841.27
508.58	25968.24
508.78	26109.55
508.99	26332.78
509.19	26404.46
509.40	26275.44
509.60	26224.24
509.81	26574.44
510.01	26248.82
510.22	26361.45
510.42	26420.84
510.63	26914.41
510.83	26537.58
511.04	26531.44
511.24	26914.41
511.44	26705.51
511.65	26824.29
511.85	26951.27
512.06	26709.61
512.26	27041.38
512.47	26955.36
512.67	27160.16
512.88	27246.18
513.08	26984.04
513.29	27086.43
513.49	27584.09
513.69	27199.07
513.90	27702.87
514.10	27653.72
514.31	27489.88
514.51	27704.92
514.72	27555.42
514.92	27786.84
515.13	27848.28
515.33	27938.39
515.53	27854.42
515.74	28026.45
515.94	27887.19
516.15	28040.79
516.35	28124.75
516.56	28210.77
516.76	27729.50
516.96	27817.56
517.17	28278.35
517.37	28163.67
517.58	28499.53
517.78	28431.95
517.99	28341.84
518.19	28882.50
518.39	28837.45
518.60	28669.51
518.80	28489.29
519.01	29095.49
519.21	28868.17
519.41	28868.17
519.62	28939.85
519.82	29144.64
520.03	29081.16
520.23	29111.88
520.43	29244.99
520.64	29470.27
520.84	29331.01
521.05	29589.05
521.25	29527.61
521.45	29359.68
521.66	29820.47
521.86	29808.19
522.07	29869.62
522.27	29824.57
522.47	29892.15
522.68	30260.79
522.88	29765.18
523.08	30350.90
523.29	30217.78
523.49	30289.46
523.70	30303.79
523.90	30473.78
524.10	30516.78
524.31	30856.75
524.51	30373.42
524.71	30879.27
524.92	30963.24
525.12	30780.97
525.33	31182.37
525.53	30746.15
525.73	31108.65
525.94	30940.71
526.14	31204.90
526.34	31632.93
526.55	31329.83
526.75	31331.87
526.95	31256.10
527.16	31497.76
527.36	31565.34
527.56	31847.96
527.77	31970.84
527.97	31747.61
528.17	31938.07
528.38	31872.54
528.58	32321.04
528.78	32235.03
528.99	32423.44
529.19	32458.26
529.39	31987.22
529.60	32732.68
529.80	32441.87
530.00	32607.76
530.21	32855.56
530.41	33043.98
530.61	32816.65
530.82	33095.18
531.02	32826.89
531.22	33238.53
531.43	33134.09
531.63	33551.87
531.83	33588.74
532.04	33762.81
532.24	33500.67
532.44	34133.50
532.64	33725.95
532.85	34076.15
533.05	33846.78
533.25	33998.33
533.46	33768.96
533.66	34070.01
533.86	34534.90
534.07	34612.72
534.27	34440.69
534.47	34807.28
534.67	34518.51
534.88	34434.55
535.08	35079.66
535.28	34543.09
535.49	34823.66
535.69	35167.72
535.89	35096.04
536.09	35276.26
536.30	35483.11
536.50	35317.22
536.70	35792.35
536.91	35388.90
537.11	35388.90
537.31	35577.31
537.51	35823.07
537.72	35810.78
537.92	35833.31
538.12	36140.50
538.32	36115.93
538.53	36369.88
538.73	36206.04
538.93	36400.60
539.13	36376.02
539.34	36433.36
539.54	36603.35
539.74	36890.06
539.94	36822.48
540.15	36675.02
540.35	36804.05
540.55	36804.05
540.75	36666.83
540.96	36935.12
541.16	36842.96
541.36	37039.56
541.56	36969.93
541.77	38075.84
541.97	37313.99
542.17	37322.18
542.37	37395.91
542.58	37866.94
542.78	37303.75
542.98	37737.92
543.18	37676.48
543.38	38397.37
543.59	37868.99
543.79	38014.40
543.99	37651.91
544.19	38176.19
544.40	37680.58
544.60	38266.30
544.80	38233.53
545.00	38679.99
545.20	38682.03
545.41	38366.65
545.61	38385.08
545.81	38794.67
546.01	38614.45
546.21	38575.54
546.42	38854.06
546.62	38907.31
546.82	39089.58
547.02	39087.53
547.22	39073.20
547.43	39212.46
547.63	38782.38
547.83	39304.62
548.03	39228.84
548.23	39255.46
548.44	39298.47
548.64	39222.70
548.84	39558.56
549.04	39581.09
549.24	39658.91
549.45	39910.82
549.65	39517.60
549.85	39427.49
550.05	39894.43
550.25	39570.85
550.45	40187.29
550.66	39949.73
550.86	40048.03
551.06	39949.73
551.26	39955.87
551.46	40150.43
551.66	40138.14
551.87	40097.18
552.07	40326.55
552.27	39867.81
552.47	40142.24
552.67	40248.73
552.87	40385.94
553.07	40713.62
553.28	40322.46
553.48	40834.45
553.68	40451.48
553.88	40789.39
554.08	40916.37
554.28	40945.04
554.48	40418.71
554.69	41149.84
554.89	40768.91
555.09	40633.75
555.29	40979.85
555.49	41035.15
555.69	41571.72
555.89	41100.68
556.10	41600.39
556.30	41395.59
556.50	41203.08
556.70	41217.42
556.90	41424.26
557.10	41526.66
557.30	41074.06
557.50	41833.86
557.70	41817.47
557.91	41799.04
558.11	41852.29
558.31	41549.19
558.51	41739.65
558.71	41782.66
558.91	42069.37
559.11	41633.16
559.31	41999.74
559.51	41842.05
559.72	41807.23
559.92	42280.31
560.12	41905.54
560.32	42411.38
560.52	41862.53
560.72	41985.41
560.92	42384.76
561.12	42597.75
561.32	42917.23
561.52	42171.77
561.72	42456.44
561.93	42206.59
562.13	42313.08
562.33	42169.72
562.53	42911.09
562.73	42403.19
562.93	42214.78
563.13	42655.09
563.33	42933.62
563.53	42730.87
563.73	42571.13
563.93	42952.05
564.13	43083.12
564.33	42833.27
564.53	42755.44
564.74	43140.46
564.94	42898.80
565.14	42995.06
565.34	43097.45
565.54	43261.29
565.74	43402.60
565.94	43398.51
566.14	43322.73
566.34	43390.31
566.54	44295.52
566.74	43144.56
566.94	43433.32
567.14	43799.91
567.34	43025.78
567.54	43683.17
567.74	43275.63
567.94	43654.50
568.14	44043.62
568.34	44199.26
568.54	44066.14
568.74	44119.39
568.94	43928.93
569.14	44193.12
569.34	44320.09
569.54	44131.68
569.75	44041.57
569.95	44119.39
570.15	44227.93
570.35	44424.54
570.55	44250.46
570.75	44254.56
570.95	44209.50
571.15	44375.39
571.35	44473.69
571.55	44795.22
571.75	44608.86
571.95	44938.58
572.15	44385.63
572.35	44924.24
572.55	44701.01
572.75	44453.21
572.95	44805.46
573.15	45180.24
573.35	44907.86
573.55	44408.15
573.75	45206.86
573.95	45325.64
574.15	44924.24
574.35	45370.70
574.55	45288.78
574.75	45241.68
574.95	45456.71
575.15	45266.25
575.34	45405.52
575.54	45227.34
575.74	45649.22
575.94	45808.96
576.14	45851.97
576.34	45960.51
576.54	46138.69
576.74	46030.15
576.94	46187.84
577.14	46013.76
577.34	46361.92
577.54	45776.20
577.74	46216.51
577.94	46331.20
578.14	46441.79
578.34	46404.92
578.54	45880.64
578.74	46589.24
578.94	46718.26
579.14	46499.13
579.34	46347.58
579.54	46624.06
579.74	47060.27
579.94	46814.52
580.13	47199.54
580.33	46865.72
580.53	46675.26
580.73	47220.02
580.93	46748.98
581.13	46615.86
581.33	47338.80
581.53	47523.11
581.73	47363.37
581.93	47574.31
582.13	47549.74
582.33	47633.71
582.53	47449.39
582.73	47686.95
582.92	47947.04
583.12	48174.37
583.32	47666.47
583.52	47682.86
583.72	47932.71
583.92	47875.37
584.12	47738.15
584.32	48284.96
584.52	47897.89
584.72	48276.77
584.92	48233.76
585.11	48860.44
585.31	48508.19
585.51	48487.71
585.71	48489.76
585.91	49138.96
586.11	48401.69
586.31	48493.85
586.51	48227.62
586.71	48786.71
586.91	49061.14
587.10	49124.63
587.30	49286.42
587.50	49300.75
587.70	49618.19
587.90	48448.80
588.10	49317.14
588.30	49542.41
588.50	49177.87
