SpectraSuite Data File
++++++++++++++++++++++++++++++++++++
Date: Fri Jun 02 14:57:18 CEST 2017
User: INFO_000
Dark Spectrum Present: No
Reference Spectrum Present: No
Number of Sampled Component Spectra: 1
Spectrometers: USB4H00879
Integration Time (usec): 80000 (USB4H00879)
Spectra Averaged: 1 (USB4H00879)
Boxcar Smoothing: 0 (USB4H00879)
Correct for Electrical Dark: No (USB4H00879)
Strobe/Lamp Enabled: No (USB4H00879)
Correct for Detector Non-linearity: No (USB4H00879)
Correct for Stray Light: No (USB4H00879)
Number of Pixels in Processed Spectrum: 3648
>>>>>Begin Processed Spectral Data<<<<<
345.13	1296.36
345.34	1296.36
345.56	1296.36
345.78	1234.93
345.99	1290.22
346.21	1716.20
346.42	1683.43
346.64	1703.91
346.86	1789.92
347.07	1658.85
347.29	1628.14
347.50	1667.05
347.72	1640.42
347.94	1783.78
348.15	1544.17
348.37	1648.61
348.59	1738.73
348.80	1605.61
349.02	1916.90
349.23	1888.23
349.45	1812.45
349.67	1888.23
349.88	1824.74
350.10	1986.53
350.31	1865.70
350.53	1818.60
350.75	2011.11
350.96	1826.79
351.18	1873.89
351.39	1853.41
351.61	1828.84
351.82	1918.95
352.04	1910.75
352.26	1820.64
352.47	1964.00
352.69	1900.52
352.90	1716.20
353.12	1863.65
353.34	1851.36
353.55	1931.23
353.77	1875.94
353.98	1810.40
354.20	1855.46
354.41	1949.67
354.63	1986.53
354.85	1984.48
355.06	1925.09
355.28	1724.39
355.49	1830.88
355.71	1892.32
355.92	1902.56
356.14	1943.52
356.35	1812.45
356.57	1947.62
356.79	2052.06
357.00	1863.65
357.22	1947.62
357.43	1925.09
357.65	1931.23
357.86	1929.19
358.08	1880.04
358.29	1923.04
358.51	1980.39
358.72	1986.53
358.94	1906.66
359.16	2009.06
359.37	1990.63
359.59	1949.67
359.80	1974.24
360.02	2013.15
360.23	1974.24
360.45	2050.02
360.66	1888.23
360.88	1896.42
361.09	1939.43
361.31	1912.80
361.52	2025.44
361.74	2097.12
361.95	2066.40
362.17	1957.86
362.38	2080.74
362.60	2105.31
362.81	1994.72
363.03	1982.43
363.24	2004.96
363.46	2064.35
363.67	2039.78
363.89	1943.52
364.10	2084.83
364.32	1992.67
364.53	2039.78
364.75	2015.20
364.96	1996.77
365.18	2043.87
365.39	1984.48
365.61	2015.20
365.82	2158.56
366.04	2002.91
366.25	1992.67
366.47	2068.45
366.68	2031.58
366.90	2000.87
367.11	2060.26
367.33	2039.78
367.54	2144.22
367.76	1949.67
367.97	2152.42
368.19	2023.39
368.40	2072.54
368.62	1949.67
368.83	2017.25
369.05	2088.93
369.26	2021.35
369.48	1931.23
369.69	2017.25
369.91	1988.58
370.12	2047.97
370.33	2043.87
370.55	1968.10
370.76	2066.40
370.98	2103.26
371.19	2056.16
371.41	2062.30
371.62	2043.87
371.84	1998.82
372.05	2197.47
372.27	2011.11
372.48	2148.32
372.69	2154.46
372.91	2140.13
373.12	2199.52
373.34	2035.68
373.55	2148.32
373.77	2101.22
373.98	2095.07
374.20	2129.89
374.41	2240.48
374.62	2121.70
374.84	2152.42
375.05	2181.09
375.27	2140.13
375.48	2148.32
375.70	2142.18
375.91	2250.72
376.12	2258.91
376.34	2119.65
376.55	2199.52
376.77	2152.42
376.98	2131.94
377.19	2179.04
377.41	2138.08
377.62	2217.95
377.84	2256.86
378.05	2322.40
378.27	2250.72
378.48	2224.09
378.69	2445.27
378.91	2289.63
379.12	2293.72
379.34	2258.91
379.55	2326.49
379.76	2287.58
379.98	2189.28
380.19	2244.57
380.41	2271.20
380.62	2293.72
380.83	2265.05
381.05	2246.62
381.26	2437.08
381.47	2162.66
381.69	2320.35
381.90	2410.46
382.12	2289.63
382.33	2361.31
382.54	2353.12
382.76	2281.44
382.97	2342.88
383.19	2275.29
383.40	2463.71
383.61	2365.40
383.83	2359.26
384.04	2334.68
384.25	2361.31
384.47	2355.16
384.68	2334.68
384.89	2289.63
385.11	2281.44
385.32	2385.88
385.54	2344.92
385.75	2318.30
385.96	2453.47
386.18	2445.27
386.39	2394.08
386.60	2385.88
386.82	2459.61
387.03	2455.51
387.24	2424.80
387.46	2420.70
387.67	2484.19
387.88	2510.81
388.10	2400.22
388.31	2527.19
388.52	2547.67
388.74	2633.69
388.95	2525.15
389.16	2496.47
389.38	2510.81
389.59	2531.29
389.80	2652.12
390.02	2521.05
390.23	2629.59
390.44	2519.00
390.66	2645.98
390.87	2461.66
391.08	2598.87
391.30	2707.41
391.51	2701.27
391.72	2818.00
391.94	2680.79
392.15	2645.98
392.36	2598.87
392.58	2535.39
392.79	2691.03
393.00	2643.93
393.22	2701.27
393.43	2795.48
393.64	2766.81
393.85	2910.16
394.07	2703.32
394.28	2666.46
394.49	2727.89
394.71	2809.81
394.92	2852.82
395.13	2844.63
395.35	2777.05
395.56	2779.09
395.77	2863.06
395.98	2846.68
396.20	2850.77
396.41	2842.58
396.62	2938.84
396.84	2811.86
397.05	2852.82
397.26	2871.25
397.47	3016.66
397.69	2912.21
397.90	3063.76
398.11	3033.04
398.32	2877.40
398.54	2949.08
398.75	2846.68
398.96	2883.54
399.18	3119.06
399.39	2967.51
399.60	2922.45
399.81	2920.40
400.03	2998.23
400.24	3186.64
400.45	3071.95
400.66	3125.20
400.88	3006.42
401.09	3108.82
401.30	3176.40
401.51	3131.34
401.73	3131.34
401.94	3157.97
402.15	3258.32
402.36	3217.36
402.58	3086.29
402.79	3213.26
403.00	3108.82
403.21	3170.26
403.43	3227.60
403.64	3358.67
403.85	3243.98
404.06	3258.32
404.27	3145.68
404.49	3301.33
404.70	3170.26
404.91	3407.82
405.12	3262.41
405.34	3299.28
405.55	3340.24
405.76	3258.32
405.97	3311.57
406.19	3344.33
406.40	3262.41
406.61	3493.83
406.82	3278.80
407.03	3264.46
407.25	3215.31
407.46	3401.68
407.67	3389.39
407.88	3547.08
408.09	3327.95
408.31	3303.37
408.52	3487.69
408.73	3342.28
408.94	3366.86
409.15	3483.59
409.37	3530.70
409.58	3530.70
409.79	3436.49
410.00	3590.09
410.21	3368.91
410.43	3481.55
410.64	3405.77
410.85	3444.68
411.06	3532.75
411.27	3532.75
411.48	3612.62
411.70	3686.34
411.91	3563.47
412.12	3637.19
412.33	3557.32
412.54	3493.83
412.76	3653.58
412.97	3672.01
413.18	3467.21
413.39	3735.50
413.60	3684.30
413.81	3629.00
414.03	3682.25
414.24	3575.75
414.45	3823.56
414.66	3493.83
414.87	3692.49
415.08	3688.39
415.30	3684.30
415.51	3813.32
415.72	3710.92
415.93	3667.91
416.14	3678.15
416.35	3823.56
416.56	3712.97
416.78	3774.41
416.99	3719.11
417.20	3770.31
417.41	3819.46
417.62	3882.95
417.83	3862.47
418.04	3739.59
418.26	3944.39
418.47	3874.76
418.68	3964.87
418.89	3925.96
419.10	4020.16
419.31	3897.28
419.52	4048.83
419.73	4050.88
419.95	4054.98
420.16	3887.04
420.37	4011.97
420.58	4024.26
420.79	3885.00
421.00	4007.87
421.21	4087.75
421.42	4046.79
421.63	4130.75
421.85	4038.59
422.06	4122.56
422.27	4018.11
422.48	4014.02
422.69	4202.43
422.90	4229.06
423.11	4155.33
423.32	4292.54
423.53	4331.45
423.75	4194.24
423.96	4411.32
424.17	4302.78
424.38	4382.65
424.59	4347.84
424.80	4435.90
425.01	4300.73
425.22	4272.06
425.43	4503.48
425.64	4763.58
425.85	4622.27
426.06	4523.96
426.28	4501.44
426.49	4493.24
426.70	4530.11
426.91	4597.69
427.12	4429.76
427.33	4505.53
427.54	4472.76
427.75	4794.29
427.96	4685.75
428.17	4779.96
428.38	4782.01
428.59	4784.06
428.80	4677.56
429.01	4714.42
429.23	4779.96
429.44	4974.52
429.65	4960.18
429.86	4798.39
430.07	4841.40
430.28	4896.69
430.49	5105.59
430.70	5066.67
430.91	5083.06
431.12	4896.69
431.33	5085.11
431.54	5101.49
431.75	5038.00
431.96	4902.84
432.17	5193.65
432.38	5148.59
432.59	5257.14
432.80	5461.93
433.01	5347.25
433.22	5386.16
433.43	5205.94
433.64	5261.23
433.85	5128.11
434.06	5406.64
434.27	5156.79
434.49	5345.20
434.70	5468.08
434.91	5410.73
435.12	5613.48
435.33	5451.69
435.54	5367.73
435.75	5414.83
435.96	5382.06
436.17	5527.47
436.38	5697.45
436.59	5762.98
436.80	5633.96
437.01	5898.15
437.22	5846.95
437.43	5672.87
437.64	5455.79
437.85	5865.38
438.06	5740.46
438.27	5672.87
438.48	5691.31
438.69	5965.73
438.90	5773.22
439.11	5787.56
439.32	5945.25
439.53	5822.38
439.74	5836.71
439.95	6023.08
440.16	5857.19
440.37	6082.47
440.57	5875.62
440.78	5992.36
440.99	6016.93
441.20	5943.21
441.41	5935.01
441.62	6049.70
441.83	5951.40
442.04	6238.11
442.25	6080.42
442.46	6248.35
442.67	6340.51
442.88	6487.96
443.09	6045.60
443.30	6135.71
443.51	6299.55
443.72	6662.04
443.93	6352.80
444.14	6434.72
444.35	6246.30
444.56	6406.05
444.77	6381.47
444.98	6420.38
445.19	6420.38
445.40	6457.25
445.61	6516.64
445.81	6662.04
446.02	6625.18
446.23	6469.53
446.44	6451.10
446.65	6588.32
446.86	6625.18
447.07	6737.82
447.28	6868.89
447.49	6842.26
447.70	6713.24
447.91	6664.09
448.12	6825.88
448.33	6995.86
448.54	6971.29
448.74	6684.57
448.95	6823.83
449.16	6803.35
449.37	7192.47
449.58	6997.91
449.79	7227.28
450.00	6809.50
450.21	7079.83
450.42	7088.02
450.63	7133.08
450.84	7217.04
451.05	7280.53
451.25	7161.75
451.46	7169.94
451.67	7348.11
451.88	7419.79
452.09	7237.52
452.30	7065.49
452.51	7407.50
452.72	7397.26
452.93	7847.82
453.13	7258.00
453.34	7393.17
453.55	7335.82
453.76	7505.81
453.97	7958.41
454.18	7481.23
454.39	7767.95
454.60	7655.31
454.81	7593.87
455.01	7749.51
455.22	7370.64
455.43	7899.02
455.64	8202.11
455.85	7868.30
456.06	8132.48
456.27	7964.55
456.48	7796.62
456.68	8021.89
456.89	8021.89
457.10	8060.80
457.31	8099.72
457.52	8093.57
457.73	8163.20
457.94	8400.77
458.14	7966.60
458.35	8435.58
458.56	8501.12
458.77	8241.03
458.98	8365.95
459.19	8122.24
459.39	8413.06
459.60	8718.20
459.81	8456.06
460.02	8542.08
460.23	8537.98
460.44	8888.18
460.65	8777.59
460.85	8677.24
461.06	8869.75
461.27	8576.89
461.48	8957.82
461.69	9099.13
461.89	8675.20
462.10	9097.08
462.31	8722.30
462.52	8746.87
462.73	8986.49
462.94	9287.54
463.14	9138.04
463.35	8963.96
463.56	9592.69
463.77	9508.72
463.98	9379.70
464.18	9332.59
464.39	9609.07
464.60	9650.03
464.81	9750.38
465.02	9437.04
465.23	9906.02
465.43	9645.93
465.64	9801.58
465.85	9844.59
466.06	9750.38
466.27	10217.32
466.47	9967.46
466.68	9871.21
466.89	9897.83
467.10	10198.88
467.30	9906.02
467.51	10182.50
467.72	10471.26
467.93	10268.52
468.14	10280.80
468.34	10538.85
468.55	10315.62
468.76	10741.60
468.97	10342.24
469.17	10512.22
469.38	10821.47
469.59	10727.26
469.80	10725.21
470.01	10819.42
470.21	10932.06
470.42	11042.65
470.63	11018.07
470.84	11007.83
471.04	11163.48
471.25	11255.64
471.46	11247.44
471.67	11630.41
471.87	11341.65
472.08	11294.55
472.29	11501.39
472.50	11216.72
472.70	11452.24
472.91	11493.20
473.12	11800.40
473.33	11757.39
473.53	11986.76
473.74	11796.30
473.95	11982.67
474.16	12318.53
474.36	12361.54
474.57	12296.00
474.78	12439.36
474.99	12377.92
475.19	12224.33
475.40	12619.58
475.61	12750.65
475.81	12920.63
476.02	13014.84
476.23	12867.39
476.44	12975.93
476.64	13248.31
476.85	13494.07
477.06	13154.10
477.27	13414.20
477.47	13379.38
477.68	13473.59
477.89	13819.69
478.09	13805.36
478.30	13836.08
478.51	13575.98
478.71	13797.17
478.92	14130.98
479.13	14157.61
479.34	14235.43
479.54	14348.07
479.75	14329.64
479.96	14272.29
480.16	14315.30
480.37	14401.32
480.58	14669.60
480.78	14757.66
480.99	14638.88
481.20	14997.28
481.41	15071.00
481.61	15027.99
481.82	15394.58
482.03	15064.86
482.23	15273.75
482.44	15484.69
482.65	15660.82
482.85	15734.54
483.06	15507.22
483.27	15818.51
483.47	15961.87
483.68	15656.72
483.89	16103.18
484.09	15965.96
484.30	16181.00
484.51	16418.57
484.71	16525.06
484.92	16586.50
485.13	16647.94
485.33	16781.06
485.54	16625.41
485.75	17014.52
485.95	16922.37
486.16	17022.72
486.37	17145.59
486.57	17336.06
486.78	17262.33
486.98	17460.98
487.19	17540.85
487.40	17649.39
487.60	17653.49
487.81	17911.53
488.02	17647.35
488.22	17680.11
488.43	17886.96
488.64	18185.96
488.84	18237.16
489.05	18392.81
489.25	18261.74
489.46	18677.48
489.67	18534.12
489.87	18923.23
490.08	18781.92
490.29	18894.56
490.49	19171.04
490.70	19105.50
490.90	19269.34
491.11	19023.58
491.32	19392.22
491.52	19316.44
491.73	19431.13
491.94	19625.68
492.14	19666.64
492.35	19570.39
492.55	20225.74
492.76	20055.76
492.97	20166.35
493.17	20362.95
493.38	20123.34
493.58	20342.47
493.79	20238.03
494.00	20702.92
494.20	20356.81
494.41	20799.17
494.61	20836.03
494.82	20635.33
495.02	20836.03
495.23	21096.13
495.44	21399.23
495.64	21276.35
495.85	21501.62
496.05	21632.69
496.26	21360.31
496.47	21765.81
496.67	21624.50
496.88	22025.90
497.08	21282.49
497.29	21903.03
497.49	21980.85
497.70	21946.03
497.91	22087.34
498.11	22306.48
498.32	22703.78
498.52	22523.56
498.73	22546.09
498.93	22711.97
499.14	22402.73
499.34	22648.49
499.55	23158.43
499.76	23076.51
499.96	23154.33
500.17	23264.92
500.37	23445.15
500.58	23432.86
500.78	23588.50
500.99	23520.92
501.19	23670.42
501.40	23432.86
501.60	23385.76
501.81	23738.01
502.02	23760.53
502.22	23594.65
502.43	23967.38
502.63	24206.99
502.84	24399.50
503.04	24383.12
503.25	24411.79
503.45	24284.81
503.66	24129.17
503.86	24460.94
504.07	24657.54
504.27	24293.01
504.48	24788.61
504.68	24716.93
504.89	25058.95
505.09	24964.74
505.30	25210.50
505.50	24901.25
505.71	25245.31
505.91	25396.86
506.12	25099.90
506.32	25415.29
506.53	25273.98
506.73	25777.78
506.94	25681.53
507.14	25749.11
507.35	25884.28
507.55	25669.24
507.76	25974.39
507.96	25908.85
508.17	25882.23
508.37	25839.22
508.58	26158.70
508.78	26234.48
508.99	26488.43
509.19	26422.89
509.40	26181.23
509.60	26570.35
509.81	26443.37
510.01	26693.22
510.22	26482.28
510.42	26822.25
510.63	26582.63
510.83	26924.65
511.04	26986.08
511.24	27278.94
511.44	27219.55
511.65	27180.64
511.85	27207.26
512.06	27242.08
512.26	27432.54
512.47	27561.56
512.67	27289.18
512.88	27790.94
513.08	27596.38
513.29	27774.55
513.49	27676.25
513.69	27745.88
513.90	27651.67
514.10	27686.49
514.31	27915.86
514.51	27962.97
514.72	27911.77
514.92	28083.80
515.13	27940.44
515.33	28335.70
515.53	28608.08
515.74	28329.55
515.94	28282.45
516.15	28558.92
516.35	28157.52
516.56	28493.39
516.76	28880.46
516.96	28419.66
517.17	29105.73
517.37	28802.63
517.58	29034.05
517.78	29015.62
517.99	29083.20
518.19	29449.79
518.39	29206.08
518.60	29505.09
518.80	29244.99
519.01	29382.21
519.21	29359.68
519.41	29689.40
519.62	29496.89
519.82	30107.19
520.03	30002.74
520.23	29793.85
520.43	29746.75
520.64	30299.70
520.84	30465.58
521.05	30123.57
521.25	30139.96
521.45	30469.68
521.66	30518.83
521.86	30330.42
522.07	30379.57
522.27	30473.78
522.47	30473.78
522.68	30539.31
522.88	30846.51
523.08	30658.09
523.29	30670.38
523.49	30756.39
523.70	31258.15
523.90	31413.79
524.10	31266.34
524.31	31573.53
524.51	31335.97
524.71	31594.01
524.92	31405.60
525.12	31600.16
525.33	31553.05
525.53	31995.42
525.73	32138.77
525.94	31968.79
526.14	31872.54
526.34	32069.14
526.55	32196.12
526.75	32331.28
526.95	32521.74
527.16	32364.05
527.36	32362.00
527.56	32495.12
527.77	32992.78
527.97	32962.06
528.17	33052.17
528.38	33056.26
528.58	32890.38
528.78	32955.91
528.99	33132.04
529.19	33078.79
529.39	33035.78
529.60	33648.13
529.80	33525.25
530.00	33680.89
530.21	33658.37
530.41	33734.14
530.61	33828.35
530.82	33947.13
531.02	33799.68
531.22	33816.06
531.43	33857.02
531.63	34125.30
531.83	34246.13
532.04	34582.00
532.24	34305.52
532.44	34680.30
532.64	34743.79
532.85	34764.27
533.05	34616.82
533.25	34582.00
533.46	34702.83
533.66	35171.82
533.86	35196.39
534.07	35460.58
534.27	35169.77
534.47	35788.25
534.67	36015.58
534.88	35188.20
535.08	35263.97
535.28	36058.59
535.49	35823.07
535.69	36070.87
535.89	36126.17
536.09	36005.34
536.30	36281.81
536.50	36236.76
536.70	36171.22
536.91	36263.38
537.11	36457.94
537.31	36613.59
537.51	36453.84
537.72	36959.69
537.92	36947.40
538.12	37268.94
538.32	36871.63
538.53	37164.49
538.73	36867.53
538.93	36779.47
539.13	36992.46
539.34	36947.40
539.54	37051.85
539.74	37594.56
539.94	37604.80
540.15	37459.40
540.35	37584.32
540.55	37389.77
540.75	37305.80
540.96	37436.87
541.16	37739.97
541.36	37807.55
541.56	37828.03
541.77	38106.55
541.97	37987.77
542.17	38120.89
542.37	38180.28
542.58	38118.84
542.78	37969.34
542.98	38149.56
543.18	38356.41
543.38	38618.55
543.59	38550.96
543.79	38407.61
543.99	38593.97
544.19	38649.27
544.40	38438.33
544.60	38675.89
544.80	38530.48
545.00	38778.29
545.20	39007.66
545.41	39181.74
545.61	38696.37
545.81	39286.18
546.01	39269.80
546.21	38868.40
546.42	39374.25
546.62	39441.83
546.82	39142.83
547.02	39263.66
547.22	39359.91
547.43	39646.63
547.63	39306.66
547.83	39388.58
548.03	39202.22
548.23	39310.76
548.44	39536.04
548.64	39390.63
548.84	39959.97
549.04	39605.67
549.24	39921.05
549.45	40002.97
549.65	39849.38
549.85	39685.54
550.05	39945.63
550.25	39998.88
550.45	40500.63
550.66	39970.21
550.86	40023.45
551.06	40451.48
551.26	40486.29
551.46	40510.87
551.66	40070.56
551.87	40160.67
552.07	40529.30
552.27	40623.51
552.47	40250.78
552.67	40605.08
552.87	40336.79
553.07	40383.90
553.28	41078.16
553.48	40592.79
553.68	40703.38
553.88	40689.04
554.08	40680.85
554.28	41035.15
554.48	40457.62
554.69	41211.28
554.89	40797.59
555.09	41014.67
555.29	40777.11
555.49	41221.52
555.69	41104.78
555.89	41444.74
556.10	41207.18
556.30	40926.61
556.50	41108.88
556.70	40924.56
556.90	41309.58
557.10	41164.17
557.30	40703.38
557.50	41643.40
557.70	41231.75
557.91	41121.16
558.11	41516.42
558.31	41590.15
558.51	41260.43
558.71	41645.44
558.91	41735.56
559.11	41516.42
559.31	41471.37
559.51	41346.44
559.72	41596.29
559.92	41608.58
560.12	41383.30
560.32	41842.05
560.52	41518.47
560.72	41692.55
560.92	42032.51
561.12	41874.82
561.32	42222.97
561.52	41608.58
561.72	42607.99
561.93	41643.40
562.13	42024.32
562.33	42096.00
562.53	42728.82
562.73	41784.71
562.93	42106.24
563.13	42085.76
563.33	42145.15
563.53	42571.13
563.73	42028.41
563.93	42231.16
564.13	42515.83
564.33	42501.50
564.53	42405.24
564.74	42589.56
564.94	42448.25
565.14	42526.07
565.34	42759.54
565.54	42374.52
565.74	42665.33
565.94	42737.01
566.14	42827.12
566.34	42438.01
566.54	43054.45
566.74	42706.29
566.94	42710.39
567.14	43371.88
567.34	42837.36
567.54	43109.74
567.74	42732.92
567.94	42769.78
568.14	43023.73
568.34	43443.56
568.54	43251.05
568.74	43375.98
568.94	42931.57
569.14	43537.77
569.34	43451.75
569.54	43509.10
569.75	43132.27
569.95	43292.01
570.15	43369.83
570.35	43361.64
570.55	43431.27
570.75	43662.69
570.95	43529.58
571.15	43638.12
571.35	43664.74
571.55	44039.52
571.75	43998.56
571.95	43791.72
572.15	43855.20
572.35	43842.92
572.55	43998.56
572.75	44158.30
572.95	44082.53
573.15	43855.20
573.35	43847.01
573.55	43980.13
573.75	43961.70
573.95	44283.23
574.15	44299.61
574.35	44729.69
574.55	44225.89
574.75	44242.27
574.95	44381.53
575.15	44649.81
575.34	44780.88
575.54	44707.16
575.74	45073.74
575.94	45112.66
576.14	44578.14
576.34	44981.59
576.54	45231.44
576.74	44948.82
576.94	45180.24
577.14	45512.01
577.34	45532.49
577.54	45059.41
577.74	45266.25
577.94	45471.05
578.14	45276.49
578.34	45792.58
578.54	45378.89
578.74	45147.47
578.94	45704.52
579.14	45729.09
579.34	45641.03
579.54	45817.16
579.74	46003.52
579.94	46134.59
580.13	46359.87
580.33	46024.00
580.53	46185.79
580.73	46005.57
580.93	46273.85
581.13	45991.23
581.33	46288.19
581.53	46535.99
581.73	46431.55
581.93	46732.60
582.13	46855.48
582.33	46781.75
582.53	46896.44
582.73	47023.41
582.92	46751.03
583.12	47138.10
583.32	47203.63
583.52	46732.60
583.72	47084.85
583.92	47000.88
584.12	47220.02
584.32	47611.18
584.52	47699.24
584.72	47531.31
584.92	47719.72
585.11	47985.96
585.31	47613.23
585.51	48024.87
585.71	47863.08
585.91	48119.07
586.11	47942.95
586.31	48157.99
586.51	48071.97
586.71	48162.08
586.91	48039.20
587.10	48080.16
587.30	48522.52
587.50	48928.02
587.70	48768.28
587.90	48495.90
588.10	48401.69
588.30	48524.57
588.50	48768.28
