SpectraSuite Data File
++++++++++++++++++++++++++++++++++++
Date: Fri Jun 02 14:57:23 CEST 2017
User: INFO_000
Dark Spectrum Present: No
Reference Spectrum Present: No
Number of Sampled Component Spectra: 1
Spectrometers: USB4H00879
Integration Time (usec): 80000 (USB4H00879)
Spectra Averaged: 1 (USB4H00879)
Boxcar Smoothing: 0 (USB4H00879)
Correct for Electrical Dark: No (USB4H00879)
Strobe/Lamp Enabled: No (USB4H00879)
Correct for Detector Non-linearity: No (USB4H00879)
Correct for Stray Light: No (USB4H00879)
Number of Pixels in Processed Spectrum: 3648
>>>>>Begin Processed Spectral Data<<<<<
345.13	1241.07
345.34	1241.07
345.56	1241.07
345.78	1322.99
345.99	1310.70
346.21	1691.62
346.42	1708.01
346.64	1613.80
346.86	1730.53
347.07	1656.81
347.29	1738.73
347.50	1589.22
347.72	1646.57
347.94	1796.07
348.15	1544.17
348.37	1685.48
348.59	1695.72
348.80	1656.81
349.02	1773.54
349.23	1843.17
349.45	1826.79
349.67	1861.60
349.88	1781.73
350.10	1961.95
350.31	1841.12
350.53	1816.55
350.75	2031.58
350.96	1710.05
351.18	1839.08
351.39	1859.56
351.61	1818.60
351.82	1908.71
352.04	1943.52
352.26	1880.04
352.47	1857.51
352.69	1894.37
352.90	1785.83
353.12	1914.85
353.34	1822.69
353.55	1896.42
353.77	1834.98
353.98	1892.32
354.20	1880.04
354.41	1943.52
354.63	1945.57
354.85	2007.01
355.06	1925.09
355.28	1843.17
355.49	1880.04
355.71	1857.51
355.92	1832.93
356.14	1976.29
356.35	1808.36
356.57	1822.69
356.79	1888.23
357.00	1863.65
357.22	1935.33
357.43	1890.28
357.65	2007.01
357.86	1871.84
358.08	1916.90
358.29	1945.57
358.51	2007.01
358.72	1912.80
358.94	1933.28
359.16	1951.71
359.37	1920.99
359.59	2009.06
359.80	1929.19
360.02	2000.87
360.23	1964.00
360.45	1992.67
360.66	1949.67
360.88	1914.85
361.09	1912.80
361.31	2088.93
361.52	1892.32
361.74	2084.83
361.95	2076.64
362.17	2011.11
362.38	2058.21
362.60	2066.40
362.81	2078.69
363.03	1943.52
363.24	2019.30
363.46	2021.35
363.67	1982.43
363.89	1990.63
364.10	2027.49
364.32	1955.81
364.53	2129.89
364.75	1951.71
364.96	1976.29
365.18	2002.91
365.39	2035.68
365.61	1970.15
365.82	2164.70
366.04	2015.20
366.25	2027.49
366.47	2031.58
366.68	2105.31
366.90	1939.43
367.11	2056.16
367.33	2076.64
367.54	2113.50
367.76	2033.63
367.97	2084.83
368.19	2017.25
368.40	2119.65
368.62	1984.48
368.83	1916.90
369.05	2039.78
369.26	2062.30
369.48	2068.45
369.69	2009.06
369.91	2123.74
370.12	2029.54
370.33	2109.41
370.55	1961.95
370.76	2035.68
370.98	2088.93
371.19	2070.50
371.41	1972.19
371.62	2021.35
371.84	2023.39
372.05	2179.04
372.27	2045.92
372.48	2133.98
372.69	2031.58
372.91	2138.08
373.12	2107.36
373.34	2103.26
373.55	2181.09
373.77	2109.41
373.98	2123.74
374.20	2084.83
374.41	2250.72
374.62	2060.26
374.84	2148.32
375.05	2162.66
375.27	2140.13
375.48	2166.75
375.70	2160.61
375.91	2205.66
376.12	2232.29
376.34	2185.18
376.55	2211.81
376.77	2158.56
376.98	2080.74
377.19	2107.36
377.41	2125.79
377.62	2195.42
377.84	2314.20
378.05	2379.74
378.27	2174.94
378.48	2269.15
378.69	2361.31
378.91	2371.55
379.12	2183.13
379.34	2275.29
379.55	2248.67
379.76	2195.42
379.98	2203.61
380.19	2242.53
380.41	2303.96
380.62	2318.30
380.83	2297.82
381.05	2217.95
381.26	2490.33
381.47	2203.61
381.69	2240.48
381.90	2394.08
382.12	2361.31
382.33	2303.96
382.54	2248.67
382.76	2293.72
382.97	2277.34
383.19	2232.29
383.40	2346.97
383.61	2346.97
383.83	2271.20
384.04	2310.11
384.25	2408.41
384.47	2392.03
384.68	2478.04
384.89	2295.77
385.11	2299.87
385.32	2396.12
385.54	2260.96
385.75	2301.92
385.96	2445.27
386.18	2389.98
386.39	2338.78
386.60	2303.96
386.82	2426.84
387.03	2445.27
387.24	2414.56
387.46	2467.80
387.67	2420.70
387.88	2498.52
388.10	2519.00
388.31	2510.81
388.52	2449.37
388.74	2533.34
388.95	2398.17
389.16	2480.09
389.38	2514.91
389.59	2592.73
389.80	2615.26
390.02	2578.39
390.23	2613.21
390.44	2594.78
390.66	2502.62
390.87	2482.14
391.08	2580.44
391.30	2652.12
391.51	2586.58
391.72	2592.73
391.94	2572.25
392.15	2686.94
392.36	2660.31
392.58	2648.02
392.79	2645.98
393.00	2691.03
393.22	2742.23
393.43	2820.05
393.64	2652.12
393.85	2822.10
394.07	2760.66
394.28	2697.17
394.49	2793.43
394.71	2764.76
394.92	2856.92
395.13	2678.74
395.35	2652.12
395.56	2682.84
395.77	2754.52
395.98	2746.33
396.20	2889.68
396.41	2914.26
396.62	2775.00
396.84	2772.95
397.05	2820.05
397.26	2871.25
397.47	2940.88
397.69	2844.63
397.90	2994.13
398.11	2895.83
398.32	2889.68
398.54	2861.01
398.75	2965.46
398.96	2979.79
399.18	3041.23
399.39	2924.50
399.60	3047.38
399.81	2895.83
400.03	2932.69
400.24	3164.11
400.45	2889.68
400.66	3104.72
400.88	3000.27
401.09	3092.43
401.30	2979.79
401.51	3028.95
401.73	3174.35
401.94	3164.11
402.15	3069.91
402.36	3139.54
402.58	3092.43
402.79	3182.54
403.00	3147.73
403.21	3110.86
403.43	3241.93
403.64	3330.00
403.85	3127.25
404.06	3284.94
404.27	3078.10
404.49	3182.54
404.70	3272.65
404.91	3233.74
405.12	3217.36
405.34	3346.38
405.55	3442.64
405.76	3188.69
405.97	3223.50
406.19	3436.49
406.40	3192.78
406.61	3348.43
406.82	3330.00
407.03	3395.53
407.25	3209.17
407.46	3364.81
407.67	3403.72
407.88	3485.64
408.09	3368.91
408.31	3266.51
408.52	3413.96
408.73	3383.24
408.94	3327.95
409.15	3381.20
409.37	3434.44
409.58	3485.64
409.79	3547.08
410.00	3585.99
410.21	3497.93
410.43	3436.49
410.64	3387.34
410.85	3559.37
411.06	3577.80
411.27	3549.13
411.48	3680.20
411.70	3526.60
411.91	3557.32
412.12	3624.90
412.33	3688.39
412.54	3547.08
412.76	3626.95
412.97	3639.24
413.18	3698.63
413.39	3629.00
413.60	3745.73
413.81	3702.73
414.03	3723.21
414.24	3624.90
414.45	3805.13
414.66	3479.50
414.87	3696.58
415.08	3700.68
415.30	3782.60
415.51	3774.41
415.72	3710.92
415.93	3743.69
416.14	3841.99
416.35	3772.36
416.56	3821.51
416.78	3778.50
416.99	3784.65
417.20	3862.47
417.41	3827.65
417.62	3856.33
417.83	3901.38
418.04	3907.52
418.26	3962.82
418.47	3950.53
418.68	4097.99
418.89	3911.62
419.10	4124.61
419.31	3911.62
419.52	3964.87
419.73	4054.98
419.95	4153.28
420.16	3954.63
420.37	4046.79
420.58	4151.23
420.79	3975.11
421.00	4081.60
421.21	4143.04
421.42	4018.11
421.63	4145.09
421.85	3993.54
422.06	4206.53
422.27	4188.10
422.48	4224.96
422.69	4198.34
422.90	4214.72
423.11	4308.93
423.32	4413.37
423.53	4327.36
423.75	4315.07
423.96	4370.37
424.17	4433.85
424.38	4470.72
424.59	4466.62
424.80	4542.39
425.01	4315.07
425.22	4364.22
425.43	4495.29
425.64	4464.57
425.85	4460.48
426.06	4560.83
426.28	4483.00
426.49	4530.11
426.70	4521.92
426.91	4675.51
427.12	4757.43
427.33	4519.87
427.54	4513.72
427.75	4616.12
427.96	4984.76
428.17	4609.98
428.38	4747.19
428.59	4882.36
428.80	4808.63
429.01	4788.15
429.23	4900.79
429.44	4931.51
429.65	4923.32
429.86	4976.56
430.07	4808.63
430.28	4812.73
430.49	4917.17
430.70	5048.24
430.91	5042.10
431.12	4933.56
431.33	5128.11
431.54	5099.44
431.75	5038.00
431.96	5222.32
432.17	5033.91
432.38	5035.96
432.59	5289.90
432.80	5121.97
433.01	5201.84
433.22	5298.10
433.43	5232.56
433.64	5220.27
433.85	5140.40
434.06	5416.88
434.27	5281.71
434.49	5277.62
434.70	5455.79
434.91	5406.64
435.12	5406.64
435.33	5287.86
435.54	5363.63
435.75	5185.46
435.96	5414.83
436.17	5287.86
436.38	5550.00
436.59	5576.62
436.80	5435.31
437.01	5875.62
437.22	5900.20
437.43	5687.21
437.64	5490.60
437.85	5730.22
438.06	5617.58
438.27	5451.69
438.48	5605.29
438.69	5693.35
438.90	5699.50
439.11	5648.30
439.32	5857.19
439.53	5728.17
439.74	5734.31
439.95	5955.49
440.16	5910.44
440.37	5887.91
440.57	5681.07
440.78	5928.87
440.99	5838.76
441.20	5908.39
441.41	5836.71
441.62	5875.62
441.83	5803.94
442.04	5930.92
442.25	6033.32
442.46	5935.01
442.67	6084.52
442.88	6352.80
443.09	5990.31
443.30	6016.93
443.51	6002.60
443.72	6336.42
443.93	5994.40
444.14	6408.09
444.35	6053.80
444.56	6365.09
444.77	6332.32
444.98	6260.64
445.19	6295.46
445.40	6240.16
445.61	6301.60
445.81	6383.52
446.02	6449.05
446.23	6475.68
446.44	6217.63
446.65	6530.97
446.86	6352.80
447.07	6475.68
447.28	6467.49
447.49	6592.41
447.70	6498.20
447.91	6633.37
448.12	6569.88
448.33	6713.24
448.54	6887.32
448.74	6637.47
448.95	6588.32
449.16	6567.84
449.37	7100.31
449.58	6602.65
449.79	7006.10
450.00	6764.44
450.21	6838.17
450.42	7002.01
450.63	7016.34
450.84	6883.22
451.05	6963.09
451.25	7090.07
451.46	6997.91
451.67	7102.36
451.88	7059.35
452.09	7192.47
452.30	6961.05
452.51	7012.24
452.72	7247.76
452.93	7391.12
453.13	7229.33
453.34	7237.52
453.55	7266.19
453.76	7251.86
453.97	7479.18
454.18	7227.28
454.39	7448.46
454.60	7542.67
454.81	7516.05
455.01	7655.31
455.22	7241.62
455.43	7491.47
455.64	7720.84
455.85	7876.49
456.06	7884.68
456.27	7714.70
456.48	7774.09
456.68	7876.49
456.89	7872.39
457.10	7870.34
457.31	7907.21
457.52	7843.72
457.73	8019.85
457.94	8040.33
458.14	7942.02
458.35	8310.66
458.56	8101.76
458.77	8112.00
458.98	8236.93
459.19	8347.52
459.39	8505.21
459.60	8607.61
459.81	8368.00
460.02	8501.12
460.23	8380.29
460.44	8566.65
460.65	8628.09
460.85	8748.92
461.06	8691.58
461.27	8451.97
461.48	8818.55
461.69	9062.26
461.89	8429.44
462.10	8900.47
462.31	8712.06
462.52	8841.08
462.73	8867.70
462.94	9129.84
463.14	9068.41
463.35	9185.14
463.56	9488.24
463.77	9371.50
463.98	9197.43
464.18	9344.88
464.39	9564.01
464.60	9623.41
464.81	9521.01
465.02	9406.32
465.23	9666.41
465.43	9592.69
465.64	9824.11
465.85	9705.32
466.06	9678.70
466.27	9940.84
466.47	9985.90
466.68	10030.95
466.89	9979.75
467.10	10082.15
467.30	9971.56
467.51	10518.37
467.72	10518.37
467.93	10006.38
468.14	10157.92
468.34	10395.49
468.55	10461.02
468.76	10631.01
468.97	10354.53
469.17	10694.49
469.38	10721.12
469.59	10667.87
469.80	10686.30
470.01	10805.08
470.21	10876.76
470.42	11038.55
470.63	11188.05
470.84	10882.91
471.04	11282.26
471.25	11341.65
471.46	11138.90
471.67	11482.96
471.87	11614.03
472.08	11585.36
472.29	11595.60
472.50	11601.74
472.70	11386.71
472.91	11581.26
473.12	12087.11
473.33	11935.56
473.53	12169.03
473.74	11949.90
473.95	12539.71
474.16	12306.24
474.36	12463.94
474.57	12308.29
474.78	12631.87
474.99	12228.42
475.19	12500.80
475.40	12726.08
475.61	12898.11
475.81	12859.20
476.02	13229.88
476.23	12904.25
476.44	13297.46
476.64	13297.46
476.85	13532.98
477.06	13117.24
477.27	13582.13
477.47	13528.88
477.68	13686.58
477.89	13608.75
478.09	13827.88
478.30	14004.01
478.51	14108.46
478.71	14081.83
478.92	14231.33
479.13	14053.16
479.34	14329.64
479.54	14348.07
479.75	14421.80
479.96	14608.16
480.16	14677.79
480.37	14528.29
480.58	14845.73
480.78	14989.08
480.99	14864.16
481.20	15249.18
481.41	15331.09
481.61	15327.00
481.82	15468.31
482.03	15417.11
482.23	15548.18
482.44	15892.24
482.65	15847.18
482.85	15906.57
483.06	15908.62
483.27	15920.91
483.47	15918.86
483.68	16133.90
483.89	16230.15
484.09	16228.10
484.30	16596.74
484.51	16502.53
484.71	16713.47
484.92	16637.70
485.13	16844.54
485.33	16887.55
485.54	16725.76
485.75	17149.69
485.95	17153.79
486.16	17278.71
486.37	17551.09
486.57	17293.05
486.78	17125.11
486.98	17166.07
487.19	17590.00
487.40	17659.63
487.60	17686.26
487.81	17575.67
488.02	17862.38
488.22	17809.14
488.43	18216.68
488.64	18034.41
488.84	18192.11
489.05	18566.88
489.25	18454.25
489.46	18734.82
489.67	18757.35
489.87	18732.77
490.08	19056.35
490.29	18777.83
490.49	19250.91
490.70	19146.46
490.90	19271.39
491.11	19054.30
491.32	19508.95
491.52	19316.44
491.73	19621.59
491.94	19715.80
492.14	19584.73
492.35	20072.14
492.55	20066.00
492.76	19975.89
492.97	20086.48
493.17	20039.37
493.38	20371.15
493.58	20516.55
493.79	20405.96
494.00	20403.91
494.20	20534.98
494.41	20747.97
494.61	20772.55
494.82	20829.89
495.02	21067.45
495.23	21032.64
495.44	21026.50
495.64	21388.99
495.85	21268.16
496.05	21227.20
496.26	21311.16
496.47	21573.30
496.67	21393.08
496.88	21712.56
497.08	21481.14
497.29	22005.42
497.49	21776.05
497.70	21833.39
497.91	22062.77
498.11	22064.82
498.32	22081.20
498.52	22433.45
498.73	22621.86
498.93	22193.84
499.14	22533.80
499.34	22335.15
499.55	22832.80
499.76	22515.37
499.96	22947.49
500.17	22797.99
500.37	22912.67
500.58	22924.96
500.78	23127.71
500.99	23002.78
501.19	23172.77
501.40	23180.96
501.60	23203.49
501.81	23461.53
502.02	23457.43
502.22	23279.26
502.43	23658.14
502.63	23654.04
502.84	23711.38
503.04	23907.99
503.25	23682.71
503.45	23791.25
503.66	24059.54
503.86	24010.39
504.07	24485.51
504.27	24037.01
504.48	24620.68
504.68	24102.54
504.89	24657.54
505.09	24553.10
505.30	24434.32
505.50	24727.17
505.71	24721.03
505.91	24598.15
506.12	24919.68
506.32	25192.06
506.53	25218.69
506.73	24827.53
506.94	25259.65
507.14	24821.38
507.35	25034.37
507.55	25298.56
507.76	25353.85
507.96	25040.51
508.17	25452.16
508.37	25439.87
508.58	25568.89
508.78	25708.15
508.99	25896.56
509.19	25755.26
509.40	25882.23
509.60	25822.84
509.81	26021.49
510.01	25865.85
510.22	25904.76
510.42	25960.05
510.63	26545.77
510.83	26107.51
511.04	26523.24
511.24	26508.91
511.44	26343.02
511.65	26300.01
511.85	26592.87
512.06	26470.00
512.26	26689.13
512.47	26787.43
512.67	26709.61
512.88	26883.69
513.08	26721.90
513.29	26895.97
513.49	26961.51
513.69	26744.42
513.90	27186.79
514.10	27068.00
514.31	27199.07
514.51	27338.33
514.72	27252.32
514.92	27330.14
515.13	27647.58
515.33	27280.99
515.53	27670.11
515.74	27606.62
515.94	27733.59
516.15	27618.91
516.35	27559.52
516.56	28030.55
516.76	27989.59
516.96	27913.81
517.17	27995.73
517.37	27704.92
517.58	27811.42
517.78	28120.66
517.99	28249.68
518.19	28567.12
518.39	28243.54
518.60	28429.90
518.80	28272.21
519.01	28644.94
519.21	28669.51
519.41	28835.40
519.62	28718.67
519.82	28741.19
520.03	28579.40
520.23	28835.40
520.43	28843.59
520.64	29075.01
520.84	29394.50
521.05	29183.55
521.25	29433.41
521.45	29316.67
521.66	29484.61
521.86	29124.16
522.07	29619.77
522.27	29732.41
522.47	29845.05
522.68	30099.00
522.88	29953.59
523.08	30025.27
523.29	29808.19
523.49	30238.26
523.70	30197.30
523.90	30318.13
524.10	30176.82
524.31	30469.68
524.51	30250.55
524.71	30869.03
524.92	30508.59
525.12	30955.05
525.33	30375.47
525.53	30680.62
525.73	31071.78
525.94	31049.25
526.14	30981.67
526.34	31225.38
526.55	31108.65
526.75	31331.87
526.95	31475.23
527.16	31360.55
527.36	31530.53
527.56	31583.77
527.77	31745.56
527.97	31958.55
528.17	31772.19
528.38	31923.74
528.58	32212.50
528.78	32296.47
528.99	31723.04
529.19	32525.84
529.39	31946.26
529.60	32521.74
529.80	32419.35
530.00	32454.16
530.21	32712.20
530.41	32755.21
530.61	32712.20
530.82	32888.33
531.02	32828.94
531.22	33330.69
531.43	33261.06
531.63	33449.47
531.83	33641.98
532.04	33746.43
532.24	33314.31
532.44	33955.32
532.64	34188.79
532.85	33834.49
533.05	33848.83
533.25	34506.23
533.46	33879.55
533.66	34567.66
533.86	34039.29
534.07	34807.28
534.27	34680.30
534.47	34876.91
534.67	34833.90
534.88	34758.13
535.08	34897.39
535.28	35063.27
535.49	34952.68
535.69	35362.28
535.89	35741.15
536.09	35386.85
536.30	35696.10
536.50	35421.67
536.70	35704.29
536.91	35810.78
537.11	35823.07
537.31	36107.74
537.51	35784.16
537.72	36349.40
537.92	36347.35
538.12	36251.09
538.32	36197.85
538.53	36367.83
538.73	36597.20
538.93	36574.67
539.13	36525.52
539.34	36482.52
539.54	36761.04
539.74	36857.29
539.94	37336.52
540.15	36730.32
540.35	37246.41
540.55	37164.49
540.75	37520.84
540.96	37467.59
541.16	37348.81
541.36	37436.87
541.56	37230.02
541.77	37815.74
541.97	37871.04
542.17	37670.34
542.37	37672.39
542.58	38088.12
542.78	37864.89
542.98	38012.35
543.18	37885.37
543.38	38034.88
543.59	38555.06
543.79	38211.00
543.99	38192.57
544.19	38727.09
544.40	38045.12
544.60	38862.26
544.80	38950.32
545.00	38710.71
545.20	39177.64
545.41	38778.29
545.61	38464.95
545.81	38909.36
546.01	39228.84
546.21	38958.51
546.42	38901.17
546.62	39136.68
546.82	38897.07
547.02	39536.04
547.22	39130.54
547.43	39124.40
547.63	39503.27
547.83	39646.63
548.03	39300.52
548.23	39738.79
548.44	39325.10
548.64	39753.12
548.84	39949.73
549.04	39615.91
549.24	39843.23
549.45	40295.83
549.65	39787.94
549.85	40146.33
550.05	40353.18
550.25	39753.12
550.45	40646.04
550.66	39888.29
550.86	40181.15
551.06	40756.63
551.26	40555.93
551.46	40107.42
551.66	40215.96
551.87	40500.63
552.07	40510.87
552.27	40727.95
552.47	40539.54
552.67	40822.16
552.87	40592.79
553.07	40535.45
553.28	41131.40
553.48	40801.68
553.68	40533.40
553.88	41276.81
554.08	41307.53
554.28	40613.27
554.48	40568.21
554.69	41248.14
554.89	41397.64
555.09	41588.10
555.29	41026.96
555.49	41395.59
555.69	41649.54
555.89	41323.91
556.10	41573.77
556.30	41158.03
556.50	41506.18
556.70	41563.53
556.90	41690.50
557.10	41149.84
557.30	41362.82
557.50	41852.29
557.70	41866.63
557.91	42120.57
558.11	41846.15
558.31	41774.47
558.51	41756.03
558.71	42296.70
558.91	41979.26
559.11	42161.53
559.31	42104.19
559.51	41766.27
559.72	42272.12
559.92	42317.18
560.12	41997.70
560.32	42122.62
560.52	42079.61
560.72	42681.72
560.92	42190.20
561.12	42605.94
561.32	42612.09
561.52	42382.71
561.72	42931.57
561.93	42321.27
562.13	42607.99
562.33	42210.68
562.53	43081.07
562.73	42669.43
562.93	42524.02
563.13	42704.24
563.33	42466.68
563.53	42880.37
563.73	42440.06
563.93	42659.19
564.13	43052.40
564.33	42620.28
564.53	42761.59
564.74	43269.48
564.94	43056.50
565.14	43179.37
565.34	42710.39
565.54	43394.41
565.74	42898.80
565.94	43681.13
566.14	43269.48
566.34	43187.56
566.54	43339.11
566.74	43269.48
566.94	43525.48
567.14	43517.29
567.34	43625.83
567.54	43900.26
567.74	43341.16
567.94	42976.62
568.14	43957.60
568.34	43709.80
568.54	43734.37
568.74	44066.14
568.94	43808.10
569.14	43621.73
569.34	43783.52
569.54	43916.64
569.75	43791.72
569.95	44014.94
570.15	44279.13
570.35	43844.96
570.55	44045.66
570.75	44283.23
570.95	43652.45
571.15	44418.39
571.35	44246.36
571.55	44526.94
571.75	44367.20
571.95	44780.88
572.15	44537.18
572.35	44703.06
572.55	44643.67
572.75	44402.01
572.95	44553.56
573.15	44574.04
573.35	44840.28
573.55	44469.59
573.75	44754.26
573.95	45040.98
574.15	44619.10
574.35	44916.05
574.55	44971.35
574.75	44586.33
574.95	44948.82
575.15	44883.28
575.34	44707.16
575.54	45421.90
575.74	45337.93
575.94	45546.82
576.14	44805.46
576.34	45434.19
576.54	45587.78
576.74	45469.00
576.94	45634.89
577.14	45389.13
577.34	45374.80
577.54	45600.07
577.74	45608.26
577.94	45788.49
578.14	45849.92
578.34	46134.59
578.54	45456.71
578.74	45284.68
578.94	46097.73
579.14	45659.46
579.34	46013.76
579.54	45616.46
579.74	46732.60
579.94	45911.36
580.13	46273.85
580.33	46447.93
580.53	46241.09
580.73	46112.06
580.93	46609.72
581.13	46609.72
581.33	46828.85
581.53	46642.49
581.73	46914.87
581.93	46679.35
582.13	46992.69
582.33	46796.09
582.53	46546.23
582.73	47070.51
582.92	46914.87
583.12	47240.50
583.32	46988.60
583.52	46908.72
583.72	47179.06
583.92	46892.34
584.12	47256.88
584.32	47658.28
584.52	47539.50
584.72	47527.21
584.92	47500.59
585.11	47748.39
585.31	47760.68
585.51	47621.42
585.71	47596.84
585.91	47658.28
586.11	47711.53
586.31	48041.25
586.51	47734.06
586.71	48266.53
586.91	48354.59
587.10	48260.38
587.30	48676.12
587.50	48153.89
587.70	48147.75
587.90	48340.25
588.10	48307.49
588.30	48475.42
588.50	48473.37
