SpectraSuite Data File
++++++++++++++++++++++++++++++++++++
Date: Fri Jun 02 14:57:17 CEST 2017
User: INFO_000
Dark Spectrum Present: No
Reference Spectrum Present: No
Number of Sampled Component Spectra: 1
Spectrometers: USB4H00879
Integration Time (usec): 80000 (USB4H00879)
Spectra Averaged: 1 (USB4H00879)
Boxcar Smoothing: 0 (USB4H00879)
Correct for Electrical Dark: No (USB4H00879)
Strobe/Lamp Enabled: No (USB4H00879)
Correct for Detector Non-linearity: No (USB4H00879)
Correct for Stray Light: No (USB4H00879)
Number of Pixels in Processed Spectrum: 3648
>>>>>Begin Processed Spectral Data<<<<<
345.13	1267.69
345.34	1267.69
345.56	1267.69
345.78	1294.32
345.99	1257.45
346.21	1681.38
346.42	1701.86
346.64	1691.62
346.86	1822.69
347.07	1634.28
347.29	1765.35
347.50	1597.42
347.72	1638.38
347.94	1761.25
348.15	1556.46
348.37	1601.51
348.59	1636.33
348.80	1720.29
349.02	1742.82
349.23	1855.46
349.45	1847.27
349.67	1865.70
349.88	1796.07
350.10	1986.53
350.31	1892.32
350.53	1869.80
350.75	1990.63
350.96	1794.02
351.18	1853.41
351.39	1818.60
351.61	1830.88
351.82	1855.46
352.04	1914.85
352.26	1912.80
352.47	1837.03
352.69	1896.42
352.90	1703.91
353.12	1851.36
353.34	1804.26
353.55	1953.76
353.77	1902.56
353.98	1851.36
354.20	1871.84
354.41	1912.80
354.63	1898.47
354.85	2039.78
355.06	1873.89
355.28	1804.26
355.49	1976.29
355.71	1865.70
355.92	1908.71
356.14	1937.38
356.35	1880.04
356.57	1804.26
356.79	1875.94
357.00	1896.42
357.22	1953.76
357.43	1865.70
357.65	1959.91
357.86	1886.18
358.08	1953.76
358.29	1908.71
358.51	1996.77
358.72	2019.30
358.94	1904.61
359.16	1941.47
359.37	2004.96
359.59	1976.29
359.80	2043.87
360.02	1968.10
360.23	1951.71
360.45	2027.49
360.66	2027.49
360.88	1908.71
361.09	1859.56
361.31	1918.95
361.52	1978.34
361.74	2041.82
361.95	2054.11
362.17	1953.76
362.38	2043.87
362.60	2037.73
362.81	1990.63
363.03	1832.93
363.24	2017.25
363.46	2031.58
363.67	2074.59
363.89	2021.35
364.10	1986.53
364.32	1933.28
364.53	2072.54
364.75	1953.76
364.96	2015.20
365.18	2029.54
365.39	2035.68
365.61	1980.39
365.82	2144.22
366.04	1990.63
366.25	1929.19
366.47	1996.77
366.68	2074.59
366.90	1937.38
367.11	2052.06
367.33	2060.26
367.54	2093.02
367.76	1933.28
367.97	2107.36
368.19	2035.68
368.40	2029.54
368.62	1904.61
368.83	2099.17
369.05	2015.20
369.26	2060.26
369.48	1998.82
369.69	2084.83
369.91	2062.30
370.12	2090.98
370.33	2097.12
370.55	1951.71
370.76	2033.63
370.98	2082.78
371.19	2097.12
371.41	1970.15
371.62	2054.11
371.84	1961.95
372.05	2152.42
372.27	2045.92
372.48	2090.98
372.69	2080.74
372.91	2117.60
373.12	2154.46
373.34	2041.82
373.55	2160.61
373.77	2207.71
373.98	2117.60
374.20	2183.13
374.41	2156.51
374.62	2142.18
374.84	2183.13
375.05	2222.05
375.27	2136.03
375.48	2154.46
375.70	2203.61
375.91	2265.05
376.12	2260.96
376.34	2185.18
376.55	2220.00
376.77	2209.76
376.98	2068.45
377.19	2119.65
377.41	2148.32
377.62	2121.70
377.84	2301.92
378.05	2355.16
378.27	2152.42
378.48	2342.88
378.69	2412.51
378.91	2312.16
379.12	2318.30
379.34	2209.76
379.55	2232.29
379.76	2269.15
379.98	2293.72
380.19	2299.87
380.41	2283.49
380.62	2295.77
380.83	2273.25
381.05	2230.24
381.26	2408.41
381.47	2238.43
381.69	2240.48
381.90	2498.52
382.12	2220.00
382.33	2314.20
382.54	2363.36
382.76	2334.68
382.97	2361.31
383.19	2322.40
383.40	2332.64
383.61	2330.59
383.83	2349.02
384.04	2367.45
384.25	2410.46
384.47	2371.55
384.68	2428.89
384.89	2336.73
385.11	2414.56
385.32	2328.54
385.54	2369.50
385.75	2332.64
385.96	2418.65
386.18	2473.95
386.39	2428.89
386.60	2361.31
386.82	2398.17
387.03	2396.12
387.24	2453.47
387.46	2557.91
387.67	2475.99
387.88	2498.52
388.10	2459.61
388.31	2447.32
388.52	2643.93
388.74	2475.99
388.95	2557.91
389.16	2580.44
389.38	2502.62
389.59	2633.69
389.80	2564.06
390.02	2557.91
390.23	2619.35
390.44	2549.72
390.66	2531.29
390.87	2531.29
391.08	2627.54
391.30	2664.41
391.51	2547.67
391.72	2641.88
391.94	2635.74
392.15	2510.81
392.36	2658.26
392.58	2615.26
392.79	2639.83
393.00	2768.85
393.22	2695.13
393.43	2666.46
393.64	2801.62
393.85	2727.89
394.07	2627.54
394.28	2738.13
394.49	2754.52
394.71	2772.95
394.92	2830.29
395.13	2744.28
395.35	2674.65
395.56	2705.37
395.77	2781.14
395.98	2887.64
396.20	2869.20
396.41	2791.38
396.62	2875.35
396.84	2897.88
397.05	2834.39
397.26	2873.30
397.47	2944.98
397.69	2912.21
397.90	2955.22
398.11	2861.01
398.32	2815.96
398.54	2875.35
398.75	2887.64
398.96	2891.73
399.18	3141.58
399.39	2959.31
399.60	2877.40
399.81	2987.99
400.03	2936.79
400.24	3213.26
400.45	2967.51
400.66	3063.76
400.88	2996.18
401.09	3190.74
401.30	3164.11
401.51	3174.35
401.73	3164.11
401.94	3108.82
402.15	3024.85
402.36	3100.62
402.58	3176.40
402.79	3164.11
403.00	3108.82
403.21	3301.33
403.43	3246.03
403.64	3239.89
403.85	3051.47
404.06	3297.23
404.27	3205.07
404.49	3235.79
404.70	3086.29
404.91	3313.61
405.12	3286.99
405.34	3190.74
405.55	3514.31
405.76	3192.78
405.97	3182.54
406.19	3385.29
406.40	3233.74
406.61	3411.92
406.82	3352.52
407.03	3330.00
407.25	3342.28
407.46	3510.22
407.67	3385.29
407.88	3506.12
408.09	3411.92
408.31	3325.90
408.52	3440.59
408.73	3370.96
408.94	3317.71
409.15	3411.92
409.37	3575.75
409.58	3459.02
409.79	3495.88
410.00	3567.56
410.21	3471.31
410.43	3489.74
410.64	3413.96
410.85	3555.27
411.06	3438.54
411.27	3676.10
411.48	3788.74
411.70	3583.95
411.91	3608.52
412.12	3706.82
412.33	3661.77
412.54	3672.01
412.76	3811.27
412.97	3737.54
413.18	3645.38
413.39	3680.20
413.60	3698.63
413.81	3645.38
414.03	3624.90
414.24	3745.73
414.45	3862.47
414.66	3608.52
414.87	3768.26
415.08	3700.68
415.30	3788.74
415.51	3721.16
415.72	3686.34
415.93	3866.56
416.14	3846.09
416.35	3907.52
416.56	3907.52
416.78	3874.76
416.99	3874.76
417.20	3858.37
417.41	3981.25
417.62	3991.49
417.83	4001.73
418.04	3993.54
418.26	3934.15
418.47	3942.34
418.68	4173.76
418.89	4014.02
419.10	4231.10
419.31	3954.63
419.52	4120.51
419.73	4079.55
419.95	4227.01
420.16	3936.20
420.37	3977.16
420.58	4122.56
420.79	3794.89
421.00	4091.84
421.21	4245.44
421.42	4061.12
421.63	3999.68
421.85	4087.75
422.06	4302.78
422.27	4259.78
422.48	4222.91
422.69	4329.41
422.90	4198.34
423.11	4376.51
423.32	4257.73
423.53	4394.94
423.75	4302.78
423.96	4476.86
424.17	4403.13
424.38	4460.48
424.59	4493.24
424.80	4472.76
425.01	4530.11
425.22	4401.08
425.43	4356.03
425.64	4620.22
425.85	4579.26
426.06	4501.44
426.28	4534.20
426.49	4556.73
426.70	4440.00
426.91	4532.15
427.12	4724.66
427.33	4695.99
427.54	4636.60
427.75	4638.65
427.96	4818.87
428.17	4714.42
428.38	4822.97
428.59	4796.34
428.80	4605.88
429.01	4812.73
429.23	4884.41
429.44	4980.66
429.65	4974.52
429.86	4966.32
430.07	4829.11
430.28	4786.10
430.49	4935.60
430.70	5062.58
430.91	5074.87
431.12	4888.50
431.33	5068.72
431.54	5140.40
431.75	4986.80
431.96	5046.20
432.17	4919.22
432.38	5038.00
432.59	5205.94
432.80	5154.74
433.01	5314.48
433.22	5398.45
433.43	5265.33
433.64	5232.56
433.85	5105.59
434.06	5205.94
434.27	5253.04
434.49	5392.30
434.70	5398.45
434.91	5400.49
435.12	5525.42
435.33	5459.88
435.54	5400.49
435.75	5369.77
435.96	5504.94
436.17	5404.59
436.38	5478.32
436.59	5554.09
436.80	5423.02
437.01	5670.83
437.22	5697.45
437.43	5730.22
437.64	5511.08
437.85	5662.63
438.06	5767.08
438.27	5785.51
438.48	5646.25
438.69	5775.27
438.90	5713.83
439.11	5867.43
439.32	5699.50
439.53	5754.79
439.74	5914.53
439.95	5877.67
440.16	5900.20
440.37	5795.75
440.57	5762.98
440.78	5924.77
440.99	5842.85
441.20	5918.63
441.41	5873.57
441.62	5939.11
441.83	5812.14
442.04	5963.68
442.25	5978.02
442.46	5951.40
442.67	6023.08
442.88	6422.43
443.09	6051.75
443.30	6102.95
443.51	6287.26
443.72	6492.06
443.93	6152.10
444.14	6393.76
444.35	6229.92
444.56	6156.19
444.77	6365.09
444.98	6205.35
445.19	6391.71
445.40	6313.89
445.61	6217.63
445.81	6453.15
446.02	6592.41
446.23	6461.34
446.44	6291.36
446.65	6524.83
446.86	6578.08
447.07	6623.13
447.28	6690.71
447.49	6721.43
447.70	6473.63
447.91	6639.51
448.12	6668.19
448.33	6770.58
448.54	6746.01
448.74	6625.18
448.95	6930.33
449.16	6772.63
449.37	7014.29
449.58	6735.77
449.79	7149.46
450.00	6737.82
450.21	7004.05
450.42	7065.49
450.63	7202.71
450.84	7040.92
451.05	7200.66
451.25	6924.18
451.46	7106.45
451.67	7251.86
451.88	7278.48
452.09	7133.08
452.30	7272.34
452.51	7137.17
452.72	7358.35
452.93	7649.16
453.13	7305.10
453.34	7321.49
453.55	7511.95
453.76	7440.27
453.97	7686.03
454.18	7579.53
454.39	7694.22
454.60	7602.06
454.81	7591.82
455.01	7929.74
455.22	7507.85
455.43	7667.60
455.64	7925.64
455.85	8015.75
456.06	8157.06
456.27	8015.75
456.48	7843.72
456.68	8058.76
456.89	7866.25
457.10	8155.01
457.31	8114.05
457.52	8023.94
457.73	8269.70
457.94	8400.77
458.14	8007.56
458.35	8513.41
458.56	8327.04
458.77	8257.41
458.98	8642.43
459.19	8443.78
459.39	8628.09
459.60	8777.59
459.81	8406.91
460.02	8658.81
460.23	8402.82
460.44	8875.90
460.65	8765.31
460.85	8632.19
461.06	8955.77
461.27	8621.95
461.48	9086.84
461.69	9242.48
461.89	8683.39
462.10	9144.18
462.31	8990.58
462.52	8943.48
462.73	9111.41
462.94	9318.26
463.14	9248.63
463.35	9242.48
463.56	9459.57
463.77	9490.29
463.98	9283.44
464.18	9271.15
464.39	9631.60
464.60	9688.94
464.81	9734.00
465.02	9668.46
465.23	9916.26
465.43	9766.76
465.64	9969.51
465.85	9750.38
466.06	9625.45
466.27	9961.32
466.47	9975.66
466.68	10088.29
466.89	9875.31
467.10	10274.66
467.30	10030.95
467.51	10256.23
467.72	10577.76
467.93	10301.28
468.14	10428.26
468.34	10626.91
468.55	10600.29
468.76	10534.75
468.97	10671.97
469.17	10735.45
469.38	10717.02
469.59	10970.97
469.80	10659.68
470.01	10827.61
470.21	10987.35
470.42	10964.82
470.63	11087.70
470.84	11134.81
471.04	11206.48
471.25	11255.64
471.46	11292.50
471.67	11568.98
471.87	11319.12
472.08	11485.01
472.29	11716.43
472.50	11386.71
472.70	11556.69
472.91	11611.98
473.12	11786.06
473.33	11730.76
473.53	12117.83
473.74	11966.28
473.95	12312.39
474.16	12361.54
474.36	12263.24
474.57	12386.12
474.78	12414.79
474.99	12388.16
475.19	12304.20
475.40	12717.89
475.61	12635.97
475.81	12877.63
476.02	13147.96
476.23	12668.73
476.44	12941.11
476.64	13389.62
476.85	12941.11
477.06	13311.80
477.27	13516.59
477.47	13473.59
477.68	13410.10
477.89	13827.88
478.09	13715.25
478.30	13768.49
478.51	13858.60
478.71	14063.40
478.92	13983.53
479.13	14165.80
479.34	13981.48
479.54	14245.67
479.75	14296.87
479.96	14438.18
480.16	14313.25
480.37	14630.69
480.58	14671.65
480.78	14921.50
480.99	14958.36
481.20	14993.18
481.41	15181.59
481.61	15374.10
481.82	15048.47
482.03	15281.94
482.23	15140.63
482.44	15894.29
482.65	15697.68
482.85	15877.90
483.06	15871.76
483.27	15888.14
483.47	15875.85
483.68	16189.19
483.89	16365.32
484.09	16039.69
484.30	16289.54
484.51	16568.07
484.71	16692.99
484.92	16414.47
485.13	16490.24
485.33	16801.54
485.54	16795.39
485.75	17239.80
485.95	17004.28
486.16	17200.89
486.37	17161.98
486.57	17170.17
486.78	17331.96
486.98	17422.07
487.19	17616.63
487.40	17727.22
487.60	17848.05
487.81	17903.34
488.02	18089.71
488.22	17753.84
488.43	18145.00
488.64	18296.55
488.84	18431.72
489.05	18482.92
489.25	18441.96
489.46	18808.54
489.67	18700.00
489.87	18814.69
490.08	18855.65
490.29	19107.55
490.49	19470.04
490.70	19105.50
490.90	19502.81
491.11	19390.17
491.32	19306.20
491.52	19586.77
491.73	19570.39
491.94	19859.15
492.14	19787.47
492.35	19906.26
492.55	20324.04
492.76	20100.81
492.97	20446.92
493.17	20266.70
493.38	20530.89
493.58	20876.99
493.79	20692.68
494.00	20590.28
494.20	20876.99
494.41	21161.66
494.61	21059.26
494.82	21268.16
495.02	21159.61
495.23	21184.19
495.44	21210.81
495.64	21579.45
495.85	21647.03
496.05	21968.56
496.26	21841.59
496.47	22167.21
496.67	21931.70
496.88	22245.04
497.08	21823.16
497.29	22341.29
497.49	22335.15
497.70	22498.98
497.91	22449.83
498.11	22711.97
498.32	22853.28
498.52	22623.91
498.73	22900.39
498.93	22888.10
499.14	23066.27
499.34	23174.81
499.55	23539.35
499.76	23160.48
499.96	23439.00
500.17	23078.56
500.37	23496.35
500.58	23506.59
500.78	23598.74
500.99	23836.31
501.19	23948.95
501.40	23889.56
501.60	23746.20
501.81	24182.42
502.02	24071.82
502.22	23955.09
502.43	24336.01
502.63	24444.56
502.84	24481.42
503.04	24563.34
503.25	24495.75
503.45	24637.06
503.66	24749.70
503.86	24661.64
504.07	24882.82
504.27	24721.03
504.48	25169.54
504.68	24974.98
504.89	25355.90
505.09	25165.44
505.30	25343.61
505.50	25398.91
505.71	25374.33
505.91	25695.86
506.12	25482.88
506.32	25847.41
506.53	25587.32
506.73	25982.58
506.94	26066.55
507.14	25448.06
507.35	25912.95
507.55	25929.33
507.76	26318.45
507.96	26138.23
508.17	26345.07
508.37	26328.69
508.58	26052.21
508.78	26730.09
508.99	26564.20
509.19	26588.78
509.40	26762.86
509.60	26738.28
509.81	26893.93
510.01	26930.79
510.22	26736.23
510.42	26826.34
510.63	27328.10
510.83	26914.41
511.04	26984.04
511.24	27129.44
511.44	26979.94
511.65	27111.01
511.85	27031.14
512.06	27094.63
512.26	27348.57
512.47	27524.70
512.67	27653.72
512.88	27668.06
513.08	27698.78
513.29	27844.18
513.49	27493.98
513.69	27766.36
513.90	27637.34
514.10	27967.06
514.31	28069.46
514.51	27944.53
514.72	27844.18
514.92	27987.54
515.13	28010.07
515.33	28134.99
515.53	27987.54
515.74	28251.73
515.94	28388.94
516.15	28399.18
516.35	28077.65
516.56	28456.53
516.76	28431.95
516.96	28425.81
517.17	28819.02
517.37	28673.61
517.58	28603.98
517.78	28866.12
517.99	28935.75
518.19	28857.93
518.39	29126.21
518.60	29087.30
518.80	28999.24
519.01	29077.06
519.21	29234.75
519.41	29249.09
519.62	28761.67
519.82	29216.32
520.03	29208.13
520.23	29369.92
520.43	29523.52
520.64	29548.09
520.84	29687.36
521.05	30092.85
521.25	29898.30
521.45	29945.40
521.66	29888.06
521.86	30068.28
522.07	30094.90
522.27	29990.45
522.47	29916.73
522.68	30645.80
522.88	30240.31
523.08	30295.60
523.29	30301.75
523.49	29847.10
523.70	30412.34
523.90	30477.87
524.10	30545.45
524.31	30606.89
524.51	30287.41
524.71	31249.96
524.92	30467.63
525.12	31077.93
525.33	31012.39
525.53	31147.56
525.73	31342.11
525.94	31219.24
526.14	31387.17
526.34	31309.35
526.55	31508.00
526.75	31491.62
526.95	31727.13
527.16	31356.45
527.36	31467.04
527.56	31964.70
527.77	31798.81
527.97	32181.78
528.17	31972.89
528.38	32345.62
528.58	32167.45
528.78	32103.96
528.99	31970.84
529.19	32349.71
529.39	32534.03
529.60	32409.11
529.80	32579.09
530.00	32134.68
530.21	32708.11
530.41	32853.51
530.61	32572.94
530.82	32863.75
531.02	32886.28
531.22	33003.02
531.43	33000.97
531.63	33320.45
531.83	33365.51
532.04	33619.46
532.24	33252.87
532.44	33738.24
532.64	33799.68
532.85	33586.69
533.05	33558.02
533.25	33766.91
533.46	33787.39
533.66	34395.64
533.86	34110.97
534.07	34424.31
534.27	34323.96
534.47	34577.90
534.67	34643.44
534.88	34108.92
535.08	34573.81
535.28	34639.34
535.49	34995.69
535.69	34919.92
535.89	35014.12
536.09	34887.15
536.30	35116.52
536.50	35210.73
536.70	34854.38
536.91	35050.99
537.11	35368.42
537.31	35302.89
537.51	35507.68
537.72	36068.83
537.92	35728.86
538.12	36177.37
538.32	35419.62
538.53	35714.53
538.73	35618.27
538.93	35470.82
539.13	35882.46
539.34	35890.65
539.54	35948.00
539.74	36419.03
539.94	36314.58
540.15	36503.00
540.35	36500.95
540.55	36611.54
540.75	36883.92
540.96	36732.37
541.16	37006.80
541.36	36986.32
541.56	37150.15
541.77	37223.88
541.97	37139.91
542.17	37414.34
542.37	37426.63
542.58	37057.99
542.78	37262.79
542.98	37557.70
543.18	37338.57
543.38	37991.87
543.59	37500.36
543.79	37346.76
543.99	37559.75
544.19	37862.85
544.40	37635.52
544.60	38196.67
544.80	37821.89
545.00	37957.05
545.20	38165.95
545.41	38368.69
545.61	37967.29
545.81	38573.49
546.01	38499.76
546.21	38567.35
546.42	38374.84
546.62	38456.76
546.82	38403.51
547.02	38671.79
547.22	38622.64
547.43	38622.64
547.63	38651.31
547.83	38813.10
548.03	38682.03
548.23	39495.08
548.44	39237.03
548.64	39386.54
548.84	39198.12
549.04	39400.87
549.24	39331.24
549.45	39896.48
549.65	39646.63
549.85	39153.07
550.05	39937.44
550.25	39685.54
550.45	40478.10
550.66	40066.46
550.86	39751.07
551.06	39884.19
551.26	40082.84
551.46	40557.97
551.66	40385.94
551.87	40138.14
552.07	40656.28
552.27	40482.20
552.47	40277.40
552.67	40230.30
552.87	40672.66
553.07	40879.50
553.28	40670.61
553.48	40693.14
553.68	40785.30
553.88	40891.79
554.08	40813.97
554.28	40940.94
554.48	41039.25
554.69	41149.84
554.89	41321.87
555.09	41600.39
555.29	40994.19
555.49	41790.85
555.69	41487.75
555.89	41362.82
556.10	41817.47
556.30	41354.63
556.50	41674.12
556.70	41532.81
556.90	41518.47
557.10	41631.11
557.30	41848.19
557.50	41858.43
557.70	42171.77
557.91	42276.22
558.11	41901.44
558.31	42362.23
558.51	41876.86
558.71	42335.61
558.91	42292.60
559.11	42564.98
559.31	42057.09
559.51	42413.43
559.72	42558.84
559.92	42710.39
560.12	42607.99
560.32	42710.39
560.52	42378.62
560.72	43314.54
560.92	43183.47
561.12	43279.72
561.32	43396.46
561.52	43160.94
561.72	43269.48
561.93	43128.17
562.13	43275.63
562.33	42976.62
562.53	43365.74
562.73	43056.50
562.93	43228.52
563.13	43550.06
563.33	43505.00
563.53	43820.39
563.73	43203.95
563.93	43337.07
564.13	44258.65
564.33	43738.47
564.53	43728.23
564.74	43994.46
564.94	43959.65
565.14	44350.81
565.34	44006.75
565.54	44469.59
565.74	44111.20
565.94	44631.38
566.14	44178.78
566.34	44608.86
566.54	44944.72
566.74	43965.79
566.94	44451.16
567.14	44905.81
567.34	44143.97
567.54	45237.58
567.74	44643.67
567.94	44774.74
568.14	44637.53
568.34	44846.42
568.54	44735.83
568.74	44885.33
568.94	44789.08
569.14	45182.29
569.34	44946.77
569.54	45276.49
569.75	44746.07
569.95	45047.12
570.15	45782.34
570.35	45231.44
570.55	45335.88
570.75	45851.97
570.95	45575.50
571.15	45604.17
571.35	45487.43
571.55	45815.11
571.75	45612.36
571.95	46056.77
572.15	45907.27
572.35	46083.39
572.55	46243.13
572.75	46370.11
572.95	45860.16
573.15	46077.25
573.35	46132.54
573.55	46433.60
573.75	46312.77
573.95	46443.84
574.15	46048.58
574.35	46163.26
574.55	46486.84
574.75	46153.02
574.95	46824.76
575.15	46331.20
575.34	46396.73
575.54	46767.41
575.74	46808.37
575.94	46902.58
576.14	46675.26
576.34	47121.71
576.54	47064.37
576.74	47289.65
576.94	47088.95
577.14	47232.30
577.34	47449.39
577.54	47289.65
577.74	47498.54
577.94	47551.79
578.14	47330.61
578.34	47564.07
578.54	46558.52
578.74	47846.69
578.94	47822.12
579.14	47336.75
579.34	47613.23
579.54	47740.20
579.74	48506.14
579.94	47797.54
580.13	48260.38
580.33	48162.08
580.53	48094.50
580.73	48393.50
580.93	48436.51
581.13	48432.41
581.33	48682.27
581.53	48291.10
581.73	48297.25
581.93	48641.31
582.13	48237.86
582.33	48999.70
582.53	48608.54
582.73	48735.51
582.92	48715.03
583.12	48921.88
583.32	48710.94
583.52	48891.16
583.72	49173.78
583.92	48944.41
584.12	49061.14
584.32	49229.07
584.52	49153.30
584.72	49208.59
584.92	49198.35
585.11	49966.34
585.31	49521.93
585.51	49222.93
585.71	49341.71
585.91	49435.92
586.11	49569.04
586.31	49345.81
586.51	49333.52
586.71	49560.84
586.91	49972.49
587.10	49698.06
587.30	49872.14
587.50	49935.62
587.70	49804.55
587.90	50248.96
588.10	50093.32
588.30	49849.61
588.50	50599.16
