SpectraSuite Data File
++++++++++++++++++++++++++++++++++++
Date: Fri Jun 02 14:57:20 CEST 2017
User: INFO_000
Dark Spectrum Present: No
Reference Spectrum Present: No
Number of Sampled Component Spectra: 1
Spectrometers: USB4H00879
Integration Time (usec): 80000 (USB4H00879)
Spectra Averaged: 1 (USB4H00879)
Boxcar Smoothing: 0 (USB4H00879)
Correct for Electrical Dark: No (USB4H00879)
Strobe/Lamp Enabled: No (USB4H00879)
Correct for Detector Non-linearity: No (USB4H00879)
Correct for Stray Light: No (USB4H00879)
Number of Pixels in Processed Spectrum: 3648
>>>>>Begin Processed Spectral Data<<<<<
345.13	1257.45
345.34	1257.45
345.56	1257.45
345.78	1329.13
345.99	1284.08
346.21	1748.97
346.42	1697.77
346.64	1675.24
346.86	1740.77
347.07	1671.14
347.29	1710.05
347.50	1646.57
347.72	1687.53
347.94	1732.58
348.15	1566.70
348.37	1652.71
348.59	1787.88
348.80	1656.81
349.02	1734.63
349.23	1871.84
349.45	1771.49
349.67	1959.91
349.88	1828.84
350.10	1939.43
350.31	1839.08
350.53	1810.40
350.75	2000.87
350.96	1880.04
351.18	1849.32
351.39	1880.04
351.61	1771.49
351.82	1853.41
352.04	1945.57
352.26	1839.08
352.47	1867.75
352.69	1869.80
352.90	1732.58
353.12	1925.09
353.34	1865.70
353.55	1959.91
353.77	1869.80
353.98	1865.70
354.20	1824.74
354.41	1904.61
354.63	2013.15
354.85	2000.87
355.06	1886.18
355.28	1806.31
355.49	1910.75
355.71	1875.94
355.92	1863.65
356.14	1947.62
356.35	1810.40
356.57	1863.65
356.79	1953.76
357.00	1918.95
357.22	1968.10
357.43	1859.56
357.65	1912.80
357.86	1894.37
358.08	1912.80
358.29	1933.28
358.51	1984.48
358.72	2088.93
358.94	1982.43
359.16	1927.14
359.37	1908.71
359.59	1900.52
359.80	2041.82
360.02	1918.95
360.23	1980.39
360.45	2015.20
360.66	1918.95
360.88	1867.75
361.09	1923.04
361.31	1998.82
361.52	2017.25
361.74	2056.16
361.95	2043.87
362.17	1890.28
362.38	2121.70
362.60	1943.52
362.81	2000.87
363.03	1912.80
363.24	1968.10
363.46	2138.08
363.67	1996.77
363.89	1984.48
364.10	2035.68
364.32	1904.61
364.53	2027.49
364.75	1898.47
364.96	2013.15
365.18	1959.91
365.39	1959.91
365.61	2009.06
365.82	2078.69
366.04	1978.34
366.25	2017.25
366.47	2066.40
366.68	2019.30
366.90	2115.55
367.11	2121.70
367.33	2107.36
367.54	2074.59
367.76	2025.44
367.97	2078.69
368.19	2080.74
368.40	2072.54
368.62	1992.67
368.83	2021.35
369.05	2047.97
369.26	1941.47
369.48	1998.82
369.69	2025.44
369.91	2039.78
370.12	2039.78
370.33	2125.79
370.55	1996.77
370.76	2070.50
370.98	2111.46
371.19	2099.17
371.41	2017.25
371.62	2002.91
371.84	2017.25
372.05	2211.81
372.27	2093.02
372.48	2064.35
372.69	2123.74
372.91	2150.37
373.12	2228.19
373.34	2037.73
373.55	2154.46
373.77	2238.43
373.98	2140.13
374.20	2148.32
374.41	2297.82
374.62	2172.89
374.84	2111.46
375.05	2152.42
375.27	2119.65
375.48	2093.02
375.70	2224.09
375.91	2244.57
376.12	2334.68
376.34	2224.09
376.55	2176.99
376.77	2234.33
376.98	2105.31
377.19	2172.89
377.41	2101.22
377.62	2131.94
377.84	2328.54
378.05	2258.91
378.27	2179.04
378.48	2379.74
378.69	2310.11
378.91	2256.86
379.12	2236.38
379.34	2260.96
379.55	2279.39
379.76	2285.53
379.98	2213.85
380.19	2215.90
380.41	2320.35
380.62	2316.25
380.83	2254.81
381.05	2201.57
381.26	2400.22
381.47	2283.49
381.69	2258.91
381.90	2351.07
382.12	2312.16
382.33	2215.90
382.54	2242.53
382.76	2318.30
382.97	2297.82
383.19	2197.47
383.40	2449.37
383.61	2338.78
383.83	2197.47
384.04	2320.35
384.25	2424.80
384.47	2457.56
384.68	2357.21
384.89	2324.44
385.11	2396.12
385.32	2369.50
385.54	2428.89
385.75	2310.11
385.96	2389.98
386.18	2392.03
386.39	2449.37
386.60	2389.98
386.82	2408.41
387.03	2439.13
387.24	2525.15
387.46	2422.75
387.67	2437.08
387.88	2543.58
388.10	2496.47
388.31	2559.96
388.52	2590.68
388.74	2545.63
388.95	2488.28
389.16	2559.96
389.38	2496.47
389.59	2531.29
389.80	2490.33
390.02	2602.97
390.23	2639.83
390.44	2521.05
390.66	2539.48
390.87	2488.28
391.08	2596.82
391.30	2613.21
391.51	2596.82
391.72	2633.69
391.94	2527.19
392.15	2617.30
392.36	2514.91
392.58	2502.62
392.79	2762.71
393.00	2654.17
393.22	2775.00
393.43	2822.10
393.64	2721.75
393.85	2744.28
394.07	2650.07
394.28	2686.94
394.49	2854.87
394.71	2686.94
394.92	2920.40
395.13	2707.41
395.35	2789.33
395.56	2652.12
395.77	2881.49
395.98	2744.28
396.20	2877.40
396.41	2766.81
396.62	2834.39
396.84	2785.24
397.05	2906.07
397.26	2920.40
397.47	2971.60
397.69	2824.15
397.90	2992.08
398.11	2877.40
398.32	2856.92
398.54	2887.64
398.75	2963.41
398.96	2930.64
399.18	3145.68
399.39	2951.12
399.60	3012.56
399.81	2936.79
400.03	2928.60
400.24	3219.41
400.45	2932.69
400.66	3137.49
400.88	2955.22
401.09	3176.40
401.30	3090.38
401.51	3188.69
401.73	3184.59
401.94	3123.15
402.15	3243.98
402.36	3096.53
402.58	3174.35
402.79	3223.50
403.00	3266.51
403.21	3266.51
403.43	3227.60
403.64	3270.61
403.85	3153.87
404.06	3184.59
404.27	3160.02
404.49	3157.97
404.70	3186.64
404.91	3330.00
405.12	3231.69
405.34	3252.17
405.55	3325.90
405.76	3162.06
405.97	3336.14
406.19	3545.03
406.40	3129.30
406.61	3348.43
406.82	3379.15
407.03	3383.24
407.25	3239.89
407.46	3424.20
407.67	3436.49
407.88	3538.89
408.09	3450.83
408.31	3340.24
408.52	3387.34
408.73	3260.37
408.94	3399.63
409.15	3434.44
409.37	3540.94
409.58	3395.53
409.79	3432.40
410.00	3538.89
410.21	3547.08
410.43	3416.01
410.64	3442.64
410.85	3456.97
411.06	3573.71
411.27	3506.12
411.48	3565.51
411.70	3622.86
411.91	3624.90
412.12	3649.48
412.33	3657.67
412.54	3594.19
412.76	3690.44
412.97	3600.33
413.18	3452.88
413.39	3637.19
413.60	3524.55
413.81	3688.39
414.03	3649.48
414.24	3639.24
414.45	3837.89
414.66	3516.36
414.87	3815.37
415.08	3710.92
415.30	3864.52
415.51	3868.61
415.72	3684.30
415.93	3788.74
416.14	3817.41
416.35	3839.94
416.56	3758.02
416.78	3934.15
416.99	3798.98
417.20	3704.78
417.41	3901.38
417.62	3942.34
417.83	4048.83
418.04	3880.90
418.26	3930.05
418.47	3893.19
418.68	4022.21
418.89	3962.82
419.10	4079.55
419.31	4009.92
419.52	3946.44
419.73	3999.68
419.95	4235.20
420.16	3909.57
420.37	4151.23
420.58	3921.86
420.79	3887.04
421.00	4095.94
421.21	4048.83
421.42	4059.07
421.63	4122.56
421.85	4102.08
422.06	4118.47
422.27	4165.57
422.48	4179.90
422.69	4190.14
422.90	4163.52
423.11	4128.70
423.32	4245.44
423.53	4401.08
423.75	4292.54
423.96	4364.22
424.17	4335.55
424.38	4526.01
424.59	4319.17
424.80	4548.54
425.01	4319.17
425.22	4370.37
425.43	4317.12
425.64	4644.79
425.85	4583.35
426.06	4562.87
426.28	4421.56
426.49	4419.52
426.70	4483.00
426.91	4388.80
427.12	4585.40
427.33	4485.05
427.54	4564.92
427.75	4681.66
427.96	4767.67
428.17	4591.55
428.38	4724.66
428.59	4747.19
428.80	4722.62
429.01	4779.96
429.23	4792.25
429.44	4843.45
429.65	4886.45
429.86	4902.84
430.07	4804.53
430.28	4755.38
430.49	4849.59
430.70	5162.93
430.91	5038.00
431.12	4892.60
431.33	4982.71
431.54	5046.20
431.75	5058.48
431.96	5117.87
432.17	5058.48
432.38	5150.64
432.59	5144.50
432.80	5236.66
433.01	5255.09
433.22	5185.46
433.43	5158.83
433.64	5257.14
433.85	5064.63
434.06	5363.63
434.27	5273.52
434.49	5302.19
434.70	5269.42
434.91	5484.46
435.12	5590.95
435.33	5373.87
435.54	5359.53
435.75	5244.85
435.96	5359.53
436.17	5484.46
436.38	5476.27
436.59	5550.00
436.80	5298.10
437.01	5693.35
437.22	5709.74
437.43	5531.56
437.64	5418.93
437.85	5738.41
438.06	5767.08
438.27	5590.95
438.48	5695.40
438.69	5910.44
438.90	5719.98
439.11	5681.07
439.32	5838.76
439.53	5805.99
439.74	5955.49
439.95	5830.57
440.16	5795.75
440.37	5787.56
440.57	5599.15
440.78	5875.62
440.99	5941.16
441.20	5935.01
441.41	5838.76
441.62	6018.98
441.83	5906.34
442.04	6115.23
442.25	5969.83
442.46	6123.43
442.67	6148.00
442.88	6449.05
443.09	6057.89
443.30	6213.54
443.51	6006.69
443.72	6397.85
443.93	6148.00
444.14	6473.63
444.35	6014.88
444.56	6154.15
444.77	6363.04
444.98	6328.22
445.19	6279.07
445.40	6375.33
445.61	6375.33
445.81	6432.67
446.02	6373.28
446.23	6473.63
446.44	6387.61
446.65	6420.38
446.86	6543.26
447.07	6608.80
447.28	6746.01
447.49	6637.47
447.70	6543.26
447.91	6748.06
448.12	6629.27
448.33	6768.54
448.54	6807.45
448.74	6641.56
448.95	6856.60
449.16	6922.13
449.37	6967.19
449.58	6901.65
449.79	7098.26
450.00	6776.73
450.21	7004.05
450.42	7045.01
450.63	7376.78
450.84	6844.31
451.05	7053.20
451.25	7051.16
451.46	6913.94
451.67	7229.33
451.88	7292.82
452.09	7190.42
452.30	7192.47
452.51	7258.00
452.72	7495.57
452.93	7452.56
453.13	7251.86
453.34	7212.95
453.55	7432.08
453.76	7268.24
453.97	7610.25
454.18	7450.51
454.39	7511.95
454.60	7430.03
454.81	7557.00
455.01	7776.14
455.22	7483.28
455.43	7647.12
455.64	7833.48
455.85	7989.13
456.06	8087.43
456.27	7913.35
456.48	7780.23
456.68	7892.87
456.89	7972.74
457.10	7929.74
457.31	7966.60
457.52	7808.90
457.73	8146.82
457.94	8419.20
458.14	8077.19
458.35	8523.65
458.56	8265.60
458.77	8097.67
458.98	8275.84
459.19	8324.99
459.39	8472.45
459.60	8662.91
459.81	8439.68
460.02	8634.24
460.23	8613.76
460.44	8738.68
460.65	8851.32
460.85	8710.01
461.06	8920.95
461.27	8591.23
461.48	8906.62
461.69	9006.97
461.89	8781.69
462.10	8931.19
462.31	8726.39
462.52	9037.69
462.73	9043.83
462.94	9281.39
463.14	9297.78
463.35	9191.28
463.56	9580.40
463.77	9539.44
463.98	9391.98
464.18	9346.93
464.39	9531.25
464.60	9725.80
464.81	9643.88
465.02	9568.11
465.23	9781.10
465.43	9449.33
465.64	9953.13
465.85	9879.40
466.06	9826.15
466.27	10159.97
466.47	9996.14
466.68	10176.36
466.89	10116.97
467.10	10194.79
467.30	10278.76
467.51	10301.28
467.72	10422.11
467.93	10254.18
468.14	10579.81
468.34	10504.03
468.55	10620.77
468.76	10575.71
468.97	10493.79
469.17	10684.25
469.38	10870.62
469.59	10952.54
469.80	10866.52
470.01	11038.55
470.21	10962.78
470.42	11124.57
470.63	11128.66
470.84	11202.39
471.04	11390.80
471.25	11349.84
471.46	11476.82
471.67	11476.82
471.87	11503.44
472.08	11581.26
472.29	11994.95
472.50	11372.37
472.70	11544.40
472.91	11603.79
473.12	12001.10
473.33	11835.21
473.53	12119.88
473.74	12179.27
473.95	12128.07
474.16	12371.78
474.36	12300.10
474.57	12552.00
474.78	12568.38
474.99	12619.58
475.19	12332.87
475.40	12834.62
475.61	12865.34
475.81	13074.23
476.02	13170.49
476.23	12945.21
476.44	13137.72
476.64	13346.61
476.85	13453.11
477.06	13424.44
477.27	13604.66
477.47	13831.98
477.68	13786.93
477.89	13915.95
478.09	13682.48
478.30	14087.98
478.51	13940.52
478.71	14178.09
478.92	14010.15
479.13	14079.79
479.34	14657.31
479.54	14556.96
479.75	14497.57
479.96	14554.91
480.16	14475.04
480.37	14737.18
480.58	14915.36
480.78	14876.44
480.99	14970.65
481.20	15286.04
481.41	15308.57
481.61	15355.67
481.82	15709.97
482.03	15593.23
482.23	15273.75
482.44	15650.58
482.65	15953.68
482.85	15933.20
483.06	16058.12
483.27	15896.33
483.47	15968.01
483.68	16301.83
483.89	16224.01
484.09	16273.16
484.30	16256.78
484.51	16568.07
484.71	16606.98
484.92	16551.68
485.13	16600.83
485.33	16813.82
485.54	16615.17
485.75	17141.50
485.95	17069.82
486.16	17104.64
486.37	16957.18
486.57	17379.06
486.78	17379.06
486.98	17225.47
487.19	17661.68
487.40	17712.88
487.60	17686.26
487.81	17942.25
488.02	17796.85
488.22	17905.39
488.43	18116.33
488.64	18181.87
488.84	18437.86
489.05	18294.50
489.25	18368.23
489.46	18775.78
489.67	18781.92
489.87	18917.09
490.08	18970.33
490.29	18605.80
490.49	18919.14
490.70	19115.74
490.90	19015.39
491.11	19377.88
491.32	19259.10
491.52	19289.82
491.73	19500.76
491.94	19424.98
492.14	19457.75
492.35	19736.27
492.55	19922.64
492.76	19828.43
492.97	19910.35
493.17	19996.37
493.38	19863.25
493.58	20610.76
493.79	20299.47
494.00	20213.45
494.20	20395.72
494.41	20727.49
494.61	20610.76
494.82	20604.61
495.02	20842.18
495.23	20805.31
495.44	21155.52
495.64	21089.98
495.85	21208.76
496.05	21259.96
496.26	21229.24
496.47	21606.07
496.67	21329.59
496.88	21714.61
497.08	21276.35
497.29	21941.94
497.49	21483.19
497.70	21661.37
497.91	21890.74
498.11	22052.53
498.32	22347.44
498.52	22009.52
498.73	22404.78
498.93	22482.60
499.14	22523.56
499.34	22292.14
499.55	22494.89
499.76	22537.90
499.96	22494.89
500.17	22967.97
500.37	22679.21
500.58	22931.11
500.78	22867.62
500.99	23273.12
501.19	23324.32
501.40	23174.81
501.60	23082.66
501.81	23115.42
502.02	23371.42
502.22	23269.02
502.43	23633.56
502.63	23738.01
502.84	23674.52
503.04	23785.11
503.25	23809.68
503.45	23602.84
503.66	23801.49
503.86	24004.24
504.07	24247.95
504.27	23994.00
504.48	24198.80
504.68	24182.42
504.89	24622.73
505.09	24682.12
505.30	24909.44
505.50	24491.66
505.71	24790.66
505.91	24741.51
506.12	24825.48
506.32	24755.85
506.53	24938.12
506.73	24718.98
506.94	24950.40
507.14	25085.57
507.35	25357.95
507.55	24954.50
507.76	25087.62
507.96	25089.67
508.17	25419.39
508.37	25429.63
508.58	25523.83
508.78	25718.39
508.99	25802.36
509.19	25691.77
509.40	26058.35
509.60	25525.88
509.81	25804.41
510.01	25929.33
510.22	25722.49
510.42	25847.41
510.63	26439.28
510.83	25998.96
511.04	26277.49
511.24	26412.65
511.44	26273.39
511.65	26500.72
511.85	26281.58
512.06	26607.21
512.26	26535.53
512.47	27139.68
512.67	26515.05
512.88	27078.24
513.08	26650.22
513.29	26908.26
513.49	26932.84
513.69	26957.41
513.90	27106.91
514.10	27162.21
514.31	27375.20
514.51	27356.77
514.72	27205.22
514.92	27620.95
515.13	27450.97
515.33	27627.10
515.53	27741.78
515.74	27807.32
515.94	27641.43
516.15	27782.74
516.35	27743.83
516.56	28012.12
516.76	27807.32
516.96	27907.67
517.17	28016.21
517.37	28331.60
517.58	28323.41
517.78	28530.25
517.99	28384.85
518.19	28663.37
518.39	28900.94
518.60	28849.74
518.80	28710.47
519.01	28776.01
519.21	28993.09
519.41	28964.42
519.62	28933.70
519.82	28798.54
520.03	29365.82
520.23	29322.82
520.43	29234.75
520.64	29627.96
520.84	29498.94
521.05	29298.24
521.25	29937.21
521.45	29537.85
521.66	29595.20
521.86	29546.05
522.07	29619.77
522.27	29781.56
522.47	29767.23
522.68	30340.66
522.88	30152.24
523.08	30344.75
523.29	30225.97
523.49	30639.66
523.70	30455.34
523.90	30694.96
524.10	30676.52
524.31	30948.90
524.51	30330.42
524.71	31161.89
524.92	30860.84
525.12	31084.07
525.33	31325.73
525.53	31628.83
525.73	31528.48
525.94	31725.08
526.14	31510.05
526.34	31784.48
526.55	31948.31
526.75	31780.38
526.95	32149.01
527.16	32194.07
527.36	31495.71
527.56	32054.81
527.77	32593.42
527.97	32343.57
528.17	32030.23
528.38	32732.68
528.58	32607.76
528.78	32759.31
528.99	32646.67
529.19	33084.94
529.39	32736.78
529.60	33287.68
529.80	32808.46
530.00	33019.40
530.21	33338.88
530.41	33549.82
530.61	33752.57
530.82	33566.21
531.02	33736.19
531.22	34201.08
531.43	33768.96
531.63	33914.36
531.83	34196.98
532.04	34385.40
532.24	34289.14
532.44	34762.22
532.64	34794.99
532.85	34559.47
533.05	34553.33
533.25	34821.61
533.46	34889.20
533.66	34901.48
533.86	35128.81
534.07	35198.44
534.27	35319.27
534.47	35694.05
534.67	35460.58
534.88	35644.90
535.08	35605.98
535.28	35880.41
535.49	35870.17
535.69	35900.89
535.89	36277.72
536.09	36181.46
536.30	36113.88
536.50	36048.35
536.70	36357.59
536.91	36507.09
537.11	36554.19
537.31	36724.18
537.51	36593.11
537.72	36863.44
537.92	36896.20
538.12	37172.68
538.32	37006.80
538.53	37123.53
538.73	37463.49
538.93	37166.54
539.13	37150.15
539.34	37422.53
539.54	37316.04
539.74	37844.41
539.94	37627.33
540.15	37883.33
540.35	37889.47
540.55	37864.89
540.75	37586.37
540.96	38073.79
541.16	37737.92
541.36	38348.21
541.56	38221.24
541.77	38616.50
541.97	38434.23
542.17	38284.73
542.37	38528.44
542.58	38536.63
542.78	38919.60
542.98	38546.87
543.18	38712.75
543.38	38854.06
543.59	38823.34
543.79	38778.29
543.99	38940.08
544.19	39261.61
544.40	39183.79
544.60	39175.59
544.80	39396.77
545.00	38921.65
545.20	39566.76
545.41	39183.79
545.61	39611.81
545.81	39624.10
546.01	39667.11
546.21	39445.93
546.42	39849.38
546.62	39855.52
546.82	39646.63
547.02	39708.07
547.22	39919.01
547.43	39953.82
547.63	40054.17
547.83	40191.39
548.03	39904.67
548.23	40142.24
548.44	40105.37
548.64	40156.57
548.84	40189.34
549.04	40322.46
549.24	40613.27
549.45	40811.92
549.65	40514.97
549.85	40770.96
550.05	41006.48
550.25	40707.47
550.45	41401.74
550.66	40768.91
550.86	40662.42
551.06	41059.73
551.26	40912.27
551.46	41117.07
551.66	41076.11
551.87	40689.04
552.07	41153.93
552.27	41416.07
552.47	40998.29
552.67	40992.14
552.87	41137.55
553.07	41461.13
553.28	41743.75
553.48	41315.72
553.68	41330.06
553.88	41903.49
554.08	41334.15
554.28	41907.58
554.48	41115.02
554.69	41629.06
554.89	41575.81
555.09	41321.87
555.29	41633.16
555.49	41741.70
555.69	41676.16
555.89	41401.74
556.10	41526.66
556.30	41780.61
556.50	42184.06
556.70	41825.67
556.90	42177.92
557.10	41885.06
557.30	42376.57
557.50	42161.53
557.70	42319.23
557.91	42300.79
558.11	42311.03
558.31	42491.26
558.51	42251.64
558.71	42438.01
558.91	42440.06
559.11	41809.28
559.31	42472.82
559.51	42114.43
559.72	42718.58
559.92	42853.75
560.12	42481.02
560.32	42296.70
560.52	42468.73
560.72	42417.53
560.92	42790.26
561.12	42575.22
561.32	42950.00
561.52	42311.03
561.72	42853.75
561.93	42507.64
562.13	42773.88
562.33	42521.98
562.53	43152.75
562.73	42599.80
562.93	42364.28
563.13	42845.55
563.33	42999.15
563.53	42923.38
563.73	42407.29
563.93	42814.83
564.13	43132.27
564.33	43101.55
564.53	43203.95
564.74	43296.11
564.94	42616.18
565.14	43197.80
565.34	42863.99
565.54	42941.81
565.74	43128.17
565.94	43267.44
566.14	43132.27
566.34	43134.32
566.54	43832.68
566.74	43330.92
566.94	43468.14
567.14	43722.08
567.34	43443.56
567.54	43640.17
567.74	43392.36
567.94	43384.17
568.14	43908.45
568.34	43949.41
568.54	43392.36
568.74	43799.91
568.94	43736.42
569.14	43840.87
569.34	43619.69
569.54	43937.12
569.75	43332.97
569.95	44060.00
570.15	44371.29
570.35	44096.86
570.55	43791.72
570.75	43861.35
570.95	44182.88
571.15	44205.41
571.35	44090.72
571.55	44510.55
571.75	44498.26
571.95	44111.20
572.15	43976.03
572.35	44164.45
572.55	44391.77
572.75	43896.16
572.95	44334.43
573.15	44617.05
573.35	44094.82
573.55	44186.97
573.75	44322.14
573.95	44567.90
574.15	44627.29
574.35	44492.12
574.55	44533.08
574.75	44408.15
574.95	44512.60
575.15	44223.84
575.34	44795.22
575.54	44694.87
575.74	45012.31
575.94	45309.26
576.14	44787.03
576.34	45260.11
576.54	45241.68
576.74	45270.35
576.94	45147.47
577.14	45485.39
577.34	45200.72
577.54	45145.42
577.74	44969.30
577.94	45036.88
578.14	45305.16
578.34	45897.03
578.54	44901.71
578.74	45432.14
578.94	45610.31
579.14	45450.57
579.34	45628.74
579.54	45708.61
579.74	45888.84
579.94	45714.76
580.13	45667.66
580.33	45860.16
580.53	45790.53
580.73	45856.07
580.93	46044.48
581.13	45841.73
581.33	46372.16
581.53	46517.56
581.73	46191.94
581.93	46183.74
582.13	46576.95
582.33	46597.43
582.53	46353.72
582.73	46411.07
582.92	46511.42
583.12	46671.16
583.32	46406.97
583.52	46583.10
583.72	46863.67
583.92	46566.71
584.12	46619.96
584.32	47469.87
584.52	46972.21
584.72	47041.84
584.92	47283.50
585.11	47527.21
585.31	46839.09
585.51	47068.47
585.71	46671.16
585.91	47777.06
586.11	47244.59
586.31	47316.27
586.51	47506.73
586.71	47174.96
586.91	48092.45
587.10	48035.11
587.30	47736.10
587.50	47768.87
587.70	47881.51
587.90	47658.28
588.10	47660.33
588.30	47985.96
588.50	48217.38
