SpectraSuite Data File
++++++++++++++++++++++++++++++++++++
Date: Fri Jun 02 14:57:20 CEST 2017
User: INFO_000
Dark Spectrum Present: No
Reference Spectrum Present: No
Number of Sampled Component Spectra: 1
Spectrometers: USB4H00879
Integration Time (usec): 80000 (USB4H00879)
Spectra Averaged: 1 (USB4H00879)
Boxcar Smoothing: 0 (USB4H00879)
Correct for Electrical Dark: No (USB4H00879)
Strobe/Lamp Enabled: No (USB4H00879)
Correct for Detector Non-linearity: No (USB4H00879)
Correct for Stray Light: No (USB4H00879)
Number of Pixels in Processed Spectrum: 3648
>>>>>Begin Processed Spectral Data<<<<<
345.13	1251.31
345.34	1251.31
345.56	1251.31
345.78	1239.02
345.99	1296.36
346.21	1701.86
346.42	1669.09
346.64	1632.23
346.86	1742.82
347.07	1677.29
347.29	1710.05
347.50	1628.14
347.72	1585.13
347.94	1732.58
348.15	1634.28
348.37	1591.27
348.59	1699.81
348.80	1671.14
349.02	1773.54
349.23	1857.51
349.45	1929.19
349.67	1910.75
349.88	1779.68
350.10	1945.57
350.31	1796.07
350.53	1847.27
350.75	1992.67
350.96	1773.54
351.18	1966.05
351.39	1812.45
351.61	1892.32
351.82	1920.99
352.04	1980.39
352.26	1851.36
352.47	1918.95
352.69	1953.76
352.90	1777.64
353.12	1822.69
353.34	1820.64
353.55	1978.34
353.77	1904.61
353.98	1845.22
354.20	1767.40
354.41	1875.94
354.63	1937.38
354.85	2041.82
355.06	1867.75
355.28	1783.78
355.49	1931.23
355.71	1880.04
355.92	1873.89
356.14	1927.14
356.35	1824.74
356.57	1898.47
356.79	1959.91
357.00	1886.18
357.22	2054.11
357.43	1861.60
357.65	1968.10
357.86	1841.12
358.08	1820.64
358.29	1974.24
358.51	1992.67
358.72	1978.34
358.94	1941.47
359.16	1923.04
359.37	1925.09
359.59	1955.81
359.80	1978.34
360.02	1904.61
360.23	1957.86
360.45	2045.92
360.66	1927.14
360.88	1900.52
361.09	1929.19
361.31	2013.15
361.52	2019.30
361.74	2027.49
361.95	2068.45
362.17	1929.19
362.38	2078.69
362.60	2011.11
362.81	1953.76
363.03	2047.97
363.24	2031.58
363.46	2000.87
363.67	2025.44
363.89	1945.57
364.10	1966.05
364.32	2011.11
364.53	2004.96
364.75	1888.23
364.96	2029.54
365.18	2000.87
365.39	2023.39
365.61	1978.34
365.82	2088.93
366.04	2064.35
366.25	2004.96
366.47	2047.97
366.68	1990.63
366.90	1931.23
367.11	2009.06
367.33	2082.78
367.54	2099.17
367.76	2027.49
367.97	2131.94
368.19	1994.72
368.40	2158.56
368.62	1974.24
368.83	1953.76
369.05	2056.16
369.26	1964.00
369.48	2054.11
369.69	2027.49
369.91	2056.16
370.12	2060.26
370.33	2064.35
370.55	2070.50
370.76	2027.49
370.98	2093.02
371.19	2070.50
371.41	2062.30
371.62	2072.54
371.84	1988.58
372.05	2195.42
372.27	2043.87
372.48	2076.64
372.69	2101.22
372.91	2101.22
373.12	2166.75
373.34	2066.40
373.55	2170.85
373.77	2174.94
373.98	2070.50
374.20	2211.81
374.41	2217.95
374.62	2205.66
374.84	2199.52
375.05	2176.99
375.27	2172.89
375.48	2064.35
375.70	2179.04
375.91	2207.71
376.12	2344.92
376.34	2174.94
376.55	2232.29
376.77	2254.81
376.98	2072.54
377.19	2203.61
377.41	2121.70
377.62	2258.91
377.84	2207.71
378.05	2260.96
378.27	2093.02
378.48	2326.49
378.69	2359.26
378.91	2287.58
379.12	2215.90
379.34	2275.29
379.55	2332.64
379.76	2324.44
379.98	2191.33
380.19	2240.48
380.41	2269.15
380.62	2306.01
380.83	2334.68
381.05	2203.61
381.26	2396.12
381.47	2209.76
381.69	2281.44
381.90	2437.08
382.12	2273.25
382.33	2277.34
382.54	2220.00
382.76	2359.26
382.97	2332.64
383.19	2140.13
383.40	2363.36
383.61	2263.01
383.83	2295.77
384.04	2267.10
384.25	2457.56
384.47	2424.80
384.68	2377.69
384.89	2389.98
385.11	2375.64
385.32	2338.78
385.54	2361.31
385.75	2265.05
385.96	2428.89
386.18	2478.04
386.39	2420.70
386.60	2349.02
386.82	2353.12
387.03	2416.60
387.24	2500.57
387.46	2383.84
387.67	2439.13
387.88	2469.85
388.10	2459.61
388.31	2471.90
388.52	2594.78
388.74	2492.38
388.95	2498.52
389.16	2596.82
389.38	2455.51
389.59	2557.91
389.80	2619.35
390.02	2451.42
390.23	2584.54
390.44	2531.29
390.66	2590.68
390.87	2490.33
391.08	2525.15
391.30	2600.92
391.51	2680.79
391.72	2723.80
391.94	2586.58
392.15	2539.48
392.36	2656.22
392.58	2609.11
392.79	2648.02
393.00	2727.89
393.22	2738.13
393.43	2686.94
393.64	2801.62
393.85	2740.18
394.07	2654.17
394.28	2682.84
394.49	2703.32
394.71	2748.37
394.92	2895.83
395.13	2725.85
395.35	2715.61
395.56	2762.71
395.77	2777.05
395.98	2852.82
396.20	2836.44
396.41	2805.72
396.62	2840.53
396.84	2803.67
397.05	2809.81
397.26	2869.20
397.47	2998.23
397.69	2813.91
397.90	3053.52
398.11	2932.69
398.32	2807.77
398.54	2824.15
398.75	2895.83
398.96	2936.79
399.18	3219.41
399.39	2967.51
399.60	3006.42
399.81	2906.07
400.03	2877.40
400.24	3233.74
400.45	2940.88
400.66	3022.80
400.88	3035.09
401.09	3299.28
401.30	3063.76
401.51	3076.05
401.73	3055.57
401.94	3108.82
402.15	3086.29
402.36	3231.69
402.58	3170.26
402.79	3157.97
403.00	3137.49
403.21	3139.54
403.43	3252.17
403.64	3213.26
403.85	3203.02
404.06	3188.69
404.27	3059.67
404.49	3170.26
404.70	3112.91
404.91	3258.32
405.12	3153.87
405.34	3317.71
405.55	3352.52
405.76	3164.11
405.97	3117.01
406.19	3317.71
406.40	3313.61
406.61	3258.32
406.82	3348.43
407.03	3420.11
407.25	3243.98
407.46	3383.24
407.67	3387.34
407.88	3495.88
408.09	3342.28
408.31	3362.76
408.52	3448.78
408.73	3399.63
408.94	3381.20
409.15	3418.06
409.37	3524.55
409.58	3559.37
409.79	3432.40
410.00	3661.77
410.21	3432.40
410.43	3459.02
410.64	3483.59
410.85	3502.03
411.06	3581.90
411.27	3549.13
411.48	3657.67
411.70	3596.23
411.91	3608.52
412.12	3747.78
412.33	3571.66
412.54	3567.56
412.76	3731.40
412.97	3663.82
413.18	3596.23
413.39	3710.92
413.60	3669.96
413.81	3653.58
414.03	3688.39
414.24	3629.00
414.45	3809.22
414.66	3532.75
414.87	3829.70
415.08	3790.79
415.30	3596.23
415.51	3852.23
415.72	3743.69
415.93	3762.12
416.14	3958.72
416.35	3852.23
416.56	3887.04
416.78	3807.17
416.99	3819.46
417.20	3889.09
417.41	3975.11
417.62	3827.65
417.83	3981.25
418.04	3983.30
418.26	3880.90
418.47	3928.00
418.68	4097.99
418.89	4067.27
419.10	4124.61
419.31	4034.50
419.52	3999.68
419.73	4059.07
419.95	4138.94
420.16	4003.78
420.37	3968.96
420.58	4046.79
420.79	4083.65
421.00	4040.64
421.21	4208.58
421.42	4114.37
421.63	4122.56
421.85	4134.85
422.06	4237.25
422.27	4251.58
422.48	4177.86
422.69	4339.65
422.90	4247.49
423.11	4251.58
423.32	4329.41
423.53	4294.59
423.75	4390.84
423.96	4501.44
424.17	4456.38
424.38	4464.57
424.59	4325.31
424.80	4501.44
425.01	4509.63
425.22	4452.28
425.43	4442.04
425.64	4659.13
425.85	4689.85
426.06	4603.83
426.28	4429.76
426.49	4421.56
426.70	4456.38
426.91	4683.70
427.12	4712.38
427.33	4706.23
427.54	4673.46
427.75	4679.61
427.96	4923.32
428.17	4759.48
428.38	4798.39
428.59	4974.52
428.80	4739.00
429.01	4911.03
429.23	4886.45
429.44	5031.86
429.65	4997.04
429.86	5001.14
430.07	4884.41
430.28	4777.91
430.49	4958.13
430.70	5128.11
430.91	5101.49
431.12	4945.84
431.33	5183.41
431.54	5197.74
431.75	5248.94
431.96	5095.35
432.17	5044.15
432.38	5134.26
432.59	5418.93
432.80	5431.21
433.01	5294.00
433.22	5384.11
433.43	5253.04
433.64	5558.19
433.85	5279.66
434.06	5492.65
434.27	5189.55
434.49	5337.01
434.70	5441.45
434.91	5420.97
435.12	5488.56
435.33	5304.24
435.54	5525.42
435.75	5308.34
435.96	5410.73
436.17	5433.26
436.38	5492.65
436.59	5595.05
436.80	5533.61
437.01	5719.98
437.22	5734.31
437.43	5646.25
437.64	5504.94
437.85	5810.09
438.06	5812.14
438.27	5656.49
438.48	5681.07
438.69	5726.12
438.90	5883.81
439.11	5762.98
439.32	5937.06
439.53	5865.38
439.74	5869.48
439.95	5935.01
440.16	5801.90
440.37	5941.16
440.57	5832.62
440.78	5939.11
440.99	5943.21
441.20	6037.41
441.41	5857.19
441.62	6047.65
441.83	5818.28
442.04	5990.31
442.25	5941.16
442.46	6082.47
442.67	6234.02
442.88	6563.74
443.09	5984.16
443.30	6021.03
443.51	6131.62
443.72	6444.96
443.93	6166.43
444.14	6412.19
444.35	5916.58
444.56	6365.09
444.77	6240.16
444.98	6256.54
445.19	6383.52
445.40	6307.74
445.61	6291.36
445.81	6492.06
446.02	6395.81
446.23	6449.05
446.44	6217.63
446.65	6416.29
446.86	6481.82
447.07	6610.84
447.28	6578.08
447.49	6762.39
447.70	6545.31
447.91	6664.09
448.12	6588.32
448.33	6680.47
448.54	6758.30
448.74	6682.52
448.95	6909.85
449.16	6668.19
449.37	7022.48
449.58	6893.46
449.79	7042.96
450.00	6760.34
450.21	6852.50
450.42	6866.84
450.63	6956.95
450.84	6920.09
451.05	7016.34
451.25	6956.95
451.46	6881.18
451.67	7098.26
451.88	7143.32
452.09	7069.59
452.30	7079.83
452.51	7114.64
452.72	7378.83
452.93	7387.02
453.13	7094.16
453.34	7178.13
453.55	7298.96
453.76	7253.91
453.97	7620.49
454.18	7378.83
454.39	7399.31
454.60	7329.68
454.81	7477.13
455.01	7653.26
455.22	7321.49
455.43	7489.42
455.64	7747.47
455.85	7980.93
456.06	7845.77
456.27	7710.60
456.48	7827.34
456.68	7815.05
456.89	7743.37
457.10	7976.84
457.31	7913.35
457.52	7890.82
457.73	8005.51
457.94	8079.24
458.14	7747.47
458.35	8288.13
458.56	8249.22
458.77	8048.52
458.98	8236.93
459.19	8222.59
459.39	8374.14
459.60	8322.94
459.81	8392.58
460.02	8433.54
460.23	8507.26
460.44	8765.31
460.65	8654.72
460.85	8605.56
461.06	8718.20
461.27	8372.10
461.48	8730.49
461.69	8990.58
461.89	8527.74
462.10	8884.09
462.31	8632.19
462.52	8720.25
462.73	8808.31
462.94	9021.30
463.14	9017.21
463.35	9064.31
463.56	9449.33
463.77	9336.69
463.98	9285.49
464.18	9361.27
464.39	9443.18
464.60	9455.47
464.81	9713.52
465.02	9629.55
465.23	9779.05
465.43	9641.84
465.64	9727.85
465.85	9705.32
466.06	9707.37
466.27	10020.71
466.47	9908.07
466.68	9887.59
466.89	9942.89
467.10	9908.07
467.30	9877.35
467.51	10024.81
467.72	10213.22
467.93	10024.81
468.14	10344.29
468.34	10372.96
468.55	10430.30
468.76	10489.70
468.97	10461.02
469.17	10663.77
469.38	10901.34
469.59	10792.80
469.80	10686.30
470.01	10790.75
470.21	10964.82
470.42	11069.27
470.63	11370.32
470.84	11007.83
471.04	11132.76
471.25	11190.10
471.46	11159.38
471.67	11534.16
471.87	11513.68
472.08	11538.26
472.29	11800.40
472.50	11534.16
472.70	11546.45
472.91	11702.09
473.12	11980.62
473.33	11974.47
473.53	12212.04
473.74	11915.08
473.95	12228.42
474.16	12326.72
474.36	12375.88
474.57	12388.16
474.78	12590.91
474.99	12375.88
475.19	12498.75
475.40	12824.38
475.61	12783.42
475.81	12949.31
476.02	13432.63
476.23	13029.18
476.44	13129.53
476.64	13403.96
476.85	13662.00
477.06	13295.41
477.27	13651.76
477.47	13967.15
477.68	13707.05
477.89	13963.05
478.09	14053.16
478.30	14063.40
478.51	14229.29
478.71	14223.14
478.92	14184.23
479.13	14405.41
479.34	14745.38
479.54	14706.46
479.75	14794.53
479.96	14798.62
480.16	14720.80
480.37	14948.12
480.58	15050.52
480.78	15519.51
480.99	15273.75
481.20	15322.90
481.41	15494.93
481.61	15685.39
481.82	15695.63
482.03	15798.03
482.23	15519.51
482.44	16230.15
482.65	15978.25
482.85	16086.79
483.06	16031.50
483.27	16111.37
483.47	16414.47
483.68	16398.09
483.89	16604.93
484.09	16582.40
484.30	16619.27
484.51	16819.97
484.71	16871.17
484.92	16856.83
485.13	17245.94
485.33	17164.03
485.54	17131.26
485.75	17391.35
485.95	17598.20
486.16	17395.45
486.37	17624.82
486.57	17676.02
486.78	17749.75
486.98	17774.32
487.19	18265.83
487.40	18036.46
487.60	18212.59
487.81	18409.19
488.02	18253.55
488.22	18280.17
488.43	18478.82
488.64	18536.17
488.84	18792.16
489.05	18839.26
489.25	18833.12
489.46	19078.88
489.67	18740.96
489.87	19027.68
490.08	19197.66
490.29	19341.02
490.49	19523.29
490.70	19285.72
490.90	19752.66
491.11	19511.00
491.32	19869.39
491.52	19879.63
491.73	20074.19
491.94	19959.50
492.14	19961.55
492.35	20309.71
492.55	20289.23
492.76	20577.99
492.97	20727.49
493.17	20244.17
493.38	20436.68
493.58	20811.46
493.79	20905.66
494.00	20831.94
494.20	21257.92
494.41	21094.08
494.61	21130.94
494.82	21358.27
495.02	21352.12
495.23	21284.54
495.44	21436.09
495.64	21827.25
495.85	21425.85
496.05	21726.90
496.26	21847.73
496.47	22058.67
496.67	21880.50
496.88	22406.83
497.08	21956.27
497.29	22386.35
497.49	21970.61
497.70	22423.21
497.91	22298.28
498.11	22357.67
498.32	22441.64
498.52	22591.14
498.73	23144.09
498.93	22752.93
499.14	23010.98
499.34	23123.62
499.55	23060.13
499.76	23006.88
499.96	23305.88
500.17	22941.35
500.37	23504.54
500.58	23178.91
500.78	23471.77
500.99	23285.40
501.19	23852.69
501.40	23758.49
501.60	23643.80
501.81	23871.12
502.02	23910.04
502.22	23692.95
502.43	23934.61
502.63	24288.91
502.84	23973.52
503.04	24188.56
503.25	24260.24
503.45	24286.86
503.66	24442.51
503.86	24424.08
504.07	24809.09
504.27	24301.20
504.48	24659.59
504.68	24710.79
504.89	24581.77
505.09	24841.86
505.30	25104.00
505.50	24972.93
505.71	25114.24
505.91	25230.98
506.12	24886.92
506.32	25077.38
506.53	24884.87
506.73	25259.65
506.94	25087.62
507.14	25106.05
507.35	25636.47
507.55	25620.09
507.76	25597.56
507.96	25525.88
508.17	25945.72
508.37	25652.86
508.58	25675.38
508.78	25937.52
508.99	26252.91
509.19	26203.76
509.40	25978.48
509.60	25771.64
509.81	26322.54
510.01	26062.45
510.22	26435.18
510.42	26201.71
510.63	26658.41
510.83	26105.46
511.04	26426.99
511.24	26625.64
511.44	26635.88
511.65	26535.53
511.85	26416.75
512.06	26783.34
512.26	26900.07
512.47	27002.47
512.67	26674.79
512.88	26375.79
513.08	26715.75
513.29	27151.97
513.49	26812.01
513.69	27135.59
513.90	26938.98
514.10	27334.24
514.31	27172.45
514.51	27623.00
514.72	27205.22
514.92	27397.73
515.13	27459.16
515.33	27385.44
515.53	27440.73
515.74	27524.70
515.94	27778.65
516.15	27328.10
516.35	27545.18
516.56	27926.10
516.76	28044.88
516.96	27725.40
517.17	27983.44
517.37	27815.51
517.58	27651.67
517.78	28094.04
517.99	28018.26
518.19	28532.30
518.39	28483.15
518.60	28343.89
518.80	28270.16
519.01	28767.82
519.21	28567.12
519.41	28761.67
519.62	28597.84
519.82	28679.75
520.03	29292.10
520.23	28544.59
520.43	28786.25
520.64	29275.71
520.84	29392.45
521.05	29331.01
521.25	29263.43
521.45	29251.14
521.66	29273.67
521.86	29208.13
522.07	29324.86
522.27	29685.31
522.47	29414.98
522.68	29619.77
522.88	29718.07
523.08	29972.02
523.29	29812.28
523.49	30078.52
523.70	30096.95
523.90	30111.28
524.10	29910.58
524.31	30426.67
524.51	30246.45
524.71	30686.76
524.92	30307.89
525.12	30907.94
525.33	30283.31
525.53	30608.94
525.73	31479.33
525.94	30742.06
526.14	30899.75
526.34	31170.08
526.55	31182.37
526.75	31049.25
526.95	31673.88
527.16	31307.30
527.36	31409.70
527.56	31608.35
527.77	31710.75
527.97	31598.11
528.17	31745.56
528.38	32128.53
528.58	31946.26
528.78	31751.71
528.99	31938.07
529.19	32544.27
529.39	32034.33
529.60	32661.01
529.80	32488.98
530.00	32386.58
530.21	32568.85
530.41	33168.90
530.61	32466.45
530.82	32648.72
531.02	32865.80
531.22	33453.57
531.43	32904.71
531.63	33273.35
531.83	33480.19
532.04	33775.10
532.24	33134.09
532.44	34022.90
532.64	33889.79
532.85	33969.66
533.05	33682.94
533.25	33895.93
533.46	33918.46
533.66	34360.82
533.86	34190.84
534.07	34563.57
534.27	34354.68
534.47	34735.60
534.67	34688.49
534.88	34831.85
535.08	34797.04
535.28	35093.99
535.49	34805.23
535.69	35143.14
535.89	35198.44
536.09	35218.92
536.30	35487.20
536.50	35302.89
536.70	35421.67
536.91	35546.59
537.11	35681.76
537.31	35501.54
537.51	36005.34
537.72	36230.62
537.92	36339.16
538.12	36650.45
538.32	35786.21
538.53	36672.98
538.73	36333.01
538.93	36449.75
539.13	36541.91
539.34	36312.53
539.54	36521.43
539.74	36910.54
539.94	36589.01
540.15	36292.05
540.35	37004.75
540.55	37049.80
540.75	36931.02
540.96	37031.37
541.16	37336.52
541.36	37426.63
541.56	37221.83
541.77	37838.27
541.97	37553.60
542.17	37666.24
542.37	37522.88
542.58	37895.61
542.78	37531.08
542.98	37494.21
543.18	38110.65
543.38	38503.86
543.59	38151.61
543.79	38161.85
543.99	37991.87
544.19	38585.78
544.40	37985.72
544.60	38645.17
544.80	38596.02
545.00	38725.04
545.20	38806.96
545.41	38911.41
545.61	38571.44
545.81	38919.60
546.01	39011.76
546.21	39554.47
546.42	39083.44
546.62	39132.59
546.82	39237.03
547.02	39318.95
547.22	39429.54
547.43	39040.43
547.63	39249.32
547.83	39722.40
548.03	39525.80
548.23	39931.29
548.44	39703.97
548.64	39894.43
548.84	39681.44
549.04	40207.77
549.24	40439.19
549.45	40625.56
549.65	40377.75
549.85	39945.63
550.05	40086.94
550.25	39949.73
550.45	40869.26
550.66	40353.18
550.86	40039.84
551.06	40678.80
551.26	40480.15
551.46	40306.07
551.66	40211.87
551.87	40822.16
552.07	40611.22
552.27	40850.83
552.47	40633.75
552.67	40930.70
552.87	40924.56
553.07	41047.44
553.28	40996.24
553.48	41360.78
553.68	40945.04
553.88	41543.05
554.08	41502.09
554.28	41424.26
554.48	41123.21
554.69	41155.98
554.89	41235.85
555.09	41506.18
555.29	41352.58
555.49	41377.16
555.69	41651.59
555.89	41602.44
556.10	41620.87
556.30	41620.87
556.50	41799.04
556.70	41799.04
556.90	41870.72
557.10	42077.57
557.30	42139.00
557.50	42153.34
557.70	42268.03
557.91	42558.84
558.11	41975.17
558.31	42329.47
558.51	42126.72
558.71	42407.29
558.91	42706.29
559.11	42274.17
559.31	42313.08
559.51	42372.47
559.72	42521.98
559.92	42638.71
560.12	42495.35
560.32	42923.38
560.52	42358.14
560.72	42550.65
560.92	42728.82
561.12	42880.37
561.32	43119.98
561.52	42751.35
561.72	43017.58
561.93	42802.55
562.13	42745.20
562.33	42694.00
562.53	43240.81
562.73	42814.83
562.93	42661.24
563.13	43212.14
563.33	43335.02
563.53	43369.83
563.73	43251.05
563.93	43183.47
564.13	43713.89
564.33	43705.70
564.53	43523.43
564.74	43781.48
564.94	43275.63
565.14	43519.34
565.34	43707.75
565.54	43664.74
565.74	43808.10
565.94	44055.90
566.14	43887.97
566.34	43535.72
566.54	44066.14
566.74	43781.48
566.94	44021.09
567.14	43826.53
567.34	43810.15
567.54	44111.20
567.74	44109.15
567.94	43984.22
568.14	44213.60
568.34	44707.16
568.54	44264.80
568.74	44631.38
568.94	44336.48
569.14	44621.14
569.34	44524.89
569.54	44584.28
569.75	44385.63
569.95	44619.10
570.15	44916.05
570.35	44838.23
570.55	44862.80
570.75	44539.22
570.95	44606.81
571.15	44582.23
571.35	44678.49
571.55	44866.90
571.75	44485.98
571.95	45075.79
572.15	44961.11
572.35	45139.28
572.55	45213.01
572.75	45333.84
572.95	45008.21
573.15	45352.27
573.35	44909.91
573.55	45311.31
573.75	45237.58
573.95	45667.66
574.15	45368.65
574.35	45512.01
574.55	45348.17
574.75	45366.60
574.95	45692.23
575.15	45425.99
575.34	45749.57
575.54	46093.63
575.74	46105.92
575.94	45690.18
576.14	45905.22
576.34	46370.11
576.54	46280.00
576.74	46404.92
576.94	46314.81
577.14	46533.95
577.34	46591.29
577.54	46191.94
577.74	46280.00
577.94	46538.04
578.14	46331.20
578.34	46732.60
578.54	46472.51
578.74	46501.18
578.94	46914.87
579.14	46474.55
579.34	46693.69
579.54	46810.42
579.74	46986.55
579.94	46972.21
580.13	47138.10
580.33	46841.14
580.53	47396.14
580.73	46734.65
580.93	47158.58
581.13	47058.23
581.33	47637.80
581.53	47459.63
581.73	47494.44
581.93	47447.34
582.13	47922.47
582.33	47785.25
582.53	47172.91
582.73	47625.51
582.92	47609.13
583.12	48309.53
583.32	47621.42
583.52	47666.47
583.72	48031.01
583.92	47885.61
584.12	48129.31
584.32	48248.10
584.52	48301.34
584.72	48319.77
584.92	48452.89
585.11	48686.36
585.31	48229.66
585.51	48530.72
585.71	48321.82
585.91	48684.31
586.11	48381.21
586.31	48543.00
586.51	48287.01
586.71	49044.76
586.91	49394.96
587.10	49186.07
587.30	48971.03
587.50	49190.16
587.70	48966.93
587.90	49032.47
588.10	49354.00
588.30	49157.39
588.50	49208.59
