SpectraSuite Data File
++++++++++++++++++++++++++++++++++++
Date: Fri Jun 02 14:57:18 CEST 2017
User: INFO_000
Dark Spectrum Present: No
Reference Spectrum Present: No
Number of Sampled Component Spectra: 1
Spectrometers: USB4H00879
Integration Time (usec): 80000 (USB4H00879)
Spectra Averaged: 1 (USB4H00879)
Boxcar Smoothing: 0 (USB4H00879)
Correct for Electrical Dark: No (USB4H00879)
Strobe/Lamp Enabled: No (USB4H00879)
Correct for Detector Non-linearity: No (USB4H00879)
Correct for Stray Light: No (USB4H00879)
Number of Pixels in Processed Spectrum: 3648
>>>>>Begin Processed Spectral Data<<<<<
345.13	1267.69
345.34	1267.69
345.56	1267.69
345.78	1308.65
345.99	1316.84
346.21	1650.66
346.42	1679.33
346.64	1611.75
346.86	1773.54
347.07	1699.81
347.29	1765.35
347.50	1699.81
347.72	1652.71
347.94	1720.29
348.15	1544.17
348.37	1558.50
348.59	1751.01
348.80	1669.09
349.02	1787.88
349.23	1800.16
349.45	1859.56
349.67	1890.28
349.88	1810.40
350.10	2017.25
350.31	1875.94
350.53	1804.26
350.75	1968.10
350.96	1777.64
351.18	1884.13
351.39	1818.60
351.61	1740.77
351.82	1894.37
352.04	1923.04
352.26	1798.12
352.47	1849.32
352.69	1912.80
352.90	1742.82
353.12	1822.69
353.34	1894.37
353.55	1925.09
353.77	1918.95
353.98	1871.84
354.20	1796.07
354.41	1939.43
354.63	1916.90
354.85	1998.82
355.06	1906.66
355.28	1820.64
355.49	1904.61
355.71	1920.99
355.92	1785.83
356.14	1939.43
356.35	1890.28
356.57	1839.08
356.79	1867.75
357.00	1824.74
357.22	2000.87
357.43	1822.69
357.65	1974.24
357.86	1814.50
358.08	1957.86
358.29	1947.62
358.51	2021.35
358.72	1986.53
358.94	1943.52
359.16	1953.76
359.37	1918.95
359.59	1849.32
359.80	1974.24
360.02	1974.24
360.23	1910.75
360.45	2064.35
360.66	1972.19
360.88	1810.40
361.09	1931.23
361.31	2013.15
361.52	1916.90
361.74	2103.26
361.95	2054.11
362.17	1910.75
362.38	2070.50
362.60	2035.68
362.81	1941.47
363.03	1961.95
363.24	2058.21
363.46	2080.74
363.67	1998.82
363.89	2000.87
364.10	1988.58
364.32	1982.43
364.53	2029.54
364.75	1961.95
364.96	1976.29
365.18	2148.32
365.39	2002.91
365.61	1945.57
365.82	2131.94
366.04	2027.49
366.25	1970.15
366.47	2052.06
366.68	2080.74
366.90	1976.29
367.11	2000.87
367.33	2121.70
367.54	2097.12
367.76	2076.64
367.97	2043.87
368.19	2056.16
368.40	1986.53
368.62	1955.81
368.83	2066.40
369.05	2150.37
369.26	1945.57
369.48	1998.82
369.69	1992.67
369.91	1986.53
370.12	2025.44
370.33	2140.13
370.55	1900.52
370.76	2033.63
370.98	2138.08
371.19	2078.69
371.41	2088.93
371.62	2080.74
371.84	1968.10
372.05	2103.26
372.27	2070.50
372.48	2076.64
372.69	2060.26
372.91	2133.98
373.12	2150.37
373.34	2113.50
373.55	2154.46
373.77	2142.18
373.98	2115.55
374.20	2123.74
374.41	2273.25
374.62	2127.84
374.84	2174.94
375.05	2244.57
375.27	2170.85
375.48	2170.85
375.70	2220.00
375.91	2166.75
376.12	2152.42
376.34	2148.32
376.55	2234.33
376.77	2209.76
376.98	2136.03
377.19	2156.51
377.41	2183.13
377.62	2144.22
377.84	2248.67
378.05	2385.88
378.27	2090.98
378.48	2291.68
378.69	2445.27
378.91	2332.64
379.12	2205.66
379.34	2230.24
379.55	2367.45
379.76	2248.67
379.98	2176.99
380.19	2238.43
380.41	2215.90
380.62	2301.92
380.83	2183.13
381.05	2209.76
381.26	2340.83
381.47	2191.33
381.69	2269.15
381.90	2439.13
382.12	2273.25
382.33	2303.96
382.54	2332.64
382.76	2314.20
382.97	2306.01
383.19	2248.67
383.40	2379.74
383.61	2269.15
383.83	2254.81
384.04	2373.60
384.25	2371.55
384.47	2408.41
384.68	2351.07
384.89	2306.01
385.11	2295.77
385.32	2428.89
385.54	2363.36
385.75	2381.79
385.96	2502.62
386.18	2394.08
386.39	2371.55
386.60	2459.61
386.82	2353.12
387.03	2426.84
387.24	2494.43
387.46	2447.32
387.67	2478.04
387.88	2557.91
388.10	2574.30
388.31	2471.90
388.52	2533.34
388.74	2418.65
388.95	2617.30
389.16	2478.04
389.38	2494.43
389.59	2615.26
389.80	2605.02
390.02	2535.39
390.23	2572.25
390.44	2576.34
390.66	2533.34
390.87	2541.53
391.08	2592.73
391.30	2682.84
391.51	2686.94
391.72	2625.50
391.94	2680.79
392.15	2633.69
392.36	2578.39
392.58	2625.50
392.79	2643.93
393.00	2764.76
393.22	2637.78
393.43	2795.48
393.64	2758.61
393.85	2719.70
394.07	2605.02
394.28	2795.48
394.49	2772.95
394.71	2803.67
394.92	2850.77
395.13	2797.53
395.35	2748.37
395.56	2740.18
395.77	2748.37
395.98	2746.33
396.20	2930.64
396.41	2877.40
396.62	2901.97
396.84	2779.09
397.05	2861.01
397.26	2904.02
397.47	3074.00
397.69	2893.78
397.90	3053.52
398.11	2863.06
398.32	2873.30
398.54	2920.40
398.75	2840.53
398.96	3049.43
399.18	3153.87
399.39	2992.08
399.60	3071.95
399.81	2992.08
400.03	2934.74
400.24	3293.13
400.45	3000.27
400.66	3127.25
400.88	3135.44
401.09	3200.98
401.30	3051.47
401.51	3160.02
401.73	3186.64
401.94	3274.70
402.15	3125.20
402.36	3164.11
402.58	3252.17
402.79	3319.76
403.00	3211.22
403.21	3270.61
403.43	3221.45
403.64	3217.36
403.85	3178.45
404.06	3233.74
404.27	3151.82
404.49	3284.94
404.70	3198.93
404.91	3422.16
405.12	3325.90
405.34	3301.33
405.55	3399.63
405.76	3190.74
405.97	3270.61
406.19	3340.24
406.40	3237.84
406.61	3373.00
406.82	3440.59
407.03	3223.50
407.25	3297.23
407.46	3459.02
407.67	3377.10
407.88	3522.51
408.09	3387.34
408.31	3348.43
408.52	3497.93
408.73	3438.54
408.94	3332.05
409.15	3491.79
409.37	3387.34
409.58	3477.45
409.79	3405.77
410.00	3645.38
410.21	3456.97
410.43	3436.49
410.64	3434.44
410.85	3444.68
411.06	3594.19
411.27	3602.38
411.48	3602.38
411.70	3510.22
411.91	3540.94
412.12	3669.96
412.33	3487.69
412.54	3563.47
412.76	3524.55
412.97	3547.08
413.18	3606.47
413.39	3583.95
413.60	3647.43
413.81	3633.10
414.03	3649.48
414.24	3555.27
414.45	3807.17
414.66	3497.93
414.87	3772.36
415.08	3825.61
415.30	3674.06
415.51	3780.55
415.72	3567.56
415.93	3788.74
416.14	3835.85
416.35	3770.31
416.56	3821.51
416.78	3815.37
416.99	3811.27
417.20	3758.02
417.41	3823.56
417.62	3821.51
417.83	3909.57
418.04	3850.18
418.26	3905.48
418.47	3813.32
418.68	3997.64
418.89	3915.72
419.10	4057.03
419.31	3936.20
419.52	4163.52
419.73	4038.59
419.95	4022.21
420.16	3852.23
420.37	4071.36
420.58	4016.07
420.79	3823.56
421.00	4018.11
421.21	4143.04
421.42	3993.54
421.63	4061.12
421.85	4134.85
422.06	4267.97
422.27	4188.10
422.48	4263.87
422.69	4100.03
422.90	4216.77
423.11	4194.24
423.32	4235.20
423.53	4317.12
423.75	4282.30
423.96	4382.65
424.17	4341.69
424.38	4489.15
424.59	4360.13
424.80	4476.86
425.01	4421.56
425.22	4341.69
425.43	4466.62
425.64	4507.58
425.85	4411.32
426.06	4605.88
426.28	4595.64
426.49	4415.42
426.70	4517.82
426.91	4507.58
427.12	4710.33
427.33	4657.08
427.54	4501.44
427.75	4714.42
427.96	4730.81
428.17	4779.96
428.38	4739.00
428.59	4937.65
428.80	4775.86
429.01	4861.88
429.23	4825.01
429.44	4978.61
429.65	5042.10
429.86	5011.38
430.07	4800.44
430.28	4968.37
430.49	5029.81
430.70	5072.82
430.91	5216.18
431.12	5081.01
431.33	5058.48
431.54	5240.75
431.75	5193.65
431.96	5158.83
432.17	5242.80
432.38	5267.38
432.59	5396.40
432.80	5363.63
433.01	5406.64
433.22	5386.16
433.43	5308.34
433.64	5392.30
433.85	5408.69
434.06	5439.40
434.27	5312.43
434.49	5394.35
434.70	5552.04
434.91	5504.94
435.12	5726.12
435.33	5519.28
435.54	5455.79
435.75	5332.91
435.96	5619.63
436.17	5355.44
436.38	5816.23
436.59	5658.54
436.80	5566.38
437.01	5781.42
437.22	5803.94
437.43	5687.21
437.64	5660.59
437.85	5834.66
438.06	5875.62
438.27	5658.54
438.48	5924.77
438.69	5879.72
438.90	5930.92
439.11	5814.18
439.32	5855.14
439.53	5795.75
439.74	5900.20
439.95	6053.80
440.16	5992.36
440.37	5967.78
440.57	5838.76
440.78	5988.26
440.99	5965.73
441.20	6074.28
441.41	6107.04
441.62	6021.03
441.83	5953.45
442.04	6057.89
442.25	6213.54
442.46	6141.86
442.67	6213.54
442.88	6690.71
443.09	6119.33
443.30	6246.30
443.51	6320.03
443.72	6420.38
443.93	6442.91
444.14	6694.81
444.35	6102.95
444.56	6463.39
444.77	6463.39
444.98	6463.39
445.19	6586.27
445.40	6399.90
445.61	6571.93
445.81	6528.92
446.02	6627.23
446.23	6434.72
446.44	6363.04
446.65	6780.82
446.86	6684.57
447.07	6791.06
447.28	6961.05
447.49	6746.01
447.70	6662.04
447.91	6776.73
448.12	6838.17
448.33	6768.54
448.54	6866.84
448.74	6782.87
448.95	6907.80
449.16	6799.26
449.37	7192.47
449.58	6868.89
449.79	7114.64
450.00	6889.37
450.21	7081.88
450.42	7208.85
450.63	7200.66
450.84	7083.92
451.05	7067.54
451.25	7126.93
451.46	7038.87
451.67	7171.99
451.88	7284.62
452.09	7200.66
452.30	7131.03
452.51	7188.37
452.72	7423.89
452.93	7585.68
453.13	7262.10
453.34	7266.19
453.55	7434.13
453.76	7270.29
453.97	7503.76
454.18	7495.57
454.39	7739.27
454.60	7571.34
454.81	7505.81
455.01	7589.77
455.22	7372.69
455.43	7616.40
455.64	7806.86
455.85	7843.72
456.06	7987.08
456.27	7956.36
456.48	7749.51
456.68	7800.71
456.89	7860.10
457.10	7968.65
457.31	7972.74
457.52	7880.58
457.73	8075.14
457.94	8302.47
458.14	8023.94
458.35	8398.72
458.56	8308.61
458.77	8294.27
458.98	8212.35
459.19	8345.47
459.39	8482.69
459.60	8484.73
459.81	8431.49
460.02	8624.00
460.23	8417.15
460.44	8513.41
460.65	8638.33
460.85	8800.12
461.06	8820.60
461.27	8580.99
461.48	8839.03
461.69	8761.21
461.89	8611.71
462.10	8679.29
462.31	8695.68
462.52	8767.35
462.73	9002.87
462.94	9146.23
463.14	8855.42
463.35	8961.91
463.56	9484.14
463.77	9320.31
463.98	9078.65
464.18	9336.69
464.39	9314.16
464.60	9633.64
464.81	9256.82
465.02	9439.09
465.23	9484.14
465.43	9531.25
465.64	9942.89
465.85	9725.80
466.06	9547.63
466.27	10004.33
466.47	9840.49
466.68	9903.98
466.89	9918.31
467.10	9977.70
467.30	9738.09
467.51	10033.00
467.72	10346.34
467.93	9883.50
468.14	10190.69
468.34	10182.50
468.55	10219.36
468.76	10426.21
468.97	10313.57
469.17	10583.90
469.38	10635.10
469.59	10772.32
469.80	10659.68
470.01	10721.12
470.21	10540.90
470.42	11030.36
470.63	11091.80
470.84	10774.36
471.04	11032.41
471.25	11157.33
471.46	10991.45
471.67	11259.73
471.87	11401.04
472.08	11382.61
472.29	11505.49
472.50	11067.22
472.70	11485.01
472.91	11478.86
473.12	11702.09
473.33	11564.88
473.53	11738.96
473.74	11925.32
473.95	12052.30
474.16	12121.93
474.36	12117.83
474.57	12349.25
474.78	12171.08
474.99	12330.82
475.19	12322.63
475.40	12554.05
475.61	12744.51
475.81	12932.92
476.02	13084.47
476.23	12996.41
476.44	12902.20
476.64	13094.71
476.85	13334.32
477.06	13162.30
477.27	13588.27
477.47	13481.78
477.68	13743.92
477.89	13827.88
478.09	13684.53
478.30	13748.01
478.51	13756.21
478.71	13989.67
478.92	14135.08
479.13	14413.60
479.34	14173.99
479.54	14511.91
479.75	14321.45
479.96	14427.94
480.16	14589.73
480.37	14645.02
480.58	14884.64
480.78	15363.86
480.99	15044.38
481.20	15271.70
481.41	15347.48
481.61	15279.89
481.82	15660.82
482.03	15394.58
482.23	15468.31
482.44	15738.64
482.65	16029.45
482.85	15843.09
483.06	15795.98
483.27	16000.78
483.47	15927.05
483.68	16203.53
483.89	16250.63
484.09	16576.26
484.30	16826.11
484.51	16422.66
484.71	17098.49
484.92	16862.97
485.13	17123.07
485.33	17010.43
485.54	17194.75
485.75	17231.61
485.95	17399.54
486.16	17692.40
486.37	17399.54
486.57	17776.37
486.78	17635.06
486.98	17626.87
487.19	18212.59
487.40	18005.74
487.60	18280.17
487.81	18392.81
488.02	18345.70
488.22	18265.83
488.43	18499.30
488.64	18546.40
488.84	18667.24
489.05	18921.18
489.25	18622.18
489.46	19117.79
489.67	19097.31
489.87	19398.36
490.08	19492.57
490.29	19240.67
490.49	19756.75
490.70	19685.08
490.90	19982.03
491.11	19867.34
491.32	19857.10
491.52	19891.92
491.73	19930.83
491.94	20457.16
492.14	20061.90
492.35	20451.02
492.55	20332.23
492.76	20584.13
492.97	20375.24
493.17	20956.86
493.38	20717.25
493.58	21339.83
493.79	21276.35
494.00	21190.33
494.20	21470.90
494.41	21657.27
494.61	21485.24
494.82	21630.65
495.02	21573.30
495.23	21644.98
495.44	21415.61
495.64	21853.87
495.85	21882.55
496.05	22050.48
496.26	22093.49
496.47	22398.63
496.67	22214.32
496.88	22673.06
497.08	22199.98
497.29	22664.87
497.49	22720.17
497.70	22795.94
497.91	22894.24
498.11	22806.18
498.32	23170.72
498.52	23281.31
498.73	23520.92
498.93	23213.73
499.14	23506.59
499.34	23412.38
499.55	23611.03
499.76	23252.64
499.96	23649.94
500.17	23889.56
500.37	24041.11
500.58	23852.69
500.78	24067.73
500.99	24206.99
501.19	24432.27
501.40	24229.52
501.60	24120.98
501.81	24264.33
502.02	24403.60
502.22	24182.42
502.43	24417.93
502.63	24745.61
502.84	24526.47
503.04	24944.26
503.25	24655.50
503.45	24946.31
503.66	24856.20
503.86	24755.85
504.07	25581.18
504.27	24895.11
504.48	25613.95
504.68	25038.47
504.89	25689.72
505.09	25599.61
505.30	25542.27
505.50	25556.60
505.71	25628.28
505.91	25720.44
506.12	25853.56
506.32	25583.23
506.53	26015.35
506.73	25804.41
506.94	26015.35
507.14	25620.09
507.35	26183.28
507.55	26283.63
507.76	26275.44
507.96	26322.54
508.17	26277.49
508.37	26668.65
508.58	26388.08
508.78	26455.66
508.99	26803.82
509.19	26357.36
509.40	26502.76
509.60	26537.58
509.81	26834.53
510.01	26627.69
510.22	26930.79
510.42	26994.28
510.63	27412.06
510.83	26832.49
511.04	27037.28
511.24	27266.66
511.44	27010.66
511.65	27414.11
511.85	27045.48
512.06	27328.10
512.26	27348.57
512.47	27422.30
512.67	27610.71
512.88	27350.62
513.08	27197.02
513.29	27930.20
513.49	27493.98
513.69	27627.10
513.90	27596.38
514.10	27641.43
514.31	27956.82
514.51	27995.73
514.72	27737.69
514.92	27821.66
515.13	27782.74
515.33	27901.53
515.53	28005.97
515.74	27911.77
515.94	28614.22
516.15	27960.92
516.35	28038.74
516.56	28417.61
516.76	28137.04
516.96	28282.45
517.17	28407.37
517.37	28411.47
517.58	28399.18
517.78	28438.09
517.99	28618.32
518.19	28302.93
518.39	28685.90
518.60	28964.42
518.80	28692.04
519.01	28825.16
519.21	28923.46
519.41	28962.37
519.62	28837.45
519.82	29077.06
520.03	29183.55
520.23	29034.05
520.43	28970.57
520.64	29417.02
520.84	29632.06
521.05	29101.64
521.25	29769.27
521.45	29726.27
521.66	29673.02
521.86	29677.12
522.07	29537.85
522.27	29650.49
522.47	29261.38
522.68	30266.93
522.88	29697.59
523.08	30242.35
523.29	30170.68
523.49	29978.17
523.70	30168.63
523.90	30139.96
524.10	30211.64
524.31	30561.84
524.51	30367.28
524.71	30694.96
524.92	30336.56
525.12	30572.08
525.33	30797.35
525.53	30918.18
525.73	31145.51
525.94	31118.89
526.14	30842.41
526.34	31163.94
526.55	31229.48
526.75	31376.93
526.95	31471.14
527.16	31501.86
527.36	31196.71
527.56	31303.20
527.77	31751.71
527.97	31743.52
528.17	31917.59
528.38	31708.70
528.58	31786.52
528.78	31733.28
528.99	32210.45
529.19	31940.12
529.39	31751.71
529.60	32146.97
529.80	32011.80
530.00	32525.84
530.21	32353.81
530.41	32519.70
530.61	32534.03
530.82	32536.08
531.02	32859.66
531.22	32656.91
531.43	32701.96
531.63	32910.86
531.83	33066.50
532.04	33117.70
532.24	33183.24
532.44	33598.98
532.64	33234.44
532.85	33805.82
533.05	33420.80
533.25	33719.81
533.46	33498.62
533.66	33889.79
533.86	33621.50
534.07	34016.76
534.27	34133.50
534.47	34100.73
534.67	34133.50
534.88	33945.08
535.08	34301.43
535.28	34498.03
535.49	34452.98
535.69	34907.63
535.89	34659.82
536.09	34883.05
536.30	35018.22
536.50	34995.69
536.70	34827.76
536.91	34924.01
537.11	35235.30
537.31	35276.26
537.51	35175.91
537.72	35628.51
537.92	35618.27
538.12	35841.50
538.32	35497.44
538.53	35802.59
538.73	35700.19
538.93	35718.62
539.13	35849.69
539.34	36199.90
539.54	35534.31
539.74	36412.88
539.94	36019.67
540.15	36251.09
540.35	36453.84
540.55	36365.78
540.75	36601.30
540.96	36378.07
541.16	36670.93
541.36	37021.13
541.56	36634.06
541.77	37010.89
541.97	36791.76
542.17	37041.61
542.37	37076.43
542.58	37598.66
542.78	37277.13
542.98	37346.76
543.18	37541.32
543.38	37862.85
543.59	37799.36
543.79	37205.45
543.99	37416.39
544.19	37469.64
544.40	37971.39
544.60	38196.67
544.80	37975.48
545.00	37856.70
545.20	38264.25
545.41	38120.89
545.61	38098.36
545.81	38514.10
546.01	38385.08
546.21	38622.64
546.42	38090.17
546.62	38716.85
546.82	38565.30
547.02	38675.89
547.22	38768.05
547.43	38542.77
547.63	38591.92
547.83	39237.03
548.03	39204.27
548.23	38999.47
548.44	38860.21
548.64	39400.87
548.84	39435.69
549.04	39050.67
549.24	39456.17
549.45	39675.30
549.65	39394.73
549.85	39718.31
550.05	39787.94
550.25	39622.05
550.45	40226.20
550.66	40199.58
550.86	39585.19
551.06	40273.31
551.26	39923.10
551.46	40390.04
551.66	40056.22
551.87	40144.28
552.07	40308.12
552.27	40762.77
552.47	40607.12
552.67	40408.47
552.87	40670.61
553.07	40674.71
553.28	40736.15
553.48	41078.16
553.68	40582.55
553.88	40932.75
554.08	40983.95
554.28	40838.54
554.48	40476.05
554.69	41346.44
554.89	41104.78
555.09	41385.35
555.29	41293.19
555.49	41483.66
555.69	41674.12
555.89	41436.55
556.10	41459.08
556.30	41426.31
556.50	41350.54
556.70	41553.29
556.90	42050.94
557.10	41661.83
557.30	41872.77
557.50	42298.75
557.70	41948.54
557.91	42534.26
558.11	42214.78
558.31	42405.24
558.51	42489.21
558.71	42446.20
558.91	42521.98
559.11	42370.43
559.31	42489.21
559.51	42577.27
559.72	42573.17
559.92	42536.31
560.12	42513.78
560.32	42792.31
560.52	42614.13
560.72	43134.32
560.92	43064.69
561.12	42976.62
561.32	43523.43
561.52	43101.55
561.72	43335.02
561.93	42976.62
562.13	43324.78
562.33	42962.29
562.53	43699.56
562.73	43206.00
562.93	43316.59
563.13	43812.20
563.33	43281.77
563.53	43857.25
563.73	43162.99
563.93	43797.86
564.13	44197.21
564.33	43875.68
564.53	43795.81
564.74	44166.49
564.94	43988.32
565.14	44248.41
565.34	44180.83
565.54	44367.20
565.74	44432.73
565.94	44793.17
566.14	43775.33
566.34	44156.25
566.54	44803.41
566.74	44143.97
566.94	44569.94
567.14	44453.21
567.34	44545.37
567.54	44752.21
567.74	44766.55
567.94	44981.59
568.14	45094.22
568.34	44488.03
568.54	44754.26
568.74	45161.81
568.94	45149.52
569.14	45782.34
569.34	45176.14
569.54	45006.16
569.75	45147.47
569.95	45270.35
570.15	45790.53
570.35	45800.77
570.55	45618.50
570.75	45577.54
570.95	45684.04
571.15	46077.25
571.35	45778.25
571.55	45917.51
571.75	45735.24
571.95	45858.12
572.15	45645.13
572.35	46056.77
572.55	46021.95
572.75	45968.71
572.95	46159.17
573.15	45987.14
573.35	46675.26
573.55	46103.87
573.75	46259.52
573.95	46449.98
574.15	46413.12
574.35	46331.20
574.55	46646.58
574.75	46413.12
574.95	46622.01
575.15	46935.35
575.34	46806.33
575.54	47056.18
575.74	47047.99
575.94	47332.65
576.14	47177.01
576.34	47373.61
576.54	47299.89
576.74	47277.36
576.94	46921.01
577.14	47535.40
577.34	47549.74
577.54	47387.95
577.74	47840.55
577.94	47349.04
578.14	47463.72
578.34	47533.35
578.54	47211.82
578.74	47535.40
578.94	48059.68
579.14	47852.84
579.34	47650.09
579.54	47906.08
579.74	47734.06
579.94	48041.25
580.13	47988.00
580.33	48297.25
580.53	48878.87
580.73	48147.75
580.93	48016.68
581.13	48413.98
581.33	48805.14
581.53	48641.31
581.73	48524.57
581.93	48868.63
582.13	48731.42
582.33	48923.93
582.53	48743.70
582.73	48805.14
582.92	48960.79
583.12	49444.11
583.32	48727.32
583.52	49143.06
583.72	49454.35
583.92	48905.49
584.12	49444.11
584.32	49677.58
584.52	49204.50
584.72	49503.50
584.92	49601.80
585.11	50031.88
585.31	49845.51
585.51	49865.99
585.71	49517.84
585.91	49911.05
586.11	49591.56
586.31	49655.05
586.51	50248.96
586.71	50078.98
586.91	50064.64
587.10	50148.61
587.30	50279.68
587.50	50451.71
587.70	50181.38
587.90	50185.47
588.10	50230.53
588.30	50263.30
588.50	50398.46
