SpectraSuite Data File
++++++++++++++++++++++++++++++++++++
Date: Fri Jun 02 14:57:21 CEST 2017
User: INFO_000
Dark Spectrum Present: No
Reference Spectrum Present: No
Number of Sampled Component Spectra: 1
Spectrometers: USB4H00879
Integration Time (usec): 80000 (USB4H00879)
Spectra Averaged: 1 (USB4H00879)
Boxcar Smoothing: 0 (USB4H00879)
Correct for Electrical Dark: No (USB4H00879)
Strobe/Lamp Enabled: No (USB4H00879)
Correct for Detector Non-linearity: No (USB4H00879)
Correct for Stray Light: No (USB4H00879)
Number of Pixels in Processed Spectrum: 3648
>>>>>Begin Processed Spectral Data<<<<<
345.13	1341.42
345.34	1341.42
345.56	1341.42
345.78	1282.03
345.99	1322.99
346.21	1708.01
346.42	1765.35
346.64	1634.28
346.86	1757.16
347.07	1677.29
347.29	1744.87
347.50	1654.76
347.72	1636.33
347.94	1789.92
348.15	1615.85
348.37	1650.66
348.59	1693.67
348.80	1724.39
349.02	1796.07
349.23	1890.28
349.45	1871.84
349.67	1886.18
349.88	1779.68
350.10	1978.34
350.31	1837.03
350.53	1732.58
350.75	1957.86
350.96	1857.51
351.18	1882.08
351.39	1871.84
351.61	1816.55
351.82	1888.23
352.04	1896.42
352.26	1890.28
352.47	1902.56
352.69	1896.42
352.90	1765.35
353.12	1771.49
353.34	1853.41
353.55	2002.91
353.77	1847.27
353.98	1832.93
354.20	1867.75
354.41	1933.28
354.63	2011.11
354.85	2097.12
355.06	1925.09
355.28	1794.02
355.49	1798.12
355.71	1875.94
355.92	1912.80
356.14	1945.57
356.35	1904.61
356.57	1806.31
356.79	1933.28
357.00	1855.46
357.22	1945.57
357.43	1888.23
357.65	1970.15
357.86	1845.22
358.08	1972.19
358.29	2021.35
358.51	1943.52
358.72	1961.95
358.94	1957.86
359.16	1941.47
359.37	1871.84
359.59	1935.33
359.80	1912.80
360.02	2000.87
360.23	1949.67
360.45	2009.06
360.66	1912.80
360.88	1894.37
361.09	1894.37
361.31	1961.95
361.52	2045.92
361.74	2031.58
361.95	2080.74
362.17	1945.57
362.38	2082.78
362.60	2103.26
362.81	1925.09
363.03	1933.28
363.24	2002.91
363.46	2158.56
363.67	2035.68
363.89	1920.99
364.10	2015.20
364.32	1918.95
364.53	2140.13
364.75	1896.42
364.96	2058.21
365.18	2076.64
365.39	2025.44
365.61	2002.91
365.82	2099.17
366.04	2025.44
366.25	1986.53
366.47	2068.45
366.68	2082.78
366.90	1894.37
367.11	2047.97
367.33	2015.20
367.54	2082.78
367.76	2029.54
367.97	2146.27
368.19	2074.59
368.40	2064.35
368.62	2000.87
368.83	2072.54
369.05	2068.45
369.26	2007.01
369.48	2004.96
369.69	2017.25
369.91	2047.97
370.12	2017.25
370.33	2133.98
370.55	1955.81
370.76	2002.91
370.98	2105.31
371.19	2035.68
371.41	2074.59
371.62	2000.87
371.84	2011.11
372.05	2154.46
372.27	2017.25
372.48	2136.03
372.69	2080.74
372.91	2146.27
373.12	2146.27
373.34	2111.46
373.55	2148.32
373.77	2183.13
373.98	2009.06
374.20	2113.50
374.41	2238.43
374.62	2168.80
374.84	2166.75
375.05	2187.23
375.27	2166.75
375.48	2142.18
375.70	2213.85
375.91	2174.94
376.12	2263.01
376.34	2144.22
376.55	2164.70
376.77	2160.61
376.98	2105.31
377.19	2093.02
377.41	2189.28
377.62	2189.28
377.84	2193.37
378.05	2326.49
378.27	2195.42
378.48	2383.84
378.69	2412.51
378.91	2314.20
379.12	2256.86
379.34	2183.13
379.55	2265.05
379.76	2324.44
379.98	2297.82
380.19	2271.20
380.41	2297.82
380.62	2392.03
380.83	2252.77
381.05	2230.24
381.26	2297.82
381.47	2281.44
381.69	2297.82
381.90	2402.27
382.12	2320.35
382.33	2340.83
382.54	2263.01
382.76	2285.53
382.97	2248.67
383.19	2330.59
383.40	2297.82
383.61	2252.77
383.83	2248.67
384.04	2283.49
384.25	2336.73
384.47	2361.31
384.68	2351.07
384.89	2277.34
385.11	2326.49
385.32	2332.64
385.54	2256.86
385.75	2351.07
385.96	2369.50
386.18	2449.37
386.39	2482.14
386.60	2396.12
386.82	2422.75
387.03	2447.32
387.24	2441.18
387.46	2432.99
387.67	2500.57
387.88	2531.29
388.10	2502.62
388.31	2461.66
388.52	2545.63
388.74	2527.19
388.95	2529.24
389.16	2562.01
389.38	2484.19
389.59	2494.43
389.80	2623.45
390.02	2549.72
390.23	2682.84
390.44	2424.80
390.66	2531.29
390.87	2545.63
391.08	2594.78
391.30	2684.89
391.51	2615.26
391.72	2672.60
391.94	2668.50
392.15	2605.02
392.36	2586.58
392.58	2551.77
392.79	2662.36
393.00	2633.69
393.22	2633.69
393.43	2734.04
393.64	2721.75
393.85	2775.00
394.07	2637.78
394.28	2658.26
394.49	2789.33
394.71	2805.72
394.92	2875.35
395.13	2633.69
395.35	2770.90
395.56	2797.53
395.77	2811.86
395.98	2807.77
396.20	2922.45
396.41	2805.72
396.62	2834.39
396.84	2795.48
397.05	2764.76
397.26	2928.60
397.47	2987.99
397.69	2893.78
397.90	3065.81
398.11	2875.35
398.32	2826.20
398.54	2867.16
398.75	3018.71
398.96	2887.64
399.18	3088.34
399.39	3053.52
399.60	3082.19
399.81	2967.51
400.03	2971.60
400.24	3143.63
400.45	2961.36
400.66	3055.57
400.88	3104.72
401.09	3231.69
401.30	3084.24
401.51	3157.97
401.73	3098.58
401.94	3252.17
402.15	3166.16
402.36	3141.58
402.58	3221.45
402.79	3205.07
403.00	3135.44
403.21	3227.60
403.43	3233.74
403.64	3282.89
403.85	3092.43
404.06	3395.53
404.27	3155.92
404.49	3237.84
404.70	3188.69
404.91	3272.65
405.12	3239.89
405.34	3250.13
405.55	3426.25
405.76	3207.12
405.97	3178.45
406.19	3381.20
406.40	3280.85
406.61	3413.96
406.82	3239.89
407.03	3387.34
407.25	3278.80
407.46	3346.38
407.67	3344.33
407.88	3487.69
408.09	3366.86
408.31	3278.80
408.52	3354.57
408.73	3416.01
408.94	3395.53
409.15	3538.89
409.37	3487.69
409.58	3557.32
409.79	3428.30
410.00	3508.17
410.21	3471.31
410.43	3557.32
410.64	3395.53
410.85	3502.03
411.06	3577.80
411.27	3585.99
411.48	3592.14
411.70	3504.07
411.91	3483.59
412.12	3633.10
412.33	3581.90
412.54	3551.18
412.76	3672.01
412.97	3708.87
413.18	3608.52
413.39	3678.15
413.60	3624.90
413.81	3674.06
414.03	3633.10
414.24	3606.47
414.45	3891.14
414.66	3585.99
414.87	3737.54
415.08	3631.05
415.30	3604.42
415.51	3753.93
415.72	3753.93
415.93	3819.46
416.14	3700.68
416.35	3833.80
416.56	3798.98
416.78	3772.36
416.99	3852.23
417.20	3827.65
417.41	3995.59
417.62	3968.96
417.83	3862.47
418.04	3874.76
418.26	3950.53
418.47	3821.51
418.68	3921.86
418.89	3919.81
419.10	4020.16
419.31	3923.91
419.52	4036.55
419.73	4003.78
419.95	4147.14
420.16	3925.96
420.37	3925.96
420.58	4067.27
420.79	4011.97
421.00	4112.32
421.21	4190.14
421.42	4157.38
421.63	4052.93
421.85	4192.19
422.06	4175.81
422.27	4265.92
422.48	4128.70
422.69	4366.27
422.90	4259.78
423.11	4245.44
423.32	4304.83
423.53	4442.04
423.75	4261.82
423.96	4474.81
424.17	4288.45
424.38	4532.15
424.59	4362.17
424.80	4622.27
425.01	4419.52
425.22	4380.61
425.43	4425.66
425.64	4571.07
425.85	4681.66
426.06	4517.82
426.28	4493.24
426.49	4501.44
426.70	4366.27
426.91	4652.98
427.12	4698.04
427.33	4655.03
427.54	4636.60
427.75	4614.07
427.96	4777.91
428.17	4722.62
428.38	4657.08
428.59	4898.74
428.80	4718.52
429.01	4892.60
429.23	4845.49
429.44	5117.87
429.65	4917.17
429.86	4941.75
430.07	4820.92
430.28	4779.96
430.49	4921.27
430.70	5109.68
430.91	5115.83
431.12	5091.25
431.33	5033.91
431.54	5025.72
431.75	5124.02
431.96	5177.26
432.17	5142.45
432.38	5162.93
432.59	5279.66
432.80	5197.74
433.01	5255.09
433.22	5302.19
433.43	5337.01
433.64	5263.28
433.85	5050.29
434.06	5330.86
434.27	5244.85
434.49	5400.49
434.70	5459.88
434.91	5457.84
435.12	5423.02
435.33	5595.05
435.54	5595.05
435.75	5394.35
435.96	5494.70
436.17	5427.12
436.38	5640.11
436.59	5689.26
436.80	5509.04
437.01	5898.15
437.22	5752.74
437.43	5631.91
437.64	5593.00
437.85	5822.38
438.06	5769.13
438.27	5599.15
438.48	5771.18
438.69	5865.38
438.90	5756.84
439.11	5750.70
439.32	5879.72
439.53	5902.25
439.74	5963.68
439.95	5799.85
440.16	5871.53
440.37	5994.40
440.57	5990.31
440.78	5885.86
440.99	6096.80
441.20	6004.64
441.41	6047.65
441.62	6072.23
441.83	5947.30
442.04	6203.30
442.25	6043.56
442.46	6133.67
442.67	6217.63
442.88	6506.40
443.09	6154.15
443.30	6209.44
443.51	6248.35
443.72	6422.43
443.93	6180.77
444.14	6369.18
444.35	6279.07
444.56	6244.26
444.77	6336.42
444.98	6336.42
445.19	6410.14
445.40	6391.71
445.61	6467.49
445.81	6479.77
446.02	6530.97
446.23	6487.96
446.44	6410.14
446.65	6582.17
446.86	6643.61
447.07	6571.93
447.28	6739.87
447.49	6715.29
447.70	6498.20
447.91	6629.27
448.12	6725.53
448.33	6897.56
448.54	6809.50
448.74	6655.90
448.95	6844.31
449.16	6635.42
449.37	7055.25
449.58	6748.06
449.79	7079.83
450.00	6627.23
450.21	7034.77
450.42	7126.93
450.63	6965.14
450.84	6891.41
451.05	6981.53
451.25	6940.57
451.46	6840.22
451.67	7147.41
451.88	7313.30
452.09	7159.70
452.30	7266.19
452.51	7327.63
452.72	7284.62
452.93	7483.28
453.13	7088.02
453.34	7286.67
453.55	7505.81
453.76	7266.19
453.97	7503.76
454.18	7464.85
454.39	7499.66
454.60	7593.87
454.81	7514.00
455.01	7583.63
455.22	7311.25
455.43	7577.48
455.64	7862.15
455.85	7741.32
456.06	7960.45
456.27	7888.78
456.48	7755.66
456.68	7835.53
456.89	7892.87
457.10	8025.99
457.31	8099.72
457.52	7954.31
457.73	7950.21
457.94	8445.82
458.14	7706.51
458.35	8353.66
458.56	8193.92
458.77	8177.54
458.98	8243.07
459.19	8281.99
459.39	8171.40
459.60	8411.01
459.81	8269.70
460.02	8662.91
460.23	8484.73
460.44	8660.86
460.65	8537.98
460.85	8734.59
461.06	8679.29
461.27	8568.70
461.48	8935.29
461.69	8836.99
461.89	8449.92
462.10	8898.42
462.31	8683.39
462.52	8892.28
462.73	8994.68
462.94	9033.59
463.14	8861.56
463.35	9176.95
463.56	9457.52
463.77	9252.72
463.98	9314.16
464.18	9191.28
464.39	9351.03
464.60	9541.49
464.81	9488.24
465.02	9547.63
465.23	9693.04
465.43	9434.99
465.64	9746.28
465.85	9678.70
466.06	9553.77
466.27	10041.19
466.47	9953.13
466.68	9893.74
466.89	9924.46
467.10	9979.75
467.30	9959.27
467.51	10168.16
467.72	10344.29
467.93	10012.52
468.14	10252.13
468.34	10428.26
468.55	10360.67
468.76	10458.98
468.97	10284.90
469.17	10682.20
469.38	10719.07
469.59	10760.03
469.80	10542.94
470.01	10712.92
470.21	10817.37
470.42	11253.59
470.63	10958.68
470.84	11042.65
471.04	11329.36
471.25	11116.37
471.46	11181.91
471.67	11511.63
471.87	11337.56
472.08	11562.83
472.29	11767.63
472.50	11362.13
472.70	11509.58
472.91	11654.99
473.12	11878.22
473.33	11751.24
473.53	11980.62
473.74	12044.10
473.95	12152.65
474.16	12173.13
474.36	12150.60
474.57	12308.29
474.78	12418.88
474.99	12281.67
475.19	12318.53
475.40	12687.17
475.61	12689.21
475.81	13004.60
476.02	12871.48
476.23	12896.06
476.44	12984.12
476.64	13229.88
476.85	13360.95
477.06	13319.99
477.27	13467.44
477.47	13680.43
477.68	13561.65
477.89	13582.13
478.09	13692.72
478.30	13850.41
478.51	13770.54
478.71	14190.38
478.92	14315.30
479.13	14468.90
479.34	14350.12
479.54	14473.00
479.75	14499.62
479.96	14599.97
480.16	14690.08
480.37	14438.18
480.58	14884.64
480.78	15255.32
480.99	14935.84
481.20	15195.93
481.41	15238.94
481.61	15288.09
481.82	15378.20
482.03	15130.39
482.23	15406.87
482.44	15738.64
482.65	16072.46
482.85	15949.58
483.06	15888.14
483.27	15804.17
483.47	15912.72
483.68	16006.92
483.89	16314.12
484.09	16023.31
484.30	16264.97
484.51	16500.48
484.71	16932.61
484.92	16576.26
485.13	17012.48
485.33	16785.15
485.54	16766.72
485.75	17049.34
485.95	17106.68
486.16	17465.08
486.37	17614.58
486.57	17481.46
486.78	17575.67
486.98	17479.41
487.19	17663.73
487.40	18024.17
487.60	17958.64
487.81	18317.03
488.02	18015.98
488.22	18132.72
488.43	18509.54
488.64	18247.40
488.84	18484.97
489.05	18579.17
489.25	18790.11
489.46	18824.93
489.67	18851.55
489.87	19146.46
490.08	19097.31
490.29	18894.56
490.49	19433.18
490.70	19572.44
490.90	19736.27
491.11	19687.12
491.32	19605.20
491.52	19605.20
491.73	19506.90
491.94	19771.09
492.14	19723.99
492.35	20246.22
492.55	20176.59
492.76	20295.37
492.97	20432.58
493.17	20555.46
493.38	20561.61
493.58	20825.79
493.79	20676.29
494.00	20872.90
494.20	20811.46
494.41	21100.22
494.61	21132.99
494.82	21219.00
495.02	21415.61
495.23	21413.56
495.44	21421.75
495.64	21393.08
495.85	21395.13
496.05	21526.20
496.26	21642.93
496.47	22052.53
496.67	21673.65
496.88	22079.15
497.08	21890.74
497.29	22314.67
497.49	22214.32
497.70	22359.72
497.91	22615.72
498.11	22537.90
498.32	22832.80
498.52	22484.65
498.73	23144.09
498.93	23021.22
499.14	22996.64
499.34	22929.06
499.55	23029.41
499.76	23232.16
499.96	23166.62
500.17	23107.23
500.37	23295.64
500.58	23199.39
500.78	23506.59
500.99	23738.01
501.19	23897.75
501.40	23905.94
501.60	23762.58
501.81	23860.88
502.02	23991.95
502.22	23596.70
502.43	24051.34
502.63	24088.21
502.84	24270.48
503.04	24221.33
503.25	24327.82
503.45	24571.53
503.66	24549.00
503.86	24559.24
504.07	24749.70
504.27	24626.82
504.48	25081.47
504.68	24823.43
504.89	25241.21
505.09	24899.20
505.30	25101.95
505.50	25396.86
505.71	25265.79
505.91	25224.83
506.12	25206.40
506.32	25306.75
506.53	25276.03
506.73	25431.68
506.94	25769.59
507.14	25732.73
507.35	25771.64
507.55	25781.88
507.76	25659.00
507.96	25710.20
508.17	25562.75
508.37	25798.26
508.58	26029.68
508.78	26087.03
508.99	26340.97
509.19	26105.46
509.40	26304.11
509.60	26541.68
509.81	26250.86
510.01	26316.40
510.22	26388.08
510.42	26347.12
510.63	26668.65
510.83	26617.45
511.04	26670.70
511.24	26576.49
511.44	26852.97
511.65	27147.87
511.85	26584.68
512.06	27088.48
512.26	26848.87
512.47	27016.80
512.67	27162.21
512.88	26949.22
513.08	26922.60
513.29	27381.34
513.49	27237.98
513.69	27113.06
513.90	27207.26
514.10	27620.95
514.31	27453.02
514.51	27639.39
514.72	27784.79
514.92	27706.97
515.13	27637.34
515.33	27489.88
515.53	27668.06
515.74	27608.67
515.94	27864.66
516.15	27598.43
516.35	27633.24
516.56	28126.80
516.76	27989.59
516.96	27874.90
517.17	28608.08
517.37	28186.19
517.58	28489.29
517.78	28409.42
517.99	28479.05
518.19	28479.05
518.39	28651.08
518.60	28755.53
518.80	28405.33
519.01	28696.14
519.21	28827.21
519.41	28976.71
519.62	28890.70
519.82	28919.37
520.03	29044.29
520.23	28921.41
520.43	28892.74
520.64	29464.13
520.84	29441.60
521.05	29421.12
521.25	29480.51
521.45	29455.93
521.66	29871.67
521.86	29494.85
522.07	29482.56
522.27	29732.41
522.47	29414.98
522.68	29877.82
522.88	29951.54
523.08	30070.33
523.29	30217.78
523.49	30191.16
523.70	30017.08
523.90	30393.90
524.10	30223.92
524.31	30672.43
524.51	30139.96
524.71	30471.73
524.92	30592.56
525.12	30856.75
525.33	30752.30
525.53	31028.77
525.73	31016.49
525.94	31036.97
526.14	30901.80
526.34	30875.18
526.55	31311.39
526.75	31069.73
526.95	31737.37
527.16	31268.39
527.36	31358.50
527.56	31440.42
527.77	31823.39
527.97	31585.82
528.17	31827.48
528.38	31630.88
528.58	32220.69
528.78	32040.47
528.99	31983.13
529.19	32151.06
529.39	32288.28
529.60	32089.62
529.80	32288.28
530.00	32314.90
530.21	32601.61
530.41	32960.01
530.61	32464.40
530.82	32986.63
531.02	32499.22
531.22	33050.12
531.43	32908.81
531.63	33316.36
531.83	33433.09
532.04	33486.34
532.24	33424.90
532.44	33904.12
532.64	33789.44
532.85	33814.01
533.05	33633.79
533.25	33881.60
533.46	33478.15
533.66	34330.10
533.86	34047.48
534.07	34428.40
534.27	34192.89
534.47	34192.89
534.67	34706.93
534.88	34352.63
535.08	34762.22
535.28	34670.06
535.49	34907.63
535.69	35333.60
535.89	35173.86
536.09	35079.66
536.30	35548.64
536.50	35231.21
536.70	35673.57
536.91	35276.26
537.11	35323.36
537.31	35730.91
537.51	35493.35
537.72	35677.66
537.92	35943.90
538.12	35970.52
538.32	35735.01
538.53	36240.86
538.73	36089.31
538.93	36074.97
539.13	36181.46
539.34	36109.78
539.54	36240.86
539.74	36890.06
539.94	36421.08
540.15	36697.55
540.35	36992.46
540.55	36769.23
540.75	36646.35
540.96	36722.13
541.16	37125.58
541.36	37107.15
541.56	37137.87
541.77	37529.03
541.97	37254.60
542.17	37352.90
542.37	37273.03
542.58	37502.40
542.78	37594.56
542.98	37420.48
543.18	37729.73
543.38	38102.46
543.59	37938.62
543.79	37533.12
543.99	37682.62
544.19	37678.53
544.40	38112.70
544.60	38079.93
544.80	38036.92
545.00	38399.41
545.20	38792.62
545.41	38512.05
545.61	38311.35
545.81	38729.14
546.01	38667.70
546.21	38684.08
546.42	38622.64
546.62	38897.07
546.82	38735.28
547.02	38950.32
547.22	38774.19
547.43	39007.66
547.63	38854.06
547.83	39179.69
548.03	39040.43
548.23	39255.46
548.44	39462.31
548.64	39556.52
548.84	39376.30
549.04	39271.85
549.24	39939.49
549.45	39886.24
549.65	39730.59
549.85	39515.56
550.05	39957.92
550.25	39796.13
550.45	40734.10
550.66	39968.16
550.86	39796.13
551.06	40365.46
551.26	39941.53
551.46	39894.43
551.66	40512.92
551.87	39933.34
552.07	40426.90
552.27	40162.72
552.47	40506.77
552.67	40297.88
552.87	40455.57
553.07	40392.09
553.28	40719.76
553.48	40748.43
553.68	40822.16
553.88	41121.16
554.08	41160.08
554.28	40744.34
554.48	40875.41
554.69	41063.82
554.89	40863.12
555.09	41217.42
555.29	40672.66
555.49	41354.63
555.69	41004.43
555.89	41307.53
556.10	41502.09
556.30	41368.97
556.50	41336.20
556.70	41530.76
556.90	41565.57
557.10	41538.95
557.30	41276.81
557.50	42098.05
557.70	42134.91
557.91	42132.86
558.11	41962.88
558.31	42395.00
558.51	41852.29
558.71	42081.66
558.91	42333.56
559.11	42323.32
559.31	41840.00
559.51	41670.02
559.72	42333.56
559.92	42571.13
560.12	42567.03
560.32	42694.00
560.52	42087.81
560.72	42603.89
560.92	42265.98
561.12	42880.37
561.32	43148.65
561.52	42495.35
561.72	43158.89
561.93	42386.81
562.13	42900.85
562.33	42519.93
562.53	43087.21
562.73	42802.55
562.93	42749.30
563.13	43224.43
563.33	42755.44
563.53	43066.73
563.73	43033.97
563.93	43232.62
564.13	43920.74
564.33	43210.09
564.53	43371.88
564.74	43773.28
564.94	43300.20
565.14	43572.58
565.34	43572.58
565.54	43785.57
565.74	43535.72
565.94	44049.76
566.14	43308.40
566.34	43548.01
566.54	44326.24
566.74	43730.28
566.94	44041.57
567.14	44152.16
567.34	43806.05
567.54	44195.17
567.74	43738.47
567.94	43619.69
568.14	44285.28
568.34	44584.28
568.54	44105.06
568.74	44397.91
568.94	44291.42
569.14	44729.69
569.34	44324.19
569.54	44641.62
569.75	43775.33
569.95	44313.95
570.15	45260.11
570.35	44778.84
570.55	44397.91
570.75	44815.70
570.95	44952.91
571.15	45092.18
571.35	45028.69
571.55	45032.78
571.75	44840.28
571.95	45294.92
572.15	44754.26
572.35	45309.26
572.55	45147.47
572.75	44926.29
572.95	45186.38
573.15	45585.74
573.35	45155.66
573.55	45243.73
573.75	45342.03
573.95	45663.56
574.15	45774.15
574.35	45733.19
574.55	45825.35
574.75	45530.44
574.95	46124.35
575.15	45782.34
575.34	45679.94
575.54	45946.18
575.74	46267.71
575.94	46298.43
576.14	46191.94
576.34	46505.27
576.54	46527.80
576.74	46118.21
576.94	46507.32
577.14	46374.20
577.34	46656.82
577.54	46390.59
577.74	46433.60
577.94	46601.53
578.14	46617.91
578.34	46425.40
578.54	46363.96
578.74	46611.77
578.94	47263.02
579.14	46583.10
579.34	46542.14
579.54	46925.11
579.74	47453.48
579.94	47166.77
580.13	46820.66
580.33	47535.40
580.53	47576.36
580.73	47510.83
580.93	47496.49
581.13	47314.22
581.33	47818.02
581.53	47795.49
581.73	47965.48
581.93	47703.34
582.13	48295.20
582.33	47932.71
582.53	47766.82
582.73	48084.26
582.92	48229.66
583.12	48469.28
583.32	48114.98
583.52	47893.80
583.72	48575.77
583.92	48016.68
584.12	47824.17
584.32	48121.12
584.52	48393.50
584.72	48530.72
584.92	48616.73
585.11	49214.74
585.31	49018.13
585.51	49247.50
585.71	48715.03
585.91	48829.72
586.11	48772.38
586.31	48940.31
586.51	49102.10
586.71	49079.57
586.91	49480.97
587.10	49267.98
587.30	49136.91
587.50	49413.39
587.70	49329.42
587.90	49399.05
588.10	49384.72
588.30	49532.17
588.50	49831.18
