SpectraSuite Data File
++++++++++++++++++++++++++++++++++++
Date: Fri Jun 02 14:57:18 CEST 2017
User: INFO_000
Dark Spectrum Present: No
Reference Spectrum Present: No
Number of Sampled Component Spectra: 1
Spectrometers: USB4H00879
Integration Time (usec): 80000 (USB4H00879)
Spectra Averaged: 1 (USB4H00879)
Boxcar Smoothing: 0 (USB4H00879)
Correct for Electrical Dark: No (USB4H00879)
Strobe/Lamp Enabled: No (USB4H00879)
Correct for Detector Non-linearity: No (USB4H00879)
Correct for Stray Light: No (USB4H00879)
Number of Pixels in Processed Spectrum: 3648
>>>>>Begin Processed Spectral Data<<<<<
345.13	1286.12
345.34	1286.12
345.56	1286.12
345.78	1271.79
345.99	1277.93
346.21	1728.49
346.42	1740.77
346.64	1658.85
346.86	1767.40
347.07	1679.33
347.29	1689.57
347.50	1591.27
347.72	1779.68
347.94	1718.25
348.15	1546.22
348.37	1617.90
348.59	1740.77
348.80	1615.85
349.02	1781.73
349.23	1943.52
349.45	1773.54
349.67	1875.94
349.88	1787.88
350.10	1976.29
350.31	1882.08
350.53	1834.98
350.75	1976.29
350.96	1781.73
351.18	1945.57
351.39	1863.65
351.61	1755.11
351.82	1906.66
352.04	1908.71
352.26	1875.94
352.47	1931.23
352.69	1920.99
352.90	1789.92
353.12	1847.27
353.34	1816.55
353.55	1916.90
353.77	1892.32
353.98	1908.71
354.20	1884.13
354.41	1855.46
354.63	1972.19
354.85	2041.82
355.06	1927.14
355.28	1779.68
355.49	1851.36
355.71	1947.62
355.92	1896.42
356.14	1882.08
356.35	1904.61
356.57	1826.79
356.79	1898.47
357.00	1843.17
357.22	1998.82
357.43	1861.60
357.65	1961.95
357.86	1830.88
358.08	1937.38
358.29	1832.93
358.51	1980.39
358.72	1972.19
358.94	1994.72
359.16	1964.00
359.37	1894.37
359.59	1998.82
359.80	2023.39
360.02	1953.76
360.23	1937.38
360.45	2009.06
360.66	1931.23
360.88	1902.56
361.09	1904.61
361.31	1994.72
361.52	1951.71
361.74	2076.64
361.95	2041.82
362.17	1900.52
362.38	2068.45
362.60	1955.81
362.81	2041.82
363.03	1941.47
363.24	2011.11
363.46	2107.36
363.67	2025.44
363.89	1968.10
364.10	1996.77
364.32	1941.47
364.53	2027.49
364.75	1929.19
364.96	1998.82
365.18	2000.87
365.39	2045.92
365.61	1935.33
365.82	2117.60
366.04	1984.48
366.25	1978.34
366.47	2035.68
366.68	2021.35
366.90	1996.77
367.11	2035.68
367.33	2027.49
367.54	2103.26
367.76	2074.59
367.97	2142.18
368.19	1961.95
368.40	2054.11
368.62	1953.76
368.83	2002.91
369.05	2015.20
369.26	2009.06
369.48	1968.10
369.69	2054.11
369.91	2045.92
370.12	2072.54
370.33	2088.93
370.55	1990.63
370.76	2043.87
370.98	2101.22
371.19	2076.64
371.41	2086.88
371.62	2109.41
371.84	1970.15
372.05	2203.61
372.27	2084.83
372.48	2080.74
372.69	2033.63
372.91	2195.42
373.12	2236.38
373.34	2150.37
373.55	2127.84
373.77	2199.52
373.98	2125.79
374.20	2152.42
374.41	2224.09
374.62	2207.71
374.84	2215.90
375.05	2187.23
375.27	2236.38
375.48	2133.98
375.70	2097.12
375.91	2250.72
376.12	2283.49
376.34	2166.75
376.55	2211.81
376.77	2230.24
376.98	2136.03
377.19	2172.89
377.41	2144.22
377.62	2211.81
377.84	2297.82
378.05	2326.49
378.27	2271.20
378.48	2314.20
378.69	2389.98
378.91	2281.44
379.12	2277.34
379.34	2349.02
379.55	2332.64
379.76	2318.30
379.98	2224.09
380.19	2197.47
380.41	2246.62
380.62	2299.87
380.83	2293.72
381.05	2230.24
381.26	2406.36
381.47	2236.38
381.69	2291.68
381.90	2449.37
382.12	2332.64
382.33	2367.45
382.54	2289.63
382.76	2351.07
382.97	2338.78
383.19	2181.09
383.40	2394.08
383.61	2303.96
383.83	2338.78
384.04	2365.40
384.25	2375.64
384.47	2389.98
384.68	2392.03
384.89	2293.72
385.11	2332.64
385.32	2281.44
385.54	2422.75
385.75	2336.73
385.96	2412.51
386.18	2461.66
386.39	2404.32
386.60	2404.32
386.82	2478.04
387.03	2418.65
387.24	2471.90
387.46	2445.27
387.67	2496.47
387.88	2527.19
388.10	2488.28
388.31	2498.52
388.52	2498.52
388.74	2461.66
388.95	2584.54
389.16	2422.75
389.38	2471.90
389.59	2621.40
389.80	2506.71
390.02	2465.75
390.23	2666.46
390.44	2590.68
390.66	2432.99
390.87	2549.72
391.08	2514.91
391.30	2670.55
391.51	2658.26
391.72	2719.70
391.94	2719.70
392.15	2631.64
392.36	2519.00
392.58	2578.39
392.79	2605.02
393.00	2691.03
393.22	2770.90
393.43	2684.89
393.64	2779.09
393.85	2883.54
394.07	2707.41
394.28	2750.42
394.49	2725.85
394.71	2699.22
394.92	2830.29
395.13	2748.37
395.35	2705.37
395.56	2699.22
395.77	2754.52
395.98	2809.81
396.20	2910.16
396.41	2838.48
396.62	2920.40
396.84	2756.57
397.05	2783.19
397.26	2932.69
397.47	2934.74
397.69	2828.24
397.90	3049.43
398.11	2877.40
398.32	2846.68
398.54	2824.15
398.75	2922.45
398.96	2914.26
399.18	3135.44
399.39	2934.74
399.60	3043.28
399.81	2875.35
400.03	2879.44
400.24	3278.80
400.45	2910.16
400.66	3051.47
400.88	3028.95
401.09	3076.05
401.30	2957.27
401.51	3112.91
401.73	3157.97
401.94	3051.47
402.15	3100.62
402.36	3121.10
402.58	3229.65
402.79	3182.54
403.00	3211.22
403.21	3217.36
403.43	3262.41
403.64	3235.79
403.85	3227.60
404.06	3272.65
404.27	3190.74
404.49	3196.88
404.70	3200.98
404.91	3354.57
405.12	3354.57
405.34	3227.60
405.55	3354.57
405.76	3203.02
405.97	3293.13
406.19	3368.91
406.40	3301.33
406.61	3377.10
406.82	3348.43
407.03	3375.05
407.25	3262.41
407.46	3514.31
407.67	3452.88
407.88	3477.45
408.09	3403.72
408.31	3342.28
408.52	3399.63
408.73	3436.49
408.94	3475.40
409.15	3495.88
409.37	3551.18
409.58	3542.99
409.79	3581.90
410.00	3542.99
410.21	3465.16
410.43	3491.79
410.64	3452.88
410.85	3610.57
411.06	3493.83
411.27	3489.74
411.48	3665.86
411.70	3618.76
411.91	3592.14
412.12	3614.66
412.33	3669.96
412.54	3526.60
412.76	3692.49
412.97	3758.02
413.18	3594.19
413.39	3608.52
413.60	3663.82
413.81	3794.89
414.03	3729.35
414.24	3635.14
414.45	3919.81
414.66	3653.58
414.87	3807.17
415.08	3649.48
415.30	3829.70
415.51	3786.69
415.72	3782.60
415.93	3776.45
416.14	3821.51
416.35	3911.62
416.56	3846.09
416.78	3862.47
416.99	3817.41
417.20	4016.07
417.41	4001.73
417.62	3870.66
417.83	4018.11
418.04	3925.96
418.26	3960.77
418.47	3909.57
418.68	4046.79
418.89	4048.83
419.10	4143.04
419.31	4016.07
419.52	4065.22
419.73	4100.03
419.95	4040.64
420.16	3985.35
420.37	4126.66
420.58	4116.42
420.79	3985.35
421.00	4075.46
421.21	4157.38
421.42	4034.50
421.63	4218.82
421.85	4210.62
422.06	4313.02
422.27	4167.62
422.48	4202.43
422.69	4222.91
422.90	4241.34
423.11	4308.93
423.32	4200.38
423.53	4362.17
423.75	4349.89
423.96	4437.95
424.17	4450.24
424.38	4450.24
424.59	4360.13
424.80	4597.69
425.01	4571.07
425.22	4388.80
425.43	4450.24
425.64	4601.79
425.85	4714.42
426.06	4419.52
426.28	4579.26
426.49	4409.28
426.70	4497.34
426.91	4489.15
427.12	4618.17
427.33	4636.60
427.54	4587.45
427.75	4528.06
427.96	4736.95
428.17	4843.45
428.38	4747.19
428.59	4788.15
428.80	4665.27
429.01	4632.51
429.23	4732.86
429.44	4872.12
429.65	4884.41
429.86	4984.76
430.07	4820.92
430.28	5003.19
430.49	4939.70
430.70	4954.04
430.91	5099.44
431.12	4937.65
431.33	4966.32
431.54	5115.83
431.75	5058.48
431.96	5115.83
432.17	5046.20
432.38	5164.98
432.59	5291.95
432.80	5181.36
433.01	5250.99
433.22	5287.86
433.43	5138.35
433.64	5285.81
433.85	5074.87
434.06	5242.80
434.27	5230.51
434.49	5259.18
434.70	5382.06
434.91	5261.23
435.12	5349.29
435.33	5502.89
435.54	5412.78
435.75	5140.40
435.96	5392.30
436.17	5416.88
436.38	5580.71
436.59	5494.70
436.80	5453.74
437.01	5760.94
437.22	5599.15
437.43	5584.81
437.64	5357.49
437.85	5762.98
438.06	5746.60
438.27	5523.37
438.48	5545.90
438.69	5611.43
438.90	5695.40
439.11	5658.54
439.32	5857.19
439.53	5744.55
439.74	5719.98
439.95	5918.63
440.16	5797.80
440.37	5928.87
440.57	5605.29
440.78	5894.05
440.99	5859.24
441.20	5973.92
441.41	5816.23
441.62	6064.04
441.83	5771.18
442.04	6064.04
442.25	6053.80
442.46	6078.37
442.67	6051.75
442.88	6358.94
443.09	5996.45
443.30	6156.19
443.51	6180.77
443.72	6449.05
443.93	6031.27
444.14	6299.55
444.35	6098.85
444.56	6332.32
444.77	6352.80
444.98	6244.26
445.19	6426.53
445.40	6322.08
445.61	6350.75
445.81	6356.90
446.02	6580.12
446.23	6393.76
446.44	6350.75
446.65	6549.40
446.86	6528.92
447.07	6598.56
447.28	6672.28
447.49	6514.59
447.70	6545.31
447.91	6688.67
448.12	6786.97
448.33	6723.48
448.54	6868.89
448.74	6600.60
448.95	6758.30
449.16	6746.01
449.37	7063.44
449.58	6850.46
449.79	6969.24
450.00	6743.96
450.21	6963.09
450.42	7120.79
450.63	7188.37
450.84	6891.41
451.05	7053.20
451.25	7059.35
451.46	7077.78
451.67	7280.53
451.88	7292.82
452.09	7237.52
452.30	7245.71
452.51	7151.51
452.72	7415.69
452.93	7544.72
453.13	7194.51
453.34	7286.67
453.55	7524.24
453.76	7325.58
453.97	7643.02
454.18	7493.52
454.39	7499.66
454.60	7671.69
454.81	7567.24
455.01	7759.75
455.22	7493.52
455.43	7780.23
455.64	7907.21
455.85	7995.27
456.06	8087.43
456.27	8083.33
456.48	7751.56
456.68	8007.56
456.89	8077.19
457.10	8191.88
457.31	7911.30
457.52	8023.94
457.73	8238.98
457.94	8374.14
458.14	8089.48
458.35	8548.22
458.56	8402.82
458.77	8355.71
458.98	8595.32
459.19	8392.58
459.39	8449.92
459.60	8685.44
459.81	8396.67
460.02	8697.72
460.23	8681.34
460.44	9013.11
460.65	8814.46
460.85	8808.31
461.06	9117.56
461.27	8802.17
461.48	9174.90
461.69	9123.70
461.89	8830.84
462.10	9049.97
462.31	9070.45
462.52	9023.35
462.73	9121.65
462.94	9428.85
463.14	9285.49
463.35	9322.35
463.56	9783.15
463.77	9439.09
463.98	9314.16
464.18	9600.88
464.39	9742.19
464.60	9867.11
464.81	9824.11
465.02	9633.64
465.23	9756.52
465.43	9811.82
465.64	9973.61
465.85	9926.50
466.06	9889.64
466.27	10327.91
466.47	10319.71
466.68	10205.03
466.89	10143.59
467.10	10293.09
467.30	10180.45
467.51	10346.34
467.72	10686.30
467.93	10198.88
468.14	10473.31
468.34	10762.08
468.55	10694.49
468.76	10596.19
468.97	10624.86
469.17	10954.58
469.38	10964.82
469.59	11016.02
469.80	10942.30
470.01	10968.92
470.21	11050.84
470.42	11280.21
470.63	11532.11
470.84	11284.31
471.04	11444.05
471.25	11384.66
471.46	11312.98
471.67	11835.21
471.87	11568.98
472.08	11792.20
472.29	11876.17
472.50	11472.72
472.70	11741.00
472.91	11718.48
473.12	11986.76
473.33	11976.52
473.53	12410.69
473.74	11956.04
473.95	12451.65
474.16	12482.37
474.36	12070.73
474.57	12537.66
474.78	12525.38
474.99	12371.78
475.19	12726.08
475.40	12767.04
475.61	12971.83
475.81	12879.68
476.02	13121.34
476.23	13018.94
476.44	13180.73
476.64	13150.01
476.85	13514.55
477.06	13324.08
477.27	13549.36
477.47	13854.51
477.68	13643.57
477.89	13668.14
478.09	13858.60
478.30	14020.39
478.51	14083.88
478.71	14075.69
478.92	14065.45
479.13	14241.57
479.34	14628.64
479.54	14382.88
479.75	14528.29
479.96	14554.91
480.16	14487.33
480.37	14554.91
480.58	14790.43
480.78	15038.23
480.99	14890.78
481.20	15222.55
481.41	15263.51
481.61	15310.61
481.82	15474.45
482.03	15318.81
482.23	15529.75
482.44	15605.52
482.65	15716.11
482.85	16025.36
483.06	15826.70
483.27	15902.48
483.47	15826.70
483.68	15888.14
483.89	16090.89
484.09	16156.43
484.30	16183.05
484.51	16416.52
484.71	16434.95
484.92	16375.56
485.13	16504.58
485.33	16922.37
485.54	16621.31
485.75	16914.17
485.95	17094.40
486.16	17049.34
486.37	17078.01
486.57	17141.50
486.78	17198.84
486.98	17454.84
487.19	17551.09
487.40	17837.81
487.60	17651.44
487.81	17714.93
488.02	17526.52
488.22	17899.25
488.43	17977.07
488.64	18288.36
488.84	18239.21
489.05	18360.04
489.25	18472.68
489.46	18472.68
489.67	18444.01
489.87	18687.71
490.08	18663.14
490.29	18740.96
490.49	19023.58
490.70	19205.85
490.90	19107.55
491.11	19031.77
491.32	19062.49
491.52	19099.36
491.73	19427.03
491.94	19465.94
492.14	19590.87
492.35	19644.12
492.55	19744.47
492.76	19730.13
492.97	19812.05
493.17	19902.16
493.38	20152.01
493.58	19932.88
493.79	20070.09
494.00	20162.25
494.20	20510.41
494.41	20457.16
494.61	20743.88
494.82	20868.80
495.02	20584.13
495.23	20752.07
495.44	21014.21
495.64	21089.98
495.85	21079.74
496.05	21302.97
496.26	21317.31
496.47	21753.52
496.67	21030.59
496.88	21814.96
497.08	21333.69
497.29	21694.13
497.49	21812.92
497.70	21989.04
497.91	22054.58
498.11	22140.59
498.32	22118.06
498.52	22404.78
498.73	22677.16
498.93	22273.71
499.14	22687.40
499.34	22367.91
499.55	22744.74
499.76	22421.16
499.96	22810.28
500.17	22920.87
500.37	22949.54
500.58	23037.60
500.78	23172.77
500.99	23266.97
501.19	23611.03
501.40	23486.11
501.60	23529.11
501.81	23506.59
502.02	23586.46
502.22	23154.33
502.43	23826.07
502.63	24041.11
502.84	24118.93
503.04	23981.71
503.25	24075.92
503.45	24331.92
503.66	24090.26
503.86	24243.85
504.07	24530.57
504.27	24077.97
504.48	24692.36
504.68	24649.35
504.89	24880.77
505.09	24979.07
505.30	25271.93
505.50	24993.41
505.71	25163.39
505.91	25077.38
506.12	25134.72
506.32	25030.27
506.53	25431.68
506.73	25325.18
506.94	25577.08
507.14	25276.03
507.35	25579.13
507.55	25816.69
507.76	25726.58
507.96	25736.82
508.17	26134.13
508.37	25790.07
508.58	25951.86
508.78	25923.19
508.99	26218.10
509.19	26218.10
509.40	26334.83
509.60	26545.77
509.81	26562.15
510.01	26480.24
510.22	26793.58
510.42	26730.09
510.63	26764.90
510.83	26668.65
511.04	26654.31
511.24	27057.76
511.44	27033.19
511.65	27080.29
511.85	26906.21
512.06	27049.57
512.26	27328.10
512.47	27379.29
512.67	27438.69
512.88	27174.50
513.08	27176.55
513.29	27670.11
513.49	27629.15
513.69	27584.09
513.90	27549.28
514.10	27721.30
514.31	27889.24
514.51	28051.03
514.72	27965.01
514.92	27905.62
515.13	28081.75
515.33	28126.80
515.53	28542.54
515.74	28261.97
515.94	28347.98
516.15	28153.43
516.35	28268.11
516.56	28657.23
516.76	28651.08
516.96	28816.97
517.17	28778.06
517.37	28841.54
517.58	29165.12
517.78	29005.38
517.99	28751.43
518.19	29032.00
518.39	29283.91
518.60	29470.27
518.80	29326.91
519.01	29670.97
519.21	29607.48
519.41	29623.87
519.62	29435.45
519.82	29769.27
520.03	29580.86
520.23	29793.85
520.43	29898.30
520.64	30156.34
520.84	29855.29
521.05	29967.93
521.25	30295.60
521.45	30539.31
521.66	30350.90
521.86	30250.55
522.07	30324.27
522.27	30613.04
522.47	30301.75
522.68	31026.73
522.88	30885.42
523.08	31125.03
523.29	31170.08
523.49	31075.88
523.70	31082.02
523.90	31585.82
524.10	31014.44
524.31	31475.23
524.51	31360.55
524.71	31694.36
524.92	31604.25
525.12	31583.77
525.33	31884.83
525.53	31862.30
525.73	31948.31
525.94	32067.09
526.14	31823.39
526.34	32245.27
526.55	32052.76
526.75	32282.13
526.95	32685.58
527.16	32396.82
527.36	32445.97
527.56	32753.16
527.77	32667.15
527.97	32640.53
528.17	32642.57
528.38	33134.09
528.58	32988.68
528.78	33336.84
528.99	33254.92
529.19	33625.60
529.39	32820.75
529.60	33527.30
529.80	33283.59
530.00	33375.75
530.21	33664.51
530.41	33828.35
530.61	33601.02
530.82	34309.62
531.02	33938.94
531.22	34203.13
531.43	34065.91
531.63	34084.34
531.83	34131.45
532.04	34651.63
532.24	34172.41
532.44	34858.48
532.64	34790.89
532.85	34854.38
533.05	34866.67
533.25	35091.94
533.46	34844.14
533.66	35198.44
533.86	34977.26
534.07	35343.84
534.27	35175.91
534.47	35286.50
534.67	35454.44
534.88	35358.18
535.08	35427.81
535.28	35841.50
535.49	36021.72
535.69	35978.72
535.89	36025.82
536.09	35827.17
536.30	36412.88
536.50	35960.28
536.70	36382.16
536.91	36388.31
537.11	36128.22
537.31	36509.14
537.51	36316.63
537.72	36636.11
537.92	36867.53
538.12	36988.36
538.32	37000.65
538.53	36699.60
538.73	36728.27
538.93	36867.53
539.13	36984.27
539.34	36892.11
539.54	36603.35
539.74	37279.18
539.94	37567.94
540.15	37086.67
540.35	37705.15
540.55	37676.48
540.75	37651.91
540.96	37797.31
541.16	37393.86
541.36	37721.54
541.56	37735.87
541.77	37899.71
541.97	37770.69
542.17	37830.08
542.37	38079.93
542.58	38258.10
542.78	37897.66
542.98	37934.53
543.18	38122.94
543.38	38729.14
543.59	38483.38
543.79	38110.65
543.99	38503.86
544.19	38733.23
544.40	38536.63
544.60	39019.95
544.80	38448.57
545.00	38548.92
545.20	38995.37
545.41	39009.71
545.61	38647.22
545.81	38774.19
546.01	38946.22
546.21	39017.90
546.42	38770.10
546.62	39052.72
546.82	38935.98
547.02	38903.21
547.22	39421.35
547.43	39335.34
547.63	39204.27
547.83	39392.68
548.03	39447.97
548.23	39488.93
548.44	39540.13
548.64	39419.30
548.84	39443.88
549.04	39540.13
549.24	39728.55
549.45	39783.84
549.65	39611.81
549.85	39495.08
550.05	39751.07
550.25	39738.79
550.45	39984.54
550.66	40058.27
550.86	39990.69
551.06	40570.26
551.26	40347.03
551.46	40228.25
551.66	39972.25
551.87	40240.54
552.07	40017.31
552.27	40080.80
552.47	40197.53
552.67	39818.66
552.87	40455.57
553.07	40453.53
553.28	40390.04
553.48	40721.81
553.68	40261.02
553.88	40779.15
554.08	40719.76
554.28	40465.81
554.48	40039.84
554.69	40826.26
554.89	40672.66
555.09	40744.34
555.29	40785.30
555.49	40959.38
555.69	41065.87
555.89	40738.19
556.10	41399.69
556.30	40805.78
556.50	40942.99
556.70	40469.91
556.90	41039.25
557.10	41526.66
557.30	40986.00
557.50	41368.97
557.70	41307.53
557.91	41252.23
558.11	41399.69
558.31	41108.88
558.51	41186.70
558.71	41360.78
558.91	41926.02
559.11	41180.56
559.31	41090.44
559.51	41266.57
559.72	41444.74
559.92	41092.49
560.12	41203.08
560.32	41772.42
560.52	41819.52
560.72	41573.77
560.92	41596.29
561.12	41940.35
561.32	42409.34
561.52	42048.89
561.72	42188.16
561.93	41989.50
562.13	42016.13
562.33	41672.07
562.53	42466.68
562.73	41950.59
562.93	42325.37
563.13	42274.17
563.33	42153.34
563.53	42874.23
563.73	42206.59
563.93	42130.81
564.13	42716.53
564.33	42542.45
564.53	42358.14
564.74	42474.87
564.94	42669.43
565.14	42540.41
565.34	42370.43
565.54	42687.86
565.74	42597.75
565.94	42997.10
566.14	42620.28
566.34	42519.93
566.54	42841.46
566.74	42448.25
566.94	43001.20
567.14	42972.53
567.34	42575.22
567.54	43029.87
567.74	43472.23
567.94	43222.38
568.14	43148.65
568.34	43216.24
568.54	43277.68
568.74	42835.31
568.94	43345.26
569.14	43629.93
569.34	43500.90
569.54	43689.32
569.75	43603.30
569.95	43656.55
570.15	43832.68
570.35	43640.17
570.55	43332.97
570.75	43730.28
570.95	43920.74
571.15	43763.04
571.35	43814.24
571.55	43982.18
571.75	44162.40
571.95	44250.46
572.15	44000.61
572.35	44410.20
572.55	44561.75
572.75	44193.12
572.95	44420.44
573.15	44334.43
573.35	44324.19
573.55	44385.63
573.75	44574.04
573.95	44856.66
574.15	44672.34
574.35	44809.56
574.55	44686.68
574.75	44897.62
574.95	44875.09
575.15	44860.76
575.34	45299.02
575.54	44889.43
575.74	45565.26
575.94	44954.96
576.14	45442.38
576.34	45735.24
576.54	45368.65
576.74	45512.01
576.94	45557.06
577.14	45548.87
577.34	46038.34
577.54	45536.59
577.74	45587.78
577.94	45618.50
578.14	46265.66
578.34	46535.99
578.54	45667.66
578.74	46099.78
578.94	46591.29
579.14	46120.26
579.34	45927.75
579.54	46028.10
579.74	46474.55
579.94	46703.93
580.13	46406.97
580.33	46800.18
580.53	46775.61
580.73	46884.15
580.93	47250.74
581.13	46916.92
581.33	47179.06
581.53	47381.80
581.73	46966.07
581.93	47187.25
582.13	47529.26
582.33	47412.52
582.53	47144.24
582.73	47602.99
582.92	47832.36
583.12	47715.62
583.32	47805.73
583.52	47521.07
583.72	48284.96
583.92	47689.00
584.12	47953.19
584.32	48149.79
584.52	48114.98
584.72	48342.30
584.92	48327.97
585.11	48622.87
585.31	48254.24
585.51	48424.22
585.71	48559.39
585.91	49050.90
586.11	48512.28
586.31	48719.13
586.51	48563.48
586.71	48919.83
586.91	49249.55
587.10	49333.52
587.30	49237.26
587.50	49083.67
587.70	49595.66
587.90	49251.60
588.10	49566.99
588.30	49423.63
588.50	49440.01
