SpectraSuite Data File
++++++++++++++++++++++++++++++++++++
Date: Fri Jun 02 14:57:24 CEST 2017
User: INFO_000
Dark Spectrum Present: No
Reference Spectrum Present: No
Number of Sampled Component Spectra: 1
Spectrometers: USB4H00879
Integration Time (usec): 80000 (USB4H00879)
Spectra Averaged: 1 (USB4H00879)
Boxcar Smoothing: 0 (USB4H00879)
Correct for Electrical Dark: No (USB4H00879)
Strobe/Lamp Enabled: No (USB4H00879)
Correct for Detector Non-linearity: No (USB4H00879)
Correct for Stray Light: No (USB4H00879)
Number of Pixels in Processed Spectrum: 3648
>>>>>Begin Processed Spectral Data<<<<<
345.13	1294.32
345.34	1294.32
345.56	1294.32
345.78	1269.74
345.99	1249.26
346.21	1726.44
346.42	1665.00
346.64	1675.24
346.86	1839.08
347.07	1650.66
347.29	1669.09
347.50	1568.74
347.72	1724.39
347.94	1771.49
348.15	1640.42
348.37	1634.28
348.59	1697.77
348.80	1667.05
349.02	1777.64
349.23	1834.98
349.45	1796.07
349.67	1908.71
349.88	1845.22
350.10	1916.90
350.31	1798.12
350.53	1830.88
350.75	1998.82
350.96	1820.64
351.18	1814.50
351.39	1867.75
351.61	1757.16
351.82	1914.85
352.04	1892.32
352.26	1841.12
352.47	1894.37
352.69	1931.23
352.90	1814.50
353.12	1914.85
353.34	1959.91
353.55	1871.84
353.77	1855.46
353.98	1834.98
354.20	1880.04
354.41	1953.76
354.63	1976.29
354.85	2072.54
355.06	1847.27
355.28	1818.60
355.49	1931.23
355.71	1904.61
355.92	1847.27
356.14	1923.04
356.35	1875.94
356.57	1810.40
356.79	1900.52
357.00	1853.41
357.22	2019.30
357.43	1884.13
357.65	1880.04
357.86	1869.80
358.08	1994.72
358.29	2015.20
358.51	1920.99
358.72	1892.32
358.94	1978.34
359.16	1916.90
359.37	1947.62
359.59	1931.23
359.80	2021.35
360.02	1929.19
360.23	2004.96
360.45	2002.91
360.66	1978.34
360.88	1812.45
361.09	1906.66
361.31	1959.91
361.52	1947.62
361.74	1949.67
361.95	2078.69
362.17	1929.19
362.38	2103.26
362.60	2045.92
362.81	1986.53
363.03	1968.10
363.24	1992.67
363.46	2172.89
363.67	2060.26
363.89	2013.15
364.10	2037.73
364.32	1986.53
364.53	2050.02
364.75	1966.05
364.96	1943.52
365.18	2045.92
365.39	2113.50
365.61	1953.76
365.82	2160.61
366.04	1982.43
366.25	1961.95
366.47	2111.46
366.68	2070.50
366.90	1988.58
367.11	2078.69
367.33	2105.31
367.54	2142.18
367.76	2064.35
367.97	2097.12
368.19	2027.49
368.40	2078.69
368.62	1900.52
368.83	2041.82
369.05	2082.78
369.26	2031.58
369.48	2002.91
369.69	2029.54
369.91	2031.58
370.12	2066.40
370.33	2121.70
370.55	2009.06
370.76	2011.11
370.98	2150.37
371.19	2009.06
371.41	2029.54
371.62	1992.67
371.84	2037.73
372.05	2109.41
372.27	2031.58
372.48	2033.63
372.69	2154.46
372.91	2195.42
373.12	2148.32
373.34	2047.97
373.55	2189.28
373.77	2115.55
373.98	2068.45
374.20	2078.69
374.41	2267.10
374.62	2146.27
374.84	2123.74
375.05	2187.23
375.27	2131.94
375.48	2105.31
375.70	2170.85
375.91	2197.47
376.12	2279.39
376.34	2172.89
376.55	2113.50
376.77	2166.75
376.98	2033.63
377.19	2095.07
377.41	2117.60
377.62	2176.99
377.84	2230.24
378.05	2338.78
378.27	2150.37
378.48	2402.27
378.69	2408.41
378.91	2232.29
379.12	2271.20
379.34	2281.44
379.55	2297.82
379.76	2244.57
379.98	2213.85
380.19	2242.53
380.41	2246.62
380.62	2295.77
380.83	2342.88
381.05	2260.96
381.26	2437.08
381.47	2158.56
381.69	2349.02
381.90	2383.84
382.12	2355.16
382.33	2334.68
382.54	2394.08
382.76	2336.73
382.97	2389.98
383.19	2236.38
383.40	2342.88
383.61	2359.26
383.83	2285.53
384.04	2373.60
384.25	2258.91
384.47	2441.18
384.68	2328.54
384.89	2351.07
385.11	2293.72
385.32	2353.12
385.54	2279.39
385.75	2357.21
385.96	2461.66
386.18	2322.40
386.39	2510.81
386.60	2367.45
386.82	2426.84
387.03	2342.88
387.24	2469.85
387.46	2519.00
387.67	2426.84
387.88	2510.81
388.10	2432.99
388.31	2426.84
388.52	2564.06
388.74	2574.30
388.95	2512.86
389.16	2523.10
389.38	2557.91
389.59	2629.59
389.80	2607.06
390.02	2557.91
390.23	2619.35
390.44	2582.49
390.66	2467.80
390.87	2424.80
391.08	2510.81
391.30	2680.79
391.51	2611.16
391.72	2742.23
391.94	2555.86
392.15	2600.92
392.36	2555.86
392.58	2643.93
392.79	2553.82
393.00	2666.46
393.22	2670.55
393.43	2699.22
393.64	2766.81
393.85	2715.61
394.07	2705.37
394.28	2734.04
394.49	2752.47
394.71	2762.71
394.92	2854.87
395.13	2744.28
395.35	2699.22
395.56	2815.96
395.77	2707.41
395.98	2738.13
396.20	2879.44
396.41	2815.96
396.62	2813.91
396.84	2846.68
397.05	2883.54
397.26	2844.63
397.47	2887.64
397.69	2770.90
397.90	3082.19
398.11	2901.97
398.32	2867.16
398.54	2867.16
398.75	2944.98
398.96	2879.44
399.18	3198.93
399.39	2961.36
399.60	3026.90
399.81	2932.69
400.03	2854.87
400.24	3166.16
400.45	2957.27
400.66	3133.39
400.88	3084.24
401.09	3190.74
401.30	3059.67
401.51	3129.30
401.73	3049.43
401.94	3082.19
402.15	3096.53
402.36	3063.76
402.58	3092.43
402.79	3200.98
403.00	3157.97
403.21	3168.21
403.43	3229.65
403.64	3219.41
403.85	3108.82
404.06	3286.99
404.27	3192.78
404.49	3217.36
404.70	3211.22
404.91	3325.90
405.12	3205.07
405.34	3225.55
405.55	3426.25
405.76	3270.61
405.97	3258.32
406.19	3381.20
406.40	3272.65
406.61	3311.57
406.82	3323.85
407.03	3289.04
407.25	3229.65
407.46	3340.24
407.67	3434.44
407.88	3475.40
408.09	3383.24
408.31	3407.82
408.52	3448.78
408.73	3354.57
408.94	3403.72
409.15	3448.78
409.37	3493.83
409.58	3567.56
409.79	3522.51
410.00	3569.61
410.21	3461.07
410.43	3454.92
410.64	3430.35
410.85	3506.12
411.06	3407.82
411.27	3575.75
411.48	3633.10
411.70	3522.51
411.91	3684.30
412.12	3651.53
412.33	3590.09
412.54	3538.89
412.76	3682.25
412.97	3723.21
413.18	3575.75
413.39	3561.42
413.60	3688.39
413.81	3727.30
414.03	3694.54
414.24	3588.04
414.45	3776.45
414.66	3616.71
414.87	3672.01
415.08	3696.58
415.30	3669.96
415.51	3739.59
415.72	3647.43
415.93	3633.10
416.14	3755.97
416.35	3764.17
416.56	3794.89
416.78	3827.65
416.99	3872.71
417.20	3882.95
417.41	3837.89
417.62	3895.24
417.83	3954.63
418.04	3794.89
418.26	3770.31
418.47	3846.09
418.68	4003.78
418.89	3956.68
419.10	4054.98
419.31	3975.11
419.52	4069.31
419.73	4009.92
419.95	3966.92
420.16	3911.62
420.37	4048.83
420.58	4042.69
420.79	3948.48
421.00	4026.31
421.21	4110.27
421.42	3975.11
421.63	4134.85
421.85	4026.31
422.06	4251.58
422.27	4206.53
422.48	4169.66
422.69	4116.42
422.90	4112.32
423.11	4233.15
423.32	4243.39
423.53	4290.49
423.75	4140.99
423.96	4417.47
424.17	4270.01
424.38	4388.80
424.59	4333.50
424.80	4394.94
425.01	4419.52
425.22	4329.41
425.43	4419.52
425.64	4585.40
425.85	4628.41
426.06	4562.87
426.28	4454.33
426.49	4433.85
426.70	4472.76
426.91	4532.15
427.12	4700.09
427.33	4591.55
427.54	4597.69
427.75	4710.33
427.96	4812.73
428.17	4749.24
428.38	4659.13
428.59	4794.29
428.80	4726.71
429.01	4855.73
429.23	4759.48
429.44	5068.72
429.65	4788.15
429.86	4857.78
430.07	4777.91
430.28	4861.88
430.49	4868.02
430.70	5138.35
430.91	4943.80
431.12	4911.03
431.33	5177.26
431.54	5107.63
431.75	5093.30
431.96	5226.42
432.17	5031.86
432.38	5134.26
432.59	5236.66
432.80	5201.84
433.01	5269.42
433.22	5253.04
433.43	5322.67
433.64	5214.13
433.85	5210.03
434.06	5375.92
434.27	5275.57
434.49	5406.64
434.70	5429.17
434.91	5408.69
435.12	5537.71
435.33	5459.88
435.54	5484.46
435.75	5259.18
435.96	5513.13
436.17	5130.16
436.38	5681.07
436.59	5627.82
436.80	5590.95
437.01	5822.38
437.22	5758.89
437.43	5773.22
437.64	5441.45
437.85	5738.41
438.06	5791.66
438.27	5717.93
438.48	5689.26
438.69	5834.66
438.90	5924.77
439.11	5556.14
439.32	5859.24
439.53	5697.45
439.74	5924.77
439.95	5910.44
440.16	5797.80
440.37	6014.88
440.57	5715.88
440.78	6143.91
440.99	6092.71
441.20	5908.39
441.41	5918.63
441.62	5955.49
441.83	5777.32
442.04	6154.15
442.25	6010.79
442.46	6070.18
442.67	6201.25
442.88	6676.38
443.09	6059.94
443.30	6074.28
443.51	6236.06
443.72	6479.77
443.93	6117.28
444.14	6426.53
444.35	6084.52
444.56	6473.63
444.77	6401.95
444.98	6348.70
445.19	6430.62
445.40	6350.75
445.61	6354.85
445.81	6475.68
446.02	6473.63
446.23	6428.57
446.44	6254.50
446.65	6608.80
446.86	6457.25
447.07	6678.43
447.28	6872.98
447.49	6721.43
447.70	6490.01
447.91	6674.33
448.12	6641.56
448.33	6860.70
448.54	6854.55
448.74	6709.15
448.95	6864.79
449.16	6713.24
449.37	7051.16
449.58	6827.93
449.79	7153.55
450.00	6684.57
450.21	7036.82
450.42	7073.68
450.63	6987.67
450.84	6977.43
451.05	6950.81
451.25	7020.44
451.46	6999.96
451.67	7210.90
451.88	7149.46
452.09	7249.81
452.30	7040.92
452.51	6977.43
452.72	7155.60
452.93	7458.70
453.13	7071.64
453.34	7227.28
453.55	7354.26
453.76	7274.38
453.97	7694.22
454.18	7319.44
454.39	7550.86
454.60	7405.46
454.81	7485.33
455.01	7698.31
455.22	7317.39
455.43	7409.55
455.64	7817.10
455.85	7782.28
456.06	7896.97
456.27	7688.07
456.48	7675.79
456.68	7673.74
456.89	7761.80
457.10	8150.92
457.31	7978.89
457.52	7862.15
457.73	8066.95
457.94	8128.39
458.14	7833.48
458.35	8234.88
458.56	7993.22
458.77	8019.85
458.98	8069.00
459.19	8370.05
459.39	8265.60
459.60	8449.92
459.81	8206.21
460.02	8384.38
460.23	8365.95
460.44	8490.88
460.65	8611.71
460.85	8554.37
461.06	8533.89
461.27	8445.82
461.48	8812.41
461.69	8853.37
461.89	8525.69
462.10	8916.86
462.31	8736.63
462.52	8701.82
462.73	8773.50
462.94	8988.53
463.14	9058.17
463.35	8771.45
463.56	9400.18
463.77	9271.15
463.98	9123.70
464.18	9238.39
464.39	9375.60
464.60	9404.27
464.81	9369.46
465.02	9342.83
465.23	9568.11
465.43	9449.33
465.64	9721.71
465.85	9363.31
466.06	9723.76
466.27	9987.94
466.47	9731.95
466.68	9738.09
466.89	9641.84
467.10	9797.48
467.30	9738.09
467.51	10106.73
467.72	10116.97
467.93	9807.72
468.14	10035.05
468.34	10315.62
468.55	10096.49
468.76	10356.58
468.97	10182.50
469.17	10362.72
469.38	10585.95
469.59	10563.42
469.80	10483.55
470.01	10588.00
470.21	10714.97
470.42	11018.07
470.63	10780.51
470.84	10878.81
471.04	10854.23
471.25	10964.82
471.46	10860.38
471.67	11401.04
471.87	11069.27
472.08	11284.31
472.29	11593.55
472.50	11317.08
472.70	11493.20
472.91	11538.26
473.12	11753.29
473.33	11880.27
473.53	11915.08
473.74	11722.57
473.95	12060.49
474.16	12136.26
474.36	11978.57
474.57	12324.68
474.78	12414.79
474.99	12154.69
475.19	12222.28
475.40	12500.80
475.61	12541.76
475.81	12953.40
476.02	12928.83
476.23	12914.49
476.44	12937.02
476.64	13254.45
476.85	13446.96
477.06	13102.90
477.27	13651.76
477.47	13446.96
477.68	13635.38
477.89	13836.08
478.09	13856.56
478.30	13782.83
478.51	13668.14
478.71	13954.86
478.92	14210.86
479.13	14217.00
479.34	14405.41
479.54	14300.97
479.75	14335.78
479.96	14436.13
480.16	14452.52
480.37	14698.27
480.58	14782.24
480.78	14970.65
480.99	15243.03
481.20	15132.44
481.41	15331.09
481.61	15363.86
481.82	15429.40
482.03	15408.92
482.23	15484.69
482.44	15793.94
482.65	15957.77
482.85	15865.61
483.06	15904.53
483.27	15978.25
483.47	16008.97
483.68	16256.78
483.89	16133.90
484.09	16365.32
484.30	16434.95
484.51	16727.81
484.71	16752.38
484.92	16731.90
485.13	16912.13
485.33	16963.33
485.54	17282.81
485.75	17092.35
485.95	17176.31
486.16	17291.00
486.37	17510.13
486.57	17327.86
486.78	17647.35
486.98	17422.07
487.19	17968.88
487.40	17964.78
487.60	17757.94
487.81	18345.70
488.02	18138.86
488.22	17841.90
488.43	18396.90
488.64	18476.77
488.84	18702.05
489.05	18843.36
489.25	18503.40
489.46	18857.70
489.67	18853.60
489.87	19240.67
490.08	19328.73
490.29	18894.56
490.49	19605.20
490.70	19582.68
490.90	19513.05
491.11	19332.82
491.32	19554.01
491.52	19549.91
491.73	19992.27
491.94	20164.30
492.14	19820.24
492.35	20174.54
492.55	20225.74
492.76	20260.55
492.97	20580.04
493.17	20442.82
493.38	20657.86
493.58	20747.97
493.79	20950.72
494.00	20715.20
494.20	21044.93
494.41	21108.41
494.61	21274.30
494.82	21106.37
495.02	21114.56
495.23	21264.06
495.44	21196.48
495.64	21685.94
495.85	21794.48
496.05	21839.54
496.26	21874.35
496.47	22048.43
496.67	21831.35
496.88	22349.48
497.08	22079.15
497.29	22347.44
497.49	22408.87
497.70	22302.38
497.91	22339.24
498.11	22707.88
498.32	22464.17
498.52	22578.86
498.73	22812.32
498.93	22793.89
499.14	22689.45
499.34	22759.08
499.55	22996.64
499.76	22738.60
499.96	23291.55
500.17	23420.57
500.37	23127.71
500.58	23244.45
500.78	23307.93
500.99	23574.17
501.19	23705.24
501.40	23649.94
501.60	23785.11
501.81	24053.39
502.02	24000.15
502.22	23729.81
502.43	24188.56
502.63	24315.53
502.84	24364.68
503.04	24120.98
503.25	24184.46
503.45	24432.27
503.66	24526.47
503.86	24710.79
504.07	24755.85
504.27	24356.49
504.48	24848.00
504.68	24643.21
504.89	25005.70
505.09	25065.09
505.30	25007.75
505.50	24626.82
505.71	25122.43
505.91	24925.83
506.12	25101.95
506.32	25114.24
506.53	25110.14
506.73	25517.69
506.94	25482.88
507.14	25446.01
507.35	25398.91
507.55	25446.01
507.76	25583.23
507.96	25499.26
508.17	25532.03
508.37	25489.02
508.58	25583.23
508.78	25822.84
508.99	26074.74
509.19	25876.09
509.40	25880.18
509.60	25714.30
509.81	25974.39
510.01	25861.75
510.22	25880.18
510.42	26136.18
510.63	26158.70
510.83	26222.19
511.04	26291.82
511.24	26205.81
511.44	26304.11
511.65	26209.90
511.85	26527.34
512.06	26500.72
512.26	26687.08
512.47	26431.08
512.67	26504.81
512.88	26465.90
513.08	26377.84
513.29	26764.90
513.49	26895.97
513.69	26574.44
513.90	27012.71
514.10	26973.80
514.31	26818.15
514.51	27172.45
514.72	27088.48
514.92	27104.87
515.13	26910.31
515.33	27162.21
515.53	27360.86
515.74	27197.02
515.94	27629.15
516.15	27170.40
516.35	27348.57
516.56	27747.93
516.76	27547.23
516.96	27692.63
517.17	27739.74
517.37	27573.85
517.58	27481.69
517.78	27946.58
517.99	27790.94
518.19	28026.45
518.39	28163.67
518.60	28503.63
518.80	28393.04
519.01	28440.14
519.21	28274.26
519.41	28487.25
519.62	28501.58
519.82	28491.34
520.03	28546.64
520.23	28558.92
520.43	28552.78
520.64	28808.78
520.84	28626.51
521.05	28739.15
521.25	28853.83
521.45	28970.57
521.66	29089.35
521.86	28819.02
522.07	28810.82
522.27	28921.41
522.47	29353.54
522.68	29298.24
522.88	29249.09
523.08	29503.04
523.29	29435.45
523.49	29462.08
523.70	29883.96
523.90	29892.15
524.10	29582.91
524.31	30043.70
524.51	29589.05
524.71	30400.05
524.92	30248.50
525.12	30350.90
525.33	30139.96
525.53	30414.38
525.73	30559.79
525.94	30240.31
526.14	30613.04
526.34	30322.23
526.55	30848.55
526.75	30694.96
526.95	30918.18
527.16	30934.57
527.36	30987.82
527.56	30883.37
527.77	31241.76
527.97	31454.75
528.17	30871.08
528.38	31454.75
528.58	31614.49
528.78	31479.33
528.99	31714.84
529.19	31946.26
529.39	31796.76
529.60	32106.01
529.80	31958.55
530.00	31567.39
530.21	32263.70
530.41	32411.15
530.61	32216.60
530.82	32259.60
531.02	32304.66
531.22	32474.64
531.43	32611.85
531.63	32792.08
531.83	33043.98
532.04	33156.61
532.24	32808.46
532.44	33254.92
532.64	33291.78
532.85	33318.40
533.05	33220.10
533.25	33658.37
533.46	33809.92
533.66	33541.63
533.86	33625.60
534.07	33988.09
534.27	34094.58
534.47	34235.89
534.67	33979.90
534.88	34035.19
535.08	34252.28
535.28	34428.40
535.49	34635.25
535.69	35210.73
535.89	34848.24
536.09	35085.80
536.30	35182.06
536.50	35311.08
536.70	35231.21
536.91	35016.17
537.11	35771.87
537.31	35147.24
537.51	35374.56
537.72	35671.52
537.92	35964.38
538.12	36234.71
538.32	36091.35
538.53	36421.08
538.73	36171.22
538.93	35939.80
539.13	36490.71
539.34	36181.46
539.54	36138.46
539.74	36627.92
539.94	36695.50
540.15	36668.88
540.35	36693.46
540.55	36707.79
540.75	36695.50
540.96	37019.08
541.16	37266.89
541.36	37256.65
541.56	37152.20
541.77	37479.88
541.97	37387.72
542.17	37707.20
542.37	37563.84
542.58	37574.08
542.78	37877.18
542.98	37971.39
543.18	38043.07
543.38	38385.08
543.59	38307.26
543.79	37912.00
543.99	38110.65
544.19	38391.22
544.40	38585.78
544.60	38481.33
544.80	38569.40
545.00	38745.52
545.20	38692.27
545.41	38751.66
545.61	38917.55
545.81	38862.26
546.01	39175.59
546.21	39222.70
546.42	39024.04
546.62	39343.53
546.82	39062.96
547.02	39032.24
547.22	39511.46
547.43	39187.88
547.63	39601.57
547.83	39529.89
548.03	39232.94
548.23	39959.97
548.44	39609.76
548.64	39951.77
548.84	39599.52
549.04	39921.05
549.24	40318.36
549.45	40654.23
549.65	39878.05
549.85	40025.50
550.05	40478.10
550.25	40424.86
550.45	41033.10
550.66	40990.09
550.86	40699.28
551.06	40627.60
551.26	40621.46
551.46	40697.24
551.66	41008.53
551.87	40512.92
552.07	41110.92
552.27	40846.74
552.47	40942.99
552.67	41272.71
552.87	41084.30
553.07	41178.51
553.28	41581.96
553.48	41682.31
553.68	41643.40
553.88	41928.06
554.08	41536.90
554.28	41344.39
554.48	41514.37
554.69	41704.84
554.89	41545.09
555.09	41686.40
555.29	41651.59
555.49	42177.92
555.69	41598.34
555.89	41850.24
556.10	42165.63
556.30	41784.71
556.50	42079.61
556.70	42177.92
556.90	42057.09
557.10	42499.45
557.30	41827.71
557.50	42741.11
557.70	42685.81
557.91	42612.09
558.11	42562.93
558.31	42999.15
558.51	42716.53
558.71	42857.84
558.91	42863.99
559.11	43013.49
559.31	42616.18
559.51	42446.20
559.72	43027.82
559.92	42995.06
560.12	42579.32
560.32	43119.98
560.52	42630.52
560.72	43042.16
560.92	43111.79
561.12	43158.89
561.32	43433.32
561.52	43201.90
561.72	43681.13
561.93	43156.85
562.13	43292.01
562.33	43306.35
562.53	43609.45
562.73	43042.16
562.93	43378.03
563.13	43349.35
563.33	43464.04
563.53	43677.03
563.73	43443.56
563.93	43838.82
564.13	44270.94
564.33	43638.12
564.53	43881.83
564.74	44195.17
564.94	43851.11
565.14	43767.14
565.34	43545.96
565.54	44129.63
565.74	43924.83
565.94	44311.90
566.14	43963.75
566.34	43812.20
566.54	44139.87
566.74	43984.22
566.94	44356.96
567.14	44461.40
567.34	44189.02
567.54	44305.76
567.74	44485.98
567.94	44488.03
568.14	44359.00
568.34	44500.31
568.54	44750.17
568.74	44481.88
568.94	44289.37
569.14	44815.70
569.34	44893.52
569.54	44807.51
569.75	44295.52
569.95	44504.41
570.15	45266.25
570.35	45077.84
570.55	44719.45
570.75	44447.07
570.95	45030.74
571.15	45260.11
571.35	44559.70
571.55	45092.18
571.75	44965.20
571.95	44858.71
572.15	45077.84
572.35	44778.84
572.55	45198.67
572.75	45223.25
572.95	45112.66
573.15	45221.20
573.35	45292.88
573.55	45159.76
573.75	45448.52
573.95	45722.95
574.15	45208.91
574.35	45686.09
574.55	45350.22
574.75	45509.96
574.95	45708.61
575.15	45618.50
575.34	45546.82
575.54	45718.85
575.74	45944.13
575.94	45935.94
576.14	45749.57
576.34	46097.73
576.54	46081.34
576.74	45444.43
576.94	46114.11
577.14	46093.63
577.34	46460.22
577.54	45999.43
577.74	46398.78
577.94	45868.36
578.14	46122.30
578.34	46415.16
578.54	45673.80
578.74	46003.52
578.94	46028.10
579.14	46032.19
579.34	46357.82
579.54	46501.18
579.74	46386.49
579.94	46558.52
580.13	46757.17
580.33	46656.82
580.53	46794.04
580.73	46933.30
580.93	46974.26
581.13	46867.76
581.33	47047.99
581.53	46968.12
581.73	47000.88
581.93	47246.64
582.13	47033.65
582.33	47385.90
582.53	47123.76
582.73	47512.88
582.92	47355.18
583.12	47416.62
583.32	47119.66
583.52	47146.29
583.72	47437.10
583.92	47152.43
584.12	47134.00
584.32	47824.17
584.52	47928.61
584.72	47701.29
584.92	47850.79
585.11	48256.29
585.31	47945.00
585.51	47742.25
585.71	47519.02
585.91	47969.57
586.11	47627.56
586.31	47959.33
586.51	47799.59
586.71	47418.67
586.91	48268.58
587.10	48278.82
587.30	48194.85
587.50	48061.73
587.70	48489.76
587.90	47908.13
588.10	48465.18
588.30	48176.42
588.50	48469.28
588.69	48350.49
