SpectraSuite Data File
++++++++++++++++++++++++++++++++++++
Date: Fri Jun 02 14:57:16 CEST 2017
User: INFO_000
Dark Spectrum Present: No
Reference Spectrum Present: No
Number of Sampled Component Spectra: 1
Spectrometers: USB4H00879
Integration Time (usec): 80000 (USB4H00879)
Spectra Averaged: 1 (USB4H00879)
Boxcar Smoothing: 0 (USB4H00879)
Correct for Electrical Dark: No (USB4H00879)
Strobe/Lamp Enabled: No (USB4H00879)
Correct for Detector Non-linearity: No (USB4H00879)
Correct for Stray Light: No (USB4H00879)
Number of Pixels in Processed Spectrum: 3648
>>>>>Begin Processed Spectral Data<<<<<
345.13	1279.98
345.34	1279.98
345.56	1279.98
345.78	1318.89
345.99	1257.45
346.21	1751.01
346.42	1701.86
346.64	1642.47
346.86	1777.64
347.07	1724.39
347.29	1748.97
347.50	1626.09
347.72	1699.81
347.94	1808.36
348.15	1583.08
348.37	1605.61
348.59	1640.42
348.80	1689.57
349.02	1660.90
349.23	1728.49
349.45	1761.25
349.67	1769.44
349.88	1732.58
350.10	1783.78
350.31	1757.16
350.53	1705.96
350.75	1877.99
350.96	1626.09
351.18	1697.77
351.39	1742.82
351.61	1667.05
351.82	1728.49
352.04	1828.84
352.26	1712.10
352.47	1726.44
352.69	1761.25
352.90	1642.47
353.12	1679.33
353.34	1691.62
353.55	1796.07
353.77	1701.86
353.98	1722.34
354.20	1705.96
354.41	1753.06
354.63	1751.01
354.85	1888.23
355.06	1714.15
355.28	1570.79
355.49	1716.20
355.71	1699.81
355.92	1679.33
356.14	1753.06
356.35	1701.86
356.57	1740.77
356.79	1730.53
357.00	1697.77
357.22	1763.30
357.43	1654.76
357.65	1814.50
357.86	1671.14
358.08	1800.16
358.29	1773.54
358.51	1798.12
358.72	1757.16
358.94	1716.20
359.16	1656.81
359.37	1675.24
359.59	1710.05
359.80	1738.73
360.02	1732.58
360.23	1724.39
360.45	1714.15
360.66	1708.01
360.88	1644.52
361.09	1677.29
361.31	1732.58
361.52	1775.59
361.74	1804.26
361.95	1804.26
362.17	1705.96
362.38	1757.16
362.60	1699.81
362.81	1714.15
363.03	1689.57
363.24	1699.81
363.46	1738.73
363.67	1732.58
363.89	1681.38
364.10	1806.31
364.32	1673.19
364.53	1787.88
364.75	1611.75
364.96	1734.63
365.18	1648.61
365.39	1687.53
365.61	1660.90
365.82	1839.08
366.04	1611.75
366.25	1650.66
366.47	1685.48
366.68	1689.57
366.90	1667.05
367.11	1753.06
367.33	1798.12
367.54	1734.63
367.76	1734.63
367.97	1759.21
368.19	1773.54
368.40	1744.87
368.62	1683.43
368.83	1568.74
369.05	1755.11
369.26	1708.01
369.48	1683.43
369.69	1562.60
369.91	1701.86
370.12	1650.66
370.33	1714.15
370.55	1542.12
370.76	1677.29
370.98	1783.78
371.19	1685.48
371.41	1640.42
371.62	1708.01
371.84	1574.89
372.05	1798.12
372.27	1689.57
372.48	1669.09
372.69	1767.40
372.91	1724.39
373.12	1734.63
373.34	1687.53
373.55	1748.97
373.77	1777.64
373.98	1652.71
374.20	1802.21
374.41	1808.36
374.62	1683.43
374.84	1751.01
375.05	1705.96
375.27	1701.86
375.48	1736.68
375.70	1673.19
375.91	1777.64
376.12	1753.06
376.34	1691.62
376.55	1742.82
376.77	1722.34
376.98	1646.57
377.19	1708.01
377.41	1734.63
377.62	1724.39
377.84	1718.25
378.05	1781.73
378.27	1675.24
378.48	1845.22
378.69	1841.12
378.91	1779.68
379.12	1703.91
379.34	1703.91
379.55	1751.01
379.76	1789.92
379.98	1644.52
380.19	1662.95
380.41	1728.49
380.62	1773.54
380.83	1732.58
381.05	1636.33
381.26	1800.16
381.47	1638.38
381.69	1681.38
381.90	1781.73
382.12	1671.14
382.33	1683.43
382.54	1679.33
382.76	1748.97
382.97	1693.67
383.19	1673.19
383.40	1728.49
383.61	1689.57
383.83	1658.85
384.04	1683.43
384.25	1742.82
384.47	1722.34
384.68	1683.43
384.89	1585.13
385.11	1679.33
385.32	1675.24
385.54	1617.90
385.75	1626.09
385.96	1697.77
386.18	1640.42
386.39	1658.85
386.60	1671.14
386.82	1710.05
387.03	1673.19
387.24	1802.21
387.46	1658.85
387.67	1697.77
387.88	1726.44
388.10	1708.01
388.31	1695.72
388.52	1839.08
388.74	1740.77
388.95	1740.77
389.16	1683.43
389.38	1681.38
389.59	1783.78
389.80	1732.58
390.02	1746.92
390.23	1804.26
390.44	1732.58
390.66	1619.94
390.87	1673.19
391.08	1748.97
391.30	1796.07
391.51	1722.34
391.72	1681.38
391.94	1802.21
392.15	1646.57
392.36	1691.62
392.58	1699.81
392.79	1693.67
393.00	1667.05
393.22	1658.85
393.43	1826.79
393.64	1826.79
393.85	1705.96
394.07	1613.80
394.28	1703.91
394.49	1728.49
394.71	1726.44
394.92	1820.64
395.13	1630.18
395.35	1636.33
395.56	1687.53
395.77	1662.95
395.98	1660.90
396.20	1791.97
396.41	1701.86
396.62	1671.14
396.84	1652.71
397.05	1609.70
397.26	1699.81
397.47	1767.40
397.69	1683.43
397.90	1839.08
398.11	1740.77
398.32	1658.85
398.54	1624.04
398.75	1665.00
398.96	1632.23
399.18	1845.22
399.39	1646.57
399.60	1734.63
399.81	1712.10
400.03	1705.96
400.24	1929.19
400.45	1769.44
400.66	1699.81
400.88	1597.42
401.09	1861.60
401.30	1683.43
401.51	1769.44
401.73	1755.11
401.94	1765.35
402.15	1640.42
402.36	1769.44
402.58	1712.10
402.79	1845.22
403.00	1716.20
403.21	1734.63
403.43	1720.29
403.64	1759.21
403.85	1728.49
404.06	1806.31
404.27	1638.38
404.49	1677.29
404.70	1675.24
404.91	1779.68
405.12	1734.63
405.34	1751.01
405.55	1802.21
405.76	1628.14
405.97	1615.85
406.19	1765.35
406.40	1662.95
406.61	1703.91
406.82	1757.16
407.03	1667.05
407.25	1638.38
407.46	1779.68
407.67	1740.77
407.88	1798.12
408.09	1714.15
408.31	1691.62
408.52	1732.58
408.73	1607.66
408.94	1636.33
409.15	1701.86
409.37	1681.38
409.58	1679.33
409.79	1718.25
410.00	1781.73
410.21	1742.82
410.43	1689.57
410.64	1613.80
410.85	1728.49
411.06	1703.91
411.27	1703.91
411.48	1812.45
411.70	1781.73
411.91	1701.86
412.12	1769.44
412.33	1798.12
412.54	1652.71
412.76	1716.20
412.97	1869.80
413.18	1679.33
413.39	1789.92
413.60	1722.34
413.81	1732.58
414.03	1658.85
414.24	1675.24
414.45	1826.79
414.66	1675.24
414.87	1677.29
415.08	1751.01
415.30	1671.14
415.51	1761.25
415.72	1791.97
415.93	1691.62
416.14	1712.10
416.35	1697.77
416.56	1748.97
416.78	1759.21
416.99	1714.15
417.20	1720.29
417.41	1744.87
417.62	1693.67
417.83	1738.73
418.04	1748.97
418.26	1785.83
418.47	1671.14
418.68	1691.62
418.89	1820.64
419.10	1900.52
419.31	1710.05
419.52	1683.43
419.73	1679.33
419.95	1777.64
420.16	1685.48
420.37	1652.71
420.58	1810.40
420.79	1562.60
421.00	1755.11
421.21	1679.33
421.42	1679.33
421.63	1757.16
421.85	1689.57
422.06	1765.35
422.27	1753.06
422.48	1722.34
422.69	1681.38
422.90	1675.24
423.11	1677.29
423.32	1796.07
423.53	1830.88
423.75	1689.57
423.96	1738.73
424.17	1718.25
424.38	1822.69
424.59	1712.10
424.80	1662.95
425.01	1697.77
425.22	1601.51
425.43	1767.40
425.64	1759.21
425.85	1771.49
426.06	1748.97
426.28	1742.82
426.49	1638.38
426.70	1665.00
426.91	1720.29
427.12	1771.49
427.33	1660.90
427.54	1679.33
427.75	1712.10
427.96	1720.29
428.17	1716.20
428.38	1728.49
428.59	1728.49
428.80	1689.57
429.01	1708.01
429.23	1730.53
429.44	1689.57
429.65	1734.63
429.86	1634.28
430.07	1687.53
430.28	1671.14
430.49	1746.92
430.70	1714.15
430.91	1853.41
431.12	1667.05
431.33	1710.05
431.54	1765.35
431.75	1687.53
431.96	1695.72
432.17	1794.02
432.38	1787.88
432.59	1822.69
432.80	1863.65
433.01	1703.91
433.22	1626.09
433.43	1691.62
433.64	1800.16
433.85	1785.83
434.06	1773.54
434.27	1671.14
434.49	1679.33
434.70	1791.97
434.91	1693.67
435.12	1716.20
435.33	1744.87
435.54	1654.76
435.75	1578.98
435.96	1617.90
436.17	1695.72
436.38	1765.35
436.59	1722.34
436.80	1589.22
437.01	1761.25
437.22	1789.92
437.43	1626.09
437.64	1654.76
437.85	1705.96
438.06	1773.54
438.27	1646.57
438.48	1724.39
438.69	1718.25
438.90	1679.33
439.11	1738.73
439.32	1740.77
439.53	1574.89
439.74	1650.66
439.95	1607.66
440.16	1601.51
440.37	1712.10
440.57	1683.43
440.78	1730.53
440.99	1712.10
441.20	1710.05
441.41	1648.61
441.62	1619.94
441.83	1652.71
442.04	1611.75
442.25	1671.14
442.46	1628.14
442.67	1646.57
442.88	1816.55
443.09	1691.62
443.30	1691.62
443.51	1679.33
443.72	1718.25
443.93	1656.81
444.14	1775.59
444.35	1695.72
444.56	1660.90
444.77	1626.09
444.98	1736.68
445.19	1763.30
445.40	1656.81
445.61	1515.50
445.81	1642.47
446.02	1777.64
446.23	1740.77
446.44	1642.47
446.65	1771.49
446.86	1837.03
447.07	1875.94
447.28	1699.81
447.49	1757.16
447.70	1683.43
447.91	1785.83
448.12	1703.91
448.33	1710.05
448.54	1662.95
448.74	1722.34
448.95	1763.30
449.16	1822.69
449.37	1699.81
449.58	1740.77
449.79	1794.02
450.00	1740.77
450.21	1718.25
450.42	1673.19
450.63	1699.81
450.84	1624.04
451.05	1665.00
451.25	1652.71
451.46	1601.51
451.67	1779.68
451.88	1753.06
452.09	1765.35
452.30	1650.66
452.51	1621.99
452.72	1767.40
452.93	1849.32
453.13	1626.09
453.34	1699.81
453.55	1712.10
453.76	1650.66
453.97	1673.19
454.18	1607.66
454.39	1787.88
454.60	1703.91
454.81	1656.81
455.01	1765.35
455.22	1624.04
455.43	1638.38
455.64	1665.00
455.85	1720.29
456.06	1763.30
456.27	1826.79
456.48	1726.44
456.68	1732.58
456.89	1728.49
457.10	1703.91
457.31	1708.01
457.52	1736.68
457.73	1687.53
457.94	1759.21
458.14	1609.70
458.35	1689.57
458.56	1685.48
458.77	1638.38
458.98	1673.19
459.19	1767.40
459.39	1730.53
459.60	1658.85
459.81	1687.53
460.02	1710.05
460.23	1701.86
460.44	1656.81
460.65	1593.32
460.85	1705.96
461.06	1658.85
461.27	1683.43
461.48	1630.18
461.69	1724.39
461.89	1581.03
462.10	1669.09
462.31	1654.76
462.52	1609.70
462.73	1658.85
462.94	1689.57
463.14	1728.49
463.35	1748.97
463.56	1847.27
463.77	1748.97
463.98	1593.32
464.18	1656.81
464.39	1732.58
464.60	1781.73
464.81	1650.66
465.02	1789.92
465.23	1689.57
465.43	1748.97
465.64	1628.14
465.85	1621.99
466.06	1673.19
466.27	1732.58
466.47	1685.48
466.68	1779.68
466.89	1572.84
467.10	1634.28
467.30	1667.05
467.51	1710.05
467.72	1826.79
467.93	1585.13
468.14	1677.29
468.34	1708.01
468.55	1697.77
468.76	1763.30
468.97	1724.39
469.17	1716.20
469.38	1837.03
469.59	1708.01
469.80	1695.72
470.01	1644.52
470.21	1662.95
470.42	1624.04
470.63	1705.96
470.84	1744.87
471.04	1646.57
471.25	1814.50
471.46	1687.53
471.67	1773.54
471.87	1679.33
472.08	1765.35
472.29	1654.76
472.50	1730.53
472.70	1722.34
472.91	1566.70
473.12	1697.77
473.33	1697.77
473.53	1779.68
473.74	1683.43
473.95	1744.87
474.16	1667.05
474.36	1689.57
474.57	1755.11
474.78	1669.09
474.99	1804.26
475.19	1689.57
475.40	1677.29
475.61	1705.96
475.81	1693.67
476.02	1665.00
476.23	1732.58
476.44	1574.89
476.64	1710.05
476.85	1691.62
477.06	1673.19
477.27	1648.61
477.47	1730.53
477.68	1683.43
477.89	1712.10
478.09	1703.91
478.30	1701.86
478.51	1728.49
478.71	1732.58
478.92	1806.31
479.13	1712.10
479.34	1644.52
479.54	1687.53
479.75	1662.95
479.96	1755.11
480.16	1720.29
480.37	1681.38
480.58	1677.29
480.78	1779.68
480.99	1650.66
481.20	1708.01
481.41	1673.19
481.61	1632.23
481.82	1736.68
482.03	1613.80
482.23	1654.76
482.44	1814.50
482.65	1814.50
482.85	1724.39
483.06	1667.05
483.27	1767.40
483.47	1628.14
483.68	1689.57
483.89	1695.72
484.09	1693.67
484.30	1697.77
484.51	1837.03
484.71	1669.09
484.92	1587.18
485.13	1699.81
485.33	1665.00
485.54	1654.76
485.75	1783.78
485.95	1777.64
486.16	1679.33
486.37	1681.38
486.57	1654.76
486.78	1648.61
486.98	1712.10
487.19	1626.09
487.40	1718.25
487.60	1671.14
487.81	1683.43
488.02	1621.99
488.22	1714.15
488.43	1816.55
488.64	1679.33
488.84	1597.42
489.05	1787.88
489.25	1697.77
489.46	1714.15
489.67	1695.72
489.87	1828.84
490.08	1763.30
490.29	1648.61
490.49	1808.36
490.70	1740.77
490.90	1665.00
491.11	1632.23
491.32	1734.63
491.52	1624.04
491.73	1677.29
491.94	1691.62
492.14	1658.85
492.35	1642.47
492.55	1771.49
492.76	1681.38
492.97	1589.22
493.17	1755.11
493.38	1771.49
493.58	1787.88
493.79	1675.24
494.00	1720.29
494.20	1638.38
494.41	1763.30
494.61	1687.53
494.82	1656.81
495.02	1599.46
495.23	1703.91
495.44	1667.05
495.64	1669.09
495.85	1691.62
496.05	1732.58
496.26	1724.39
496.47	1665.00
496.67	1613.80
496.88	1656.81
497.08	1669.09
497.29	1638.38
497.49	1736.68
497.70	1640.42
497.91	1634.28
498.11	1796.07
498.32	1744.87
498.52	1708.01
498.73	1738.73
498.93	1701.86
499.14	1818.60
499.34	1755.11
499.55	1740.77
499.76	1658.85
499.96	1742.82
500.17	1748.97
500.37	1753.06
500.58	1720.29
500.78	1624.04
500.99	1583.08
501.19	1646.57
501.40	1789.92
501.60	1634.28
501.81	1675.24
502.02	1734.63
502.22	1630.18
502.43	1783.78
502.63	1816.55
502.84	1773.54
503.04	1708.01
503.25	1781.73
503.45	1767.40
503.66	1619.94
503.86	1789.92
504.07	1763.30
504.27	1630.18
504.48	1619.94
504.68	1730.53
504.89	1814.50
505.09	1634.28
505.30	1660.90
505.50	1728.49
505.71	1691.62
505.91	1771.49
506.12	1634.28
506.32	1738.73
506.53	1667.05
506.73	1642.47
506.94	1648.61
507.14	1714.15
507.35	1767.40
507.55	1673.19
507.76	1652.71
507.96	1648.61
508.17	1714.15
508.37	1593.32
508.58	1796.07
508.78	1730.53
508.99	1773.54
509.19	1705.96
509.40	1701.86
509.60	1667.05
509.81	1777.64
510.01	1581.03
510.22	1675.24
510.42	1812.45
510.63	1677.29
510.83	1767.40
511.04	1718.25
511.24	1820.64
511.44	1671.14
511.65	1708.01
511.85	1765.35
512.06	1767.40
512.26	1642.47
512.47	1742.82
512.67	1716.20
512.88	1722.34
513.08	1589.22
513.29	1681.38
513.49	1689.57
513.69	1714.15
513.90	1665.00
514.10	1773.54
514.31	1720.29
514.51	1638.38
514.72	1779.68
514.92	1742.82
515.13	1662.95
515.33	1646.57
515.53	1601.51
515.74	1767.40
515.94	1732.58
516.15	1834.98
516.35	1636.33
516.56	1669.09
516.76	1648.61
516.96	1671.14
517.17	1714.15
517.37	1728.49
517.58	1619.94
517.78	1683.43
517.99	1763.30
518.19	1800.16
518.39	1740.77
518.60	1761.25
518.80	1716.20
519.01	1708.01
519.21	1605.61
519.41	1738.73
519.62	1585.13
519.82	1665.00
520.03	1695.72
520.23	1562.60
520.43	1581.03
520.64	1812.45
520.84	1789.92
521.05	1617.90
521.25	1708.01
521.45	1757.16
521.66	1677.29
521.86	1687.53
522.07	1642.47
522.27	1712.10
522.47	1644.52
522.68	1740.77
522.88	1640.42
523.08	1757.16
523.29	1652.71
523.49	1599.46
523.70	1667.05
523.90	1687.53
524.10	1757.16
524.31	1646.57
524.51	1501.16
524.71	1771.49
524.92	1673.19
525.12	1566.70
525.33	1794.02
525.53	1679.33
525.73	1740.77
525.94	1650.66
526.14	1654.76
526.34	1644.52
526.55	1679.33
526.75	1722.34
526.95	1867.75
527.16	1656.81
527.36	1646.57
527.56	1656.81
527.77	1630.18
527.97	1744.87
528.17	1732.58
528.38	1695.72
528.58	1787.88
528.78	1697.77
528.99	1662.95
529.19	1732.58
529.39	1601.51
529.60	1634.28
529.80	1685.48
530.00	1593.32
530.21	1732.58
530.41	1630.18
530.61	1765.35
530.82	1714.15
531.02	1660.90
531.22	1751.01
531.43	1685.48
531.63	1689.57
531.83	1708.01
532.04	1726.44
532.24	1687.53
532.44	1644.52
532.64	1769.44
532.85	1624.04
533.05	1722.34
533.25	1712.10
533.46	1708.01
533.66	1667.05
533.86	1708.01
534.07	1746.92
534.27	1669.09
534.47	1744.87
534.67	1765.35
534.88	1626.09
535.08	1781.73
535.28	1751.01
535.49	1607.66
535.69	1744.87
535.89	1779.68
536.09	1712.10
536.30	1687.53
536.50	1634.28
536.70	1669.09
536.91	1685.48
537.11	1759.21
537.31	1738.73
537.51	1691.62
537.72	1763.30
537.92	1685.48
538.12	1757.16
538.32	1771.49
538.53	1730.53
538.73	1673.19
538.93	1652.71
539.13	1626.09
539.34	1718.25
539.54	1630.18
539.74	1732.58
539.94	1693.67
540.15	1787.88
540.35	1712.10
540.55	1658.85
540.75	1634.28
540.96	1720.29
541.16	1675.24
541.36	1705.96
541.56	1720.29
541.77	1724.39
541.97	1699.81
542.17	1697.77
542.37	1814.50
542.58	1726.44
542.78	1728.49
542.98	1671.14
543.18	1654.76
543.38	1714.15
543.59	1689.57
543.79	1689.57
543.99	1619.94
544.19	1652.71
544.40	1830.88
544.60	1665.00
544.80	1728.49
545.00	1609.70
545.20	1736.68
545.41	1675.24
545.61	1654.76
545.81	1685.48
546.01	1675.24
546.21	1705.96
546.42	1730.53
546.62	1787.88
546.82	1658.85
547.02	1595.37
547.22	1642.47
547.43	1812.45
547.63	1656.81
547.83	1724.39
548.03	1687.53
548.23	1748.97
548.44	1658.85
548.64	1695.72
548.84	1708.01
549.04	1658.85
549.24	1769.44
549.45	1923.04
549.65	1671.14
549.85	1742.82
550.05	1712.10
550.25	1640.42
550.45	1734.63
550.66	1775.59
550.86	1648.61
551.06	1730.53
551.26	1634.28
551.46	1699.81
551.66	1689.57
551.87	1724.39
552.07	1720.29
552.27	1675.24
552.47	1740.77
552.67	1701.86
552.87	1662.95
553.07	1720.29
553.28	1703.91
553.48	1619.94
553.68	1656.81
553.88	1742.82
554.08	1699.81
554.28	1581.03
554.48	1605.61
554.69	1632.23
554.89	1636.33
555.09	1605.61
555.29	1667.05
555.49	1611.75
555.69	1630.18
555.89	1710.05
556.10	1718.25
556.30	1619.94
556.50	1712.10
556.70	1695.72
556.90	1728.49
557.10	1822.69
557.30	1757.16
557.50	1634.28
557.70	1658.85
557.91	1689.57
558.11	1626.09
558.31	1867.75
558.51	1730.53
558.71	1773.54
558.91	1712.10
559.11	1662.95
559.31	1578.98
559.51	1687.53
559.72	1697.77
559.92	1689.57
560.12	1585.13
560.32	1753.06
560.52	1746.92
560.72	1662.95
560.92	1718.25
561.12	1730.53
561.32	1724.39
561.52	1634.28
561.72	1892.32
561.93	1765.35
562.13	1681.38
562.33	1660.90
562.53	1710.05
562.73	1648.61
562.93	1726.44
563.13	1726.44
563.33	1798.12
563.53	1773.54
563.73	1726.44
563.93	1771.49
564.13	1724.39
564.33	1632.23
564.53	1681.38
564.74	1716.20
564.94	1708.01
565.14	1720.29
565.34	1693.67
565.54	1712.10
565.74	1679.33
565.94	1722.34
566.14	1722.34
566.34	1722.34
566.54	1748.97
566.74	1695.72
566.94	1708.01
567.14	1716.20
567.34	1722.34
567.54	1671.14
567.74	1632.23
567.94	1683.43
568.14	1636.33
568.34	1843.17
568.54	1736.68
568.74	1720.29
568.94	1705.96
569.14	1806.31
569.34	1679.33
569.54	1646.57
569.75	1716.20
569.95	1667.05
570.15	1748.97
570.35	1687.53
570.55	1640.42
570.75	1751.01
570.95	1716.20
571.15	1753.06
571.35	1757.16
571.55	1703.91
571.75	1697.77
571.95	1732.58
572.15	1624.04
572.35	1724.39
572.55	1736.68
572.75	1650.66
572.95	1648.61
573.15	1652.71
573.35	1705.96
573.55	1650.66
573.75	1671.14
573.95	1839.08
574.15	1755.11
574.35	1667.05
574.55	1648.61
574.75	1644.52
574.95	1697.77
575.15	1703.91
575.34	1716.20
575.54	1681.38
575.74	1705.96
575.94	1701.86
576.14	1658.85
576.34	1658.85
576.54	1660.90
576.74	1751.01
576.94	1693.67
577.14	1703.91
577.34	1703.91
577.54	1691.62
577.74	1673.19
577.94	1705.96
578.14	1607.66
578.34	1718.25
578.54	1665.00
578.74	1656.81
578.94	1710.05
579.14	1736.68
579.34	1619.94
579.54	1695.72
579.74	1751.01
579.94	1667.05
580.13	1705.96
580.33	1753.06
580.53	1638.38
580.73	1556.46
580.93	1722.34
581.13	1652.71
581.33	1712.10
581.53	1710.05
581.73	1675.24
581.93	1624.04
582.13	1716.20
582.33	1730.53
582.53	1665.00
582.73	1716.20
582.92	1656.81
583.12	1744.87
583.32	1673.19
583.52	1765.35
583.72	1767.40
583.92	1759.21
584.12	1746.92
584.32	1703.91
584.52	1615.85
584.72	1685.48
584.92	1724.39
585.11	1744.87
585.31	1771.49
585.51	1724.39
585.71	1703.91
585.91	1783.78
586.11	1759.21
586.31	1798.12
586.51	1685.48
586.71	1644.52
586.91	1654.76
587.10	1808.36
587.30	1765.35
587.50	1681.38
587.70	1632.23
587.90	1667.05
588.10	1636.33
588.30	1667.05
588.50	1640.42
588.69	1609.70
588.89	1689.57
589.09	1693.67
589.29	1611.75
589.49	1673.19
589.69	1605.61
589.89	1718.25
590.08	1671.14
590.28	1673.19
590.48	1691.62
590.68	1699.81
590.88	1654.76
591.08	1708.01
591.28	1693.67
591.47	1687.53
591.67	1595.37
591.87	1703.91
592.07	1843.17
592.27	1640.42
592.47	1628.14
592.67	1777.64
592.86	1693.67
593.06	1755.11
593.26	1773.54
593.46	1759.21
593.66	1560.55
593.86	1789.92
594.05	1783.78
594.25	1734.63
594.45	1656.81
594.65	1812.45
594.85	1701.86
595.05	1662.95
595.24	1701.86
595.44	1720.29
595.64	1617.90
595.84	1703.91
596.04	1701.86
