SpectraSuite Data File
++++++++++++++++++++++++++++++++++++
Date: Fri Jun 02 14:57:20 CEST 2017
User: INFO_000
Dark Spectrum Present: No
Reference Spectrum Present: No
Number of Sampled Component Spectra: 1
Spectrometers: USB4H00879
Integration Time (usec): 80000 (USB4H00879)
Spectra Averaged: 1 (USB4H00879)
Boxcar Smoothing: 0 (USB4H00879)
Correct for Electrical Dark: No (USB4H00879)
Strobe/Lamp Enabled: No (USB4H00879)
Correct for Detector Non-linearity: No (USB4H00879)
Correct for Stray Light: No (USB4H00879)
Number of Pixels in Processed Spectrum: 3648
>>>>>Begin Processed Spectral Data<<<<<
345.13	1329.13
345.34	1329.13
345.56	1329.13
345.78	1230.83
345.99	1165.29
346.21	1716.20
346.42	1748.97
346.64	1677.29
346.86	1794.02
347.07	1599.46
347.29	1771.49
347.50	1624.04
347.72	1728.49
347.94	1738.73
348.15	1599.46
348.37	1658.85
348.59	1722.34
348.80	1746.92
349.02	1785.83
349.23	1771.49
349.45	1834.98
349.67	1847.27
349.88	1847.27
350.10	1920.99
350.31	1837.03
350.53	1824.74
350.75	1953.76
350.96	1761.25
351.18	1837.03
351.39	1884.13
351.61	1820.64
351.82	1941.47
352.04	1925.09
352.26	1798.12
352.47	1882.08
352.69	1898.47
352.90	1748.97
353.12	1869.80
353.34	1849.32
353.55	1937.38
353.77	1894.37
353.98	1851.36
354.20	1902.56
354.41	1898.47
354.63	1904.61
354.85	2025.44
355.06	1888.23
355.28	1732.58
355.49	1912.80
355.71	1908.71
355.92	1849.32
356.14	1949.67
356.35	1822.69
356.57	1880.04
356.79	1918.95
357.00	1861.60
357.22	1925.09
357.43	1859.56
357.65	1980.39
357.86	1925.09
358.08	1892.32
358.29	2039.78
358.51	1937.38
358.72	2050.02
358.94	1931.23
359.16	1916.90
359.37	1939.43
359.59	1992.67
359.80	2015.20
360.02	1982.43
360.23	2013.15
360.45	1984.48
360.66	1951.71
360.88	1894.37
361.09	1916.90
361.31	1927.14
361.52	1931.23
361.74	2093.02
361.95	2080.74
362.17	1908.71
362.38	2109.41
362.60	2082.78
362.81	1988.58
363.03	1933.28
363.24	2000.87
363.46	1998.82
363.67	2002.91
363.89	1943.52
364.10	2054.11
364.32	1953.76
364.53	2072.54
364.75	1935.33
364.96	2029.54
365.18	2009.06
365.39	1941.47
365.61	1873.89
365.82	2131.94
366.04	1968.10
366.25	1972.19
366.47	2047.97
366.68	1976.29
366.90	1920.99
367.11	2099.17
367.33	2131.94
367.54	2070.50
367.76	2099.17
367.97	2131.94
368.19	2037.73
368.40	2111.46
368.62	1982.43
368.83	1863.65
369.05	1996.77
369.26	1996.77
369.48	2011.11
369.69	2004.96
369.91	2017.25
370.12	2103.26
370.33	2019.30
370.55	1970.15
370.76	2133.98
370.98	2111.46
371.19	2066.40
371.41	2115.55
371.62	2105.31
371.84	1959.91
372.05	2160.61
372.27	2041.82
372.48	2064.35
372.69	2107.36
372.91	2097.12
373.12	2133.98
373.34	2031.58
373.55	2224.09
373.77	2181.09
373.98	2115.55
374.20	2201.57
374.41	2306.01
374.62	2111.46
374.84	2185.18
375.05	2189.28
375.27	2113.50
375.48	2176.99
375.70	2099.17
375.91	2230.24
376.12	2207.71
376.34	2129.89
376.55	2187.23
376.77	2256.86
376.98	2127.84
377.19	2205.66
377.41	2144.22
377.62	2207.71
377.84	2256.86
378.05	2316.25
378.27	2230.24
378.48	2291.68
378.69	2463.71
378.91	2260.96
379.12	2209.76
379.34	2379.74
379.55	2285.53
379.76	2215.90
379.98	2215.90
380.19	2279.39
380.41	2213.85
380.62	2340.83
380.83	2244.57
381.05	2267.10
381.26	2435.03
381.47	2291.68
381.69	2377.69
381.90	2383.84
382.12	2283.49
382.33	2244.57
382.54	2265.05
382.76	2316.25
382.97	2320.35
383.19	2267.10
383.40	2338.78
383.61	2346.97
383.83	2365.40
384.04	2314.20
384.25	2498.52
384.47	2369.50
384.68	2359.26
384.89	2316.25
385.11	2342.88
385.32	2346.97
385.54	2408.41
385.75	2346.97
385.96	2443.23
386.18	2449.37
386.39	2394.08
386.60	2295.77
386.82	2432.99
387.03	2387.93
387.24	2484.19
387.46	2506.71
387.67	2449.37
387.88	2525.15
388.10	2459.61
388.31	2469.85
388.52	2625.50
388.74	2516.95
388.95	2463.71
389.16	2475.99
389.38	2543.58
389.59	2615.26
389.80	2631.64
390.02	2498.52
390.23	2627.54
390.44	2586.58
390.66	2549.72
390.87	2523.10
391.08	2625.50
391.30	2672.60
391.51	2641.88
391.72	2719.70
391.94	2709.46
392.15	2584.54
392.36	2666.46
392.58	2680.79
392.79	2723.80
393.00	2676.70
393.22	2633.69
393.43	2832.34
393.64	2840.53
393.85	2781.14
394.07	2725.85
394.28	2707.41
394.49	2809.81
394.71	2803.67
394.92	2879.44
395.13	2736.09
395.35	2832.34
395.56	2725.85
395.77	2953.17
395.98	2824.15
396.20	2889.68
396.41	2869.20
396.62	2936.79
396.84	2787.29
397.05	2990.03
397.26	2920.40
397.47	2942.93
397.69	2836.44
397.90	2992.08
398.11	2895.83
398.32	2953.17
398.54	2875.35
398.75	2848.72
398.96	2967.51
399.18	3123.15
399.39	3033.04
399.60	3069.91
399.81	3002.32
400.03	2994.13
400.24	3250.13
400.45	3018.71
400.66	3123.15
400.88	3047.38
401.09	3194.83
401.30	2975.70
401.51	3143.63
401.73	3121.10
401.94	3137.49
402.15	3174.35
402.36	3108.82
402.58	3133.39
402.79	3160.02
403.00	3125.20
403.21	3274.70
403.43	3268.56
403.64	3334.09
403.85	3200.98
404.06	3190.74
404.27	3061.71
404.49	3227.60
404.70	3219.41
404.91	3354.57
405.12	3243.98
405.34	3254.22
405.55	3379.15
405.76	3170.26
405.97	3246.03
406.19	3334.09
406.40	3166.16
406.61	3289.04
406.82	3385.29
407.03	3334.09
407.25	3348.43
407.46	3448.78
407.67	3325.90
407.88	3440.59
408.09	3297.23
408.31	3391.44
408.52	3465.16
408.73	3362.76
408.94	3366.86
409.15	3420.11
409.37	3526.60
409.58	3530.70
409.79	3581.90
410.00	3559.37
410.21	3424.20
410.43	3508.17
410.64	3426.25
410.85	3512.27
411.06	3520.46
411.27	3522.51
411.48	3542.99
411.70	3596.23
411.91	3592.14
412.12	3563.47
412.33	3688.39
412.54	3606.47
412.76	3581.90
412.97	3516.36
413.18	3420.11
413.39	3626.95
413.60	3645.38
413.81	3667.91
414.03	3653.58
414.24	3672.01
414.45	3784.65
414.66	3663.82
414.87	3672.01
415.08	3614.66
415.30	3674.06
415.51	3729.35
415.72	3680.20
415.93	3723.21
416.14	3635.14
416.35	3839.94
416.56	3833.80
416.78	3762.12
416.99	3829.70
417.20	3766.21
417.41	3846.09
417.62	4030.40
417.83	3934.15
418.04	3852.23
418.26	4106.18
418.47	3743.69
418.68	3973.06
418.89	3897.28
419.10	4095.94
419.31	3975.11
419.52	4063.17
419.73	4030.40
419.95	4169.66
420.16	3903.43
420.37	3880.90
420.58	4054.98
420.79	3850.18
421.00	4075.46
421.21	4104.13
421.42	3991.49
421.63	4159.42
421.85	4124.61
422.06	4169.66
422.27	4220.86
422.48	4167.62
422.69	4110.27
422.90	4253.63
423.11	4204.48
423.32	4374.46
423.53	4343.74
423.75	4284.35
423.96	4485.05
424.17	4315.07
424.38	4431.80
424.59	4454.33
424.80	4566.97
425.01	4450.24
425.22	4374.46
425.43	4419.52
425.64	4652.98
425.85	4548.54
426.06	4566.97
426.28	4575.16
426.49	4495.29
426.70	4427.71
426.91	4523.96
427.12	4573.11
427.33	4562.87
427.54	4575.16
427.75	4581.31
427.96	4865.97
428.17	4732.86
428.38	4730.81
428.59	4931.51
428.80	4847.54
429.01	4708.28
429.23	4767.67
429.44	5044.15
429.65	4941.75
429.86	4990.90
430.07	4786.10
430.28	4861.88
430.49	5019.57
430.70	5097.39
430.91	4923.32
431.12	4984.76
431.33	4999.09
431.54	5124.02
431.75	5021.62
431.96	4933.56
432.17	5062.58
432.38	5099.44
432.59	5296.05
432.80	5195.70
433.01	5195.70
433.22	5203.89
433.43	5234.61
433.64	5349.29
433.85	5185.46
434.06	5277.62
434.27	5185.46
434.49	5388.21
434.70	5345.20
434.91	5371.82
435.12	5408.69
435.33	5433.26
435.54	5369.77
435.75	5222.32
435.96	5439.40
436.17	5316.53
436.38	5496.75
436.59	5564.33
436.80	5529.52
437.01	5715.88
437.22	5545.90
437.43	5607.34
437.64	5541.80
437.85	5803.94
438.06	5914.53
438.27	5576.62
438.48	5603.24
438.69	5867.43
438.90	5717.93
439.11	5713.83
439.32	5924.77
439.53	5699.50
439.74	5758.89
439.95	5855.14
440.16	5930.92
440.37	5892.01
440.57	5822.38
440.78	5840.81
440.99	5937.06
441.20	5959.59
441.41	5853.09
441.62	5830.57
441.83	5935.01
442.04	5920.68
442.25	6031.27
442.46	6170.53
442.67	6234.02
442.88	6442.91
443.09	6029.22
443.30	6197.15
443.51	6088.61
443.72	6360.99
443.93	6049.70
444.14	6541.21
444.35	6092.71
444.56	6258.59
444.77	6291.36
444.98	6254.50
445.19	6350.75
445.40	6252.45
445.61	6412.19
445.81	6598.56
446.02	6580.12
446.23	6303.65
446.44	6375.33
446.65	6541.21
446.86	6475.68
447.07	6616.99
447.28	6758.30
447.49	6786.97
447.70	6604.70
447.91	6789.02
448.12	6784.92
448.33	6827.93
448.54	6856.60
448.74	6647.71
448.95	6864.79
449.16	6709.15
449.37	7118.74
449.58	6858.65
449.79	7030.68
450.00	6809.50
450.21	7024.53
450.42	6979.48
450.63	7006.10
450.84	6963.09
451.05	7180.18
451.25	7122.84
451.46	6959.00
451.67	7260.05
451.88	7147.41
452.09	7104.40
452.30	7128.98
452.51	7264.15
452.72	7303.06
452.93	7696.27
453.13	7208.85
453.34	7427.98
453.55	7436.17
453.76	7290.77
453.97	7759.75
454.18	7514.00
454.39	7604.11
454.60	7528.33
454.81	7477.13
455.01	7810.95
455.22	7563.15
455.43	7776.14
455.64	7921.54
455.85	7925.64
456.06	8032.13
456.27	7794.57
456.48	7669.64
456.68	8138.63
456.89	7917.45
457.10	8138.63
457.31	8101.76
457.52	8083.33
457.73	8173.44
457.94	8284.03
458.14	8056.71
458.35	8429.44
458.56	8390.53
458.77	8472.45
458.98	8269.70
459.19	8306.56
459.39	8501.12
459.60	8689.53
459.81	8537.98
460.02	8624.00
460.23	8753.02
460.44	8753.02
460.65	8791.93
460.85	8624.00
461.06	8855.42
461.27	8488.83
461.48	8849.27
461.69	8828.79
461.89	8675.20
462.10	8949.62
462.31	8767.35
462.52	8879.99
462.73	8935.29
462.94	9324.40
463.14	9068.41
463.35	9004.92
463.56	9627.50
463.77	9492.34
463.98	9412.46
464.18	9500.53
464.39	9492.34
464.60	9564.01
464.81	9600.88
465.02	9553.77
465.23	9670.51
465.43	9557.87
465.64	9959.27
465.85	9752.43
466.06	9764.72
466.27	10141.54
466.47	9916.26
466.68	10078.05
466.89	10035.05
467.10	10276.71
467.30	10012.52
467.51	10393.44
467.72	10559.33
467.93	10172.26
468.14	10594.14
468.34	10387.30
468.55	10579.81
468.76	10561.37
468.97	10325.86
469.17	10815.32
469.38	10784.60
469.59	10809.18
469.80	10588.00
470.01	10868.57
470.21	10936.15
470.42	10841.95
470.63	11366.23
470.84	11063.13
471.04	11450.19
471.25	11161.43
471.46	11282.26
471.67	11607.89
471.87	11413.33
472.08	11665.23
472.29	11863.88
472.50	11319.12
472.70	11454.29
472.91	11702.09
473.12	11794.25
473.33	11786.06
473.53	12058.44
473.74	12001.10
473.95	12162.89
474.16	12482.37
474.36	12373.83
474.57	12478.27
474.78	12422.98
474.99	12310.34
475.19	12617.54
475.40	12851.00
475.61	12674.88
475.81	13004.60
476.02	13043.51
476.23	13104.95
476.44	12930.87
476.64	13186.87
476.85	13485.87
477.06	13360.95
477.27	13481.78
477.47	13575.98
477.68	13684.53
477.89	13723.44
478.09	13692.72
478.30	13836.08
478.51	13969.19
478.71	14116.65
478.92	14221.10
479.13	14102.31
479.34	14309.16
479.54	14358.31
479.75	14356.26
479.96	14628.64
480.16	14599.97
480.37	14632.74
480.58	14640.93
480.78	15073.05
480.99	15005.47
481.20	14997.28
481.41	15312.66
481.61	15169.30
481.82	15451.92
482.03	15195.93
482.23	15453.97
482.44	15828.75
482.65	15873.81
482.85	15900.43
483.06	16000.78
483.27	15976.20
483.47	15996.68
483.68	15945.48
483.89	16242.44
484.09	16299.78
484.30	16086.79
484.51	16168.71
484.71	16633.60
484.92	16717.57
485.13	16686.85
485.33	16754.43
485.54	16830.21
485.75	17176.31
485.95	17346.30
486.16	17346.30
486.37	17297.14
486.57	17381.11
486.78	17280.76
486.98	17792.75
487.19	17731.31
487.40	17682.16
487.60	17671.92
487.81	17878.77
488.02	17678.07
488.22	18061.04
488.43	17979.12
488.64	18284.26
488.84	18220.78
489.05	18624.23
489.25	18235.11
489.46	18497.25
489.67	18454.25
489.87	18831.07
490.08	18900.70
490.29	18675.43
490.49	19228.38
490.70	18892.51
490.90	19107.55
491.11	19033.82
491.32	19295.96
491.52	19476.18
491.73	19664.60
491.94	19586.77
492.14	19361.50
492.35	19951.31
492.55	19893.97
492.76	19867.34
492.97	19709.65
493.17	19941.07
493.38	20215.50
493.58	20342.47
493.79	20217.55
494.00	20553.41
494.20	20528.84
494.41	20709.06
494.61	20563.65
494.82	20838.08
495.02	20850.37
495.23	20745.92
495.44	21266.11
495.64	21270.20
495.85	21094.08
496.05	21159.61
496.26	21184.19
496.47	21393.08
496.67	21413.56
496.88	21722.80
497.08	21511.86
497.29	21829.30
497.49	21618.36
497.70	22011.57
497.91	22113.97
498.11	22234.80
498.32	22228.65
498.52	22433.45
498.73	22503.08
498.93	22503.08
499.14	22754.98
499.34	22484.65
499.55	22697.64
499.76	22771.36
499.96	22666.92
500.17	22929.06
500.37	23084.70
500.58	23269.02
500.78	23146.14
500.99	23316.12
501.19	23359.13
501.40	23285.40
501.60	23185.05
501.81	23092.90
502.02	23576.22
502.22	23146.14
502.43	23621.27
502.63	23676.57
502.84	23821.97
503.04	23621.27
503.25	23916.18
503.45	23789.20
503.66	24254.09
503.86	23946.90
504.07	24600.20
504.27	24166.03
504.48	24675.98
504.68	24370.83
504.89	24796.81
505.09	24712.84
505.30	24727.17
505.50	24649.35
505.71	25060.99
505.91	25171.58
506.12	25050.75
506.32	24895.11
506.53	24880.77
506.73	24886.92
506.94	25470.59
507.14	25181.82
507.35	25167.49
507.55	25519.74
507.76	25824.89
507.96	25450.11
508.17	25527.93
508.37	25808.50
508.58	25564.79
508.78	25912.95
508.99	25773.69
509.19	25853.56
509.40	25851.51
509.60	25960.05
509.81	26371.69
510.01	26195.57
510.22	26199.66
510.42	26125.94
510.63	26306.16
510.83	26275.44
511.04	26558.06
511.24	26654.31
511.44	26482.28
511.65	26824.29
511.85	26553.96
512.06	26924.65
512.26	26685.03
512.47	26916.45
512.67	26738.28
512.88	26953.32
513.08	26961.51
513.29	27045.48
513.49	27303.52
513.69	27082.34
513.90	26885.73
514.10	27801.18
514.31	27412.06
514.51	27723.35
514.72	27448.93
514.92	27559.52
515.13	27692.63
515.33	27565.66
515.53	27919.96
515.74	27954.77
515.94	27934.29
516.15	28020.31
516.35	28268.11
516.56	28223.06
516.76	28175.95
516.96	28241.49
517.17	28489.29
517.37	28409.42
517.58	28266.06
517.78	28646.99
517.99	28509.77
518.19	28620.36
518.39	28474.96
518.60	29017.67
518.80	28905.03
519.01	28735.05
519.21	28997.19
519.41	29126.21
519.62	28896.84
519.82	29144.64
520.03	29210.18
520.23	29466.17
520.43	29249.09
520.64	29783.61
520.84	29703.74
521.05	29331.01
521.25	29785.66
521.45	30207.54
521.66	30246.45
521.86	29957.69
522.07	29693.50
522.27	30080.56
522.47	30180.92
522.68	30350.90
522.88	30125.62
523.08	30787.11
523.29	30537.26
523.49	30363.18
523.70	30606.89
523.90	30688.81
524.10	30795.31
524.31	31039.01
524.51	30860.84
524.71	30969.38
524.92	31202.85
525.12	31401.50
525.33	31051.30
525.53	31421.98
525.73	31749.66
525.94	31708.70
526.14	31307.30
526.34	31870.49
526.55	31923.74
526.75	32009.75
526.95	32347.67
527.16	31833.63
527.36	32106.01
527.56	32486.93
527.77	32275.99
527.97	32306.71
528.17	32542.22
528.38	32663.05
528.58	32407.06
528.78	32794.12
528.99	32611.85
529.19	33361.41
529.39	32886.28
529.60	33390.08
529.80	33113.61
530.00	33332.74
530.21	33226.24
530.41	33328.64
530.61	33328.64
530.82	33666.56
531.02	33537.54
531.22	33285.64
531.43	33533.44
531.63	33730.05
531.83	34256.37
532.04	34354.68
532.24	34387.44
532.44	34600.43
532.64	34528.75
532.85	34688.49
533.05	34487.79
533.25	34575.86
533.46	34663.92
533.66	34999.79
533.86	34887.15
534.07	35272.17
534.27	35349.99
534.47	35532.26
534.67	35554.79
534.88	35220.97
535.08	35313.13
535.28	35720.67
535.49	35528.16
535.69	36138.46
535.89	36357.59
536.09	35978.72
536.30	36541.91
536.50	36134.36
536.70	36203.99
536.91	35884.51
537.11	36328.92
537.31	36644.30
537.51	36339.16
537.72	36597.20
537.92	36867.53
538.12	37254.60
538.32	37021.13
538.53	37158.34
538.73	36953.55
538.93	37078.47
539.13	37238.22
539.34	37066.19
539.54	37221.83
539.74	37451.20
539.94	37518.79
540.15	37443.01
540.35	37750.21
540.55	37512.64
540.75	37782.98
540.96	37760.45
541.16	37866.94
541.36	37670.34
541.56	37844.41
541.77	38075.84
541.97	38010.30
542.17	38129.08
542.37	38452.66
542.58	38534.58
542.78	38331.83
542.98	38448.57
543.18	38385.08
543.38	38700.47
543.59	38892.97
543.79	38604.21
543.99	38868.40
544.19	38639.03
544.40	38849.97
544.60	39204.27
544.80	38860.21
545.00	39251.37
545.20	39212.46
545.41	39290.28
545.61	38907.31
545.81	39669.15
546.01	39314.86
546.21	39335.34
546.42	39560.61
546.62	39611.81
546.82	39599.52
547.02	39454.12
547.22	39910.82
547.43	39771.55
547.63	39536.04
547.83	39593.38
548.03	39607.72
548.23	39851.42
548.44	39976.35
548.64	40080.80
548.84	39779.74
549.04	40064.41
549.24	40242.59
549.45	40568.21
549.65	40007.07
549.85	40371.61
550.05	40437.14
550.25	40224.15
550.45	41010.57
550.66	40707.47
550.86	40629.65
551.06	40467.86
551.26	40904.08
551.46	40953.23
551.66	40967.57
551.87	40682.90
552.07	40695.19
552.27	40379.80
552.47	41059.73
552.67	40981.90
552.87	40863.12
553.07	40951.18
553.28	41307.53
553.48	41471.37
553.68	40707.47
553.88	41057.68
554.08	41502.09
554.28	41414.02
554.48	40871.31
554.69	41655.68
554.89	41774.47
555.09	41442.70
555.29	41307.53
555.49	41753.99
555.69	41590.15
555.89	41346.44
556.10	41971.07
556.30	41665.92
556.50	41928.06
556.70	41371.02
556.90	41696.64
557.10	42173.82
557.30	41803.14
557.50	42024.32
557.70	42319.23
557.91	42050.94
558.11	41993.60
558.31	42026.37
558.51	41819.52
558.71	42096.00
558.91	42126.72
559.11	41897.34
559.31	42042.75
559.51	41993.60
559.72	42366.33
559.92	42120.57
560.12	42243.45
560.32	41938.30
560.52	42173.82
560.72	42399.10
560.92	42294.65
561.12	42632.57
561.32	42706.29
561.52	42347.90
561.72	42489.21
561.93	42638.71
562.13	42593.65
562.33	42540.41
562.53	43210.09
562.73	42390.91
562.93	42675.57
563.13	42769.78
563.33	42988.91
563.53	42763.64
563.73	42661.24
563.93	42831.22
564.13	43283.82
564.33	42909.04
564.53	42694.00
564.74	43177.33
564.94	42751.35
565.14	43140.46
565.34	42628.47
565.54	42902.90
565.74	43216.24
565.94	43230.57
566.14	43062.64
566.34	42708.34
566.54	43500.90
566.74	42937.71
566.94	43099.50
567.14	42962.29
567.34	43308.40
567.54	43664.74
567.74	43193.71
567.94	43623.78
568.14	43824.48
568.34	43588.97
568.54	43322.73
568.74	43468.14
568.94	43312.49
569.14	43705.70
569.34	43873.63
569.54	43687.27
569.75	43292.01
569.95	43750.76
570.15	44262.75
570.35	44215.65
570.55	43443.56
570.75	43597.16
570.95	44023.14
571.15	43851.11
571.35	43965.79
571.55	44283.23
571.75	44012.90
571.95	44025.18
572.15	44264.80
572.35	44289.37
572.55	43869.54
572.75	44129.63
572.95	44381.53
573.15	44442.97
573.35	44191.07
573.55	44225.89
573.75	44238.17
573.95	44686.68
574.15	44420.44
574.35	44631.38
574.55	44744.02
574.75	44363.10
574.95	44508.50
575.15	44053.86
575.34	44584.28
575.54	44852.56
575.74	44983.63
575.94	45139.28
576.14	44768.60
576.34	45196.62
576.54	45425.99
576.74	45266.25
576.94	44901.71
577.14	45432.14
577.34	45110.61
577.54	45227.34
577.74	45337.93
577.94	45505.87
578.14	45659.46
578.34	45524.30
578.54	44887.38
578.74	45374.80
578.94	45722.95
579.14	45593.93
579.34	45741.38
579.54	45921.60
579.74	46169.41
579.94	45872.45
580.13	45831.49
580.33	45825.35
580.53	45868.36
580.73	45897.03
580.93	46572.86
581.13	46370.11
581.33	46208.32
581.53	46595.38
581.73	46478.65
581.93	46671.16
582.13	46595.38
582.33	46540.09
582.53	46193.98
582.73	46912.82
582.92	46867.76
583.12	46791.99
583.32	46943.54
583.52	46791.99
583.72	47166.77
583.92	46908.72
584.12	47115.57
584.32	47377.71
584.52	47064.37
584.72	47371.57
584.92	47584.55
585.11	47574.31
585.31	47615.27
585.51	47398.19
585.71	47486.25
585.91	47578.41
586.11	47453.48
586.31	47504.68
586.51	47318.32
586.71	47619.37
586.91	48250.14
587.10	47818.02
587.30	48024.87
587.50	47842.60
587.70	47883.56
587.90	48403.74
588.10	48565.53
588.30	47740.20
588.50	48194.85
