SpectraSuite Data File
++++++++++++++++++++++++++++++++++++
Date: Fri Jun 02 14:41:57 CEST 2017
User: INFO_000
Dark Spectrum Present: No
Reference Spectrum Present: No
Number of Sampled Component Spectra: 1
Spectrometers: USB4H00879
Integration Time (usec): 80000 (USB4H00879)
Spectra Averaged: 1 (USB4H00879)
Boxcar Smoothing: 0 (USB4H00879)
Correct for Electrical Dark: No (USB4H00879)
Strobe/Lamp Enabled: No (USB4H00879)
Correct for Detector Non-linearity: No (USB4H00879)
Correct for Stray Light: No (USB4H00879)
Number of Pixels in Processed Spectrum: 3648
>>>>>Begin Processed Spectral Data<<<<<
345.13	1267.69
345.34	1267.69
345.56	1267.69
345.78	1234.93
345.99	1249.26
346.21	1675.24
346.42	1736.68
346.64	1662.95
346.86	1748.97
347.07	1583.08
347.29	1683.43
347.50	1538.02
347.72	1683.43
347.94	1759.21
348.15	1568.74
348.37	1566.70
348.59	1716.20
348.80	1574.89
349.02	1798.12
349.23	1859.56
349.45	1802.21
349.67	1912.80
349.88	1810.40
350.10	1900.52
350.31	1869.80
350.53	1847.27
350.75	2019.30
350.96	1802.21
351.18	1853.41
351.39	1880.04
351.61	1818.60
351.82	1925.09
352.04	1935.33
352.26	1814.50
352.47	1839.08
352.69	1871.84
352.90	1746.92
353.12	1740.77
353.34	1808.36
353.55	1855.46
353.77	1851.36
353.98	1867.75
354.20	1892.32
354.41	1900.52
354.63	1880.04
354.85	2023.39
355.06	1949.67
355.28	1759.21
355.49	1927.14
355.71	1892.32
355.92	1859.56
356.14	1918.95
356.35	1904.61
356.57	1839.08
356.79	1853.41
357.00	1867.75
357.22	1949.67
357.43	1896.42
357.65	1923.04
357.86	1841.12
358.08	1902.56
358.29	2002.91
358.51	2015.20
358.72	1953.76
358.94	1910.75
359.16	1955.81
359.37	1927.14
359.59	1902.56
359.80	1935.33
360.02	1947.62
360.23	1929.19
360.45	1976.29
360.66	1992.67
360.88	1888.23
361.09	1961.95
361.31	2011.11
361.52	1945.57
361.74	2037.73
361.95	2174.94
362.17	1961.95
362.38	2111.46
362.60	2004.96
362.81	2007.01
363.03	1880.04
363.24	1992.67
363.46	2019.30
363.67	1990.63
363.89	2113.50
364.10	2011.11
364.32	2000.87
364.53	1990.63
364.75	1959.91
364.96	2068.45
365.18	1980.39
365.39	2064.35
365.61	1990.63
365.82	2072.54
366.04	1961.95
366.25	1935.33
366.47	2039.78
366.68	1984.48
366.90	1970.15
367.11	2115.55
367.33	2136.03
367.54	2068.45
367.76	2064.35
367.97	2084.83
368.19	2058.21
368.40	2064.35
368.62	1949.67
368.83	1947.62
369.05	2021.35
369.26	2009.06
369.48	1974.24
369.69	2017.25
369.91	2084.83
370.12	1951.71
370.33	2101.22
370.55	2013.15
370.76	2062.30
370.98	2078.69
371.19	2021.35
371.41	2039.78
371.62	2082.78
371.84	2025.44
372.05	2222.05
372.27	2068.45
372.48	2140.13
372.69	2066.40
372.91	2138.08
373.12	2185.18
373.34	2127.84
373.55	2113.50
373.77	2174.94
373.98	2179.04
374.20	2207.71
374.41	2246.62
374.62	2236.38
374.84	2090.98
375.05	2150.37
375.27	2187.23
375.48	2213.85
375.70	2154.46
375.91	2279.39
376.12	2414.56
376.34	2248.67
376.55	2136.03
376.77	2246.62
376.98	2133.98
377.19	2064.35
377.41	2172.89
377.62	2199.52
377.84	2273.25
378.05	2248.67
378.27	2242.53
378.48	2322.40
378.69	2418.65
378.91	2330.59
379.12	2334.68
379.34	2256.86
379.55	2308.06
379.76	2301.92
379.98	2226.14
380.19	2297.82
380.41	2164.70
380.62	2314.20
380.83	2217.95
381.05	2277.34
381.26	2412.51
381.47	2236.38
381.69	2340.83
381.90	2359.26
382.12	2377.69
382.33	2353.12
382.54	2349.02
382.76	2340.83
382.97	2269.15
383.19	2260.96
383.40	2334.68
383.61	2396.12
383.83	2310.11
384.04	2361.31
384.25	2375.64
384.47	2387.93
384.68	2478.04
384.89	2383.84
385.11	2330.59
385.32	2314.20
385.54	2367.45
385.75	2459.61
385.96	2457.56
386.18	2457.56
386.39	2490.33
386.60	2373.60
386.82	2428.89
387.03	2432.99
387.24	2533.34
387.46	2441.18
387.67	2584.54
387.88	2471.90
388.10	2498.52
388.31	2486.23
388.52	2598.87
388.74	2437.08
388.95	2551.77
389.16	2523.10
389.38	2564.06
389.59	2580.44
389.80	2637.78
390.02	2557.91
390.23	2662.36
390.44	2547.67
390.66	2525.15
390.87	2576.34
391.08	2660.31
391.30	2731.99
391.51	2637.78
391.72	2629.59
391.94	2729.94
392.15	2637.78
392.36	2584.54
392.58	2641.88
392.79	2668.50
393.00	2664.41
393.22	2770.90
393.43	2871.25
393.64	2834.39
393.85	2756.57
394.07	2680.79
394.28	2791.38
394.49	2715.61
394.71	2756.57
394.92	2809.81
395.13	2729.94
395.35	2781.14
395.56	2791.38
395.77	2805.72
395.98	2971.60
396.20	2848.72
396.41	2881.49
396.62	2944.98
396.84	2828.24
397.05	2869.20
397.26	2844.63
397.47	2967.51
397.69	2871.25
397.90	3145.68
398.11	2973.65
398.32	2807.77
398.54	2934.74
398.75	2846.68
398.96	3051.47
399.18	3108.82
399.39	3061.71
399.60	3067.86
399.81	2965.46
400.03	2957.27
400.24	3274.70
400.45	3053.52
400.66	3098.58
400.88	3059.67
401.09	3338.19
401.30	3026.90
401.51	3106.77
401.73	3215.31
401.94	3205.07
402.15	3217.36
402.36	3264.46
402.58	3141.58
402.79	3266.51
403.00	3176.40
403.21	3215.31
403.43	3221.45
403.64	3327.95
403.85	3297.23
404.06	3246.03
404.27	3125.20
404.49	3289.04
404.70	3227.60
404.91	3360.72
405.12	3307.47
405.34	3125.20
405.55	3430.35
405.76	3233.74
405.97	3307.47
406.19	3557.32
406.40	3289.04
406.61	3375.05
406.82	3430.35
407.03	3352.52
407.25	3485.64
407.46	3436.49
407.67	3549.13
407.88	3479.50
408.09	3418.06
408.31	3395.53
408.52	3481.55
408.73	3391.44
408.94	3405.77
409.15	3520.46
409.37	3604.42
409.58	3483.59
409.79	3557.32
410.00	3626.95
410.21	3485.64
410.43	3495.88
410.64	3391.44
410.85	3604.42
411.06	3551.18
411.27	3583.95
411.48	3684.30
411.70	3620.81
411.91	3606.47
412.12	3733.45
412.33	3598.28
412.54	3672.01
412.76	3868.61
412.97	3729.35
413.18	3665.86
413.39	3721.16
413.60	3715.02
413.81	3798.98
414.03	3647.43
414.24	3739.59
414.45	3860.42
414.66	3698.63
414.87	3784.65
415.08	3786.69
415.30	3803.08
415.51	3860.42
415.72	3901.38
415.93	3837.89
416.14	3864.52
416.35	3882.95
416.56	3905.48
416.78	3907.52
416.99	3985.35
417.20	3917.76
417.41	4046.79
417.62	3854.28
417.83	4075.46
418.04	4038.59
418.26	4020.16
418.47	3925.96
418.68	4100.03
418.89	4143.04
419.10	4255.68
419.31	4106.18
419.52	4063.17
419.73	4165.57
419.95	4089.79
420.16	3973.06
420.37	4196.29
420.58	4270.01
420.79	4079.55
421.00	4253.63
421.21	4263.87
421.42	4040.64
421.63	4259.78
421.85	4296.64
422.06	4407.23
422.27	4345.79
422.48	4257.73
422.69	4284.35
422.90	4419.52
423.11	4331.45
423.32	4458.43
423.53	4523.96
423.75	4435.90
423.96	4558.78
424.17	4427.71
424.38	4622.27
424.59	4358.08
424.80	4765.62
425.01	4585.40
425.22	4536.25
425.43	4583.35
425.64	4790.20
425.85	4722.62
426.06	4548.54
426.28	4751.29
426.49	4564.92
426.70	4771.77
426.91	4687.80
427.12	4687.80
427.33	4814.77
427.54	4775.86
427.75	4837.30
427.96	5083.06
428.17	4976.56
428.38	4716.47
428.59	4988.85
428.80	4859.83
429.01	4868.02
429.23	4878.26
429.44	5144.50
429.65	5033.91
429.86	5152.69
430.07	5038.00
430.28	5023.67
430.49	5177.26
430.70	5126.07
430.91	5236.66
431.12	5162.93
431.33	5244.85
431.54	5238.70
431.75	5279.66
431.96	5310.38
432.17	5228.46
432.38	5195.70
432.59	5537.71
432.80	5459.88
433.01	5500.84
433.22	5525.42
433.43	5394.35
433.64	5445.55
433.85	5300.14
434.06	5566.38
434.27	5384.11
434.49	5640.11
434.70	5615.53
434.91	5490.60
435.12	5656.49
435.33	5664.68
435.54	5726.12
435.75	5500.84
435.96	5644.20
436.17	5633.96
436.38	5775.27
436.59	5855.14
436.80	5889.96
437.01	6051.75
437.22	6068.13
437.43	5820.33
437.64	5539.76
437.85	5937.06
438.06	5930.92
438.27	5887.91
438.48	5775.27
438.69	6055.84
438.90	6061.99
439.11	5810.09
439.32	5945.25
439.53	5992.36
439.74	6049.70
439.95	5969.83
440.16	6000.55
440.37	6178.72
440.57	6010.79
440.78	6096.80
440.99	6221.73
441.20	6115.23
441.41	6119.33
441.62	6166.43
441.83	6035.36
442.04	6197.15
442.25	6084.52
442.46	6199.20
442.67	6209.44
442.88	6743.96
443.09	6317.98
443.30	6236.06
443.51	6406.05
443.72	6682.52
443.93	6281.12
444.14	6676.38
444.35	6281.12
444.56	6541.21
444.77	6547.36
444.98	6696.86
445.19	6717.34
445.40	6533.02
445.61	6590.36
445.81	6713.24
446.02	6713.24
446.23	6725.53
446.44	6512.54
446.65	6711.19
446.86	6668.19
447.07	6848.41
447.28	6965.14
447.49	6934.42
447.70	6762.39
447.91	6901.65
448.12	6823.83
448.33	6969.24
448.54	7008.15
448.74	6844.31
448.95	7104.40
449.16	6983.57
449.37	7235.47
449.58	7083.92
449.79	7315.34
450.00	6875.03
450.21	7137.17
450.42	7350.16
450.63	7364.50
450.84	7198.61
451.05	7315.34
451.25	7262.10
451.46	7030.68
451.67	7479.18
451.88	7532.43
452.09	7432.08
452.30	7284.62
452.51	7368.59
452.72	7638.92
452.93	7769.99
453.13	7503.76
453.34	7405.46
453.55	7579.53
453.76	7534.48
453.97	7927.69
454.18	7675.79
454.39	7729.03
454.60	7712.65
454.81	7677.83
455.01	7921.54
455.22	7757.71
455.43	7858.06
455.64	7962.50
455.85	8189.83
456.06	8228.74
456.27	8017.80
456.48	8138.63
456.68	8142.72
456.89	8118.15
457.10	8238.98
457.31	8142.72
457.52	8322.94
457.73	8333.18
457.94	8454.02
458.14	8261.51
458.35	8863.61
458.56	8327.04
458.77	8576.89
458.98	8533.89
459.19	8669.05
459.39	8640.38
459.60	8802.17
459.81	8691.58
460.02	8843.13
460.23	8787.83
460.44	9080.69
460.65	8879.99
460.85	9101.17
461.06	8935.29
461.27	8775.55
461.48	9101.17
461.69	9457.52
461.89	9086.84
462.10	9123.70
462.31	9047.93
462.52	9133.94
462.73	9455.47
462.94	9463.66
463.14	9525.10
463.35	9475.95
463.56	9797.48
463.77	9746.28
463.98	9449.33
464.18	9805.67
464.39	9789.29
464.60	9924.46
464.81	9940.84
465.02	9899.88
465.23	10223.46
465.43	9891.69
465.64	10164.07
465.85	10231.65
466.06	10137.45
466.27	10581.85
466.47	10491.74
466.68	10248.04
466.89	10487.65
467.10	10557.28
467.30	10358.63
467.51	10559.33
467.72	10667.87
467.93	10354.53
468.14	10678.11
468.34	10895.19
468.55	10846.04
468.76	10950.49
468.97	10837.85
469.17	10874.71
469.38	11319.12
469.59	11413.33
469.80	11202.39
470.01	11378.51
470.21	11276.12
470.42	11593.55
470.63	11599.70
470.84	11411.28
471.04	11482.96
471.25	11765.58
471.46	11892.55
471.67	12076.87
471.87	11829.07
472.08	11923.27
472.29	12187.46
472.50	12021.58
472.70	12027.72
472.91	12097.35
473.12	12595.01
473.33	12504.90
473.53	12678.97
473.74	12259.14
473.95	12615.49
474.16	12611.39
474.36	12943.16
474.57	13029.18
474.78	13195.06
474.99	12814.14
475.19	13137.72
475.40	13365.04
475.61	13375.28
475.81	13559.60
476.02	13766.45
476.23	13463.35
476.44	13967.15
476.64	13893.42
476.85	14057.26
477.06	13891.37
477.27	14528.29
477.47	14466.85
477.68	14530.34
477.89	14747.42
478.09	14454.56
478.30	14389.03
478.51	14544.67
478.71	14618.40
478.92	14868.25
479.13	14931.74
479.34	15140.63
479.54	15142.68
479.75	15107.87
479.96	15320.85
480.16	15365.91
480.37	15486.74
480.58	15824.65
480.78	15855.37
480.99	15785.74
481.20	15816.46
481.41	15943.44
481.61	16504.58
481.82	16193.29
482.03	16432.90
482.23	16324.36
482.44	16518.92
482.65	16639.75
482.85	16869.12
483.06	16830.21
483.27	16787.20
483.47	16932.61
483.68	16977.66
483.89	17116.92
484.09	17080.06
484.30	17145.59
484.51	17534.71
484.71	17385.21
484.92	17651.44
485.13	17671.92
485.33	17852.14
485.54	17686.26
485.75	18265.83
485.95	18202.35
486.16	18280.17
486.37	18390.76
486.57	18177.77
486.78	18292.46
486.98	18505.45
487.19	18712.29
487.40	18753.25
487.60	18585.32
487.81	19238.62
488.02	19015.39
488.22	18996.96
488.43	19226.33
488.64	19140.32
488.84	19078.88
489.05	19498.71
489.25	19566.29
489.46	19769.04
489.67	19668.69
489.87	19855.06
490.08	19797.71
490.29	19844.82
490.49	20457.16
490.70	20127.44
490.90	20348.62
491.11	20078.29
491.32	20440.78
491.52	20553.41
491.73	20504.26
491.94	20649.67
492.14	20725.44
492.35	20903.62
492.55	21192.38
492.76	21149.37
492.97	21163.71
493.17	21241.53
493.38	21380.79
493.58	21692.08
493.79	21538.49
494.00	21739.19
494.20	21495.48
494.41	21857.97
494.61	21798.58
494.82	21929.65
495.02	22023.86
495.23	22290.09
495.44	22195.89
495.64	22230.70
495.85	22496.94
496.05	22679.21
496.26	22408.87
496.47	22808.23
496.67	22720.17
496.88	22888.10
497.08	22673.06
497.29	23305.88
497.49	23027.36
497.70	23027.36
497.91	23002.78
498.11	23512.73
498.32	23447.19
498.52	23373.47
498.73	23842.45
498.93	23455.39
499.14	23889.56
499.34	23703.19
499.55	23981.71
499.76	23834.26
499.96	24067.73
500.17	24069.78
500.37	24026.77
500.58	24055.44
500.78	24194.70
500.99	24133.26
501.19	24667.78
501.40	24528.52
501.60	24475.27
501.81	24688.26
502.02	24549.00
502.22	24731.27
502.43	25034.37
502.63	25067.14
502.84	25095.81
503.04	25165.44
503.25	24860.29
503.45	25222.78
503.66	25378.43
503.86	25441.92
504.07	25691.77
504.27	25593.47
504.48	25620.09
504.68	25630.33
504.89	26105.46
505.09	26007.16
505.30	25880.18
505.50	26232.43
505.71	26207.86
505.91	26275.44
506.12	25998.96
506.32	26138.23
506.53	26127.99
506.73	26216.05
506.94	26435.18
507.14	26420.84
507.35	26627.69
507.55	26717.80
507.76	26769.00
507.96	26650.22
508.17	26992.23
508.37	27090.53
508.58	26601.07
508.78	26678.89
508.99	27295.33
509.19	27025.00
509.40	27342.43
509.60	27412.06
509.81	27829.85
510.01	27160.16
510.22	27176.55
510.42	27190.88
510.63	27584.09
510.83	27491.93
511.04	27657.82
511.24	27903.57
511.44	27528.80
511.65	27967.06
511.85	27827.80
512.06	28094.04
512.26	27809.37
512.47	28288.59
512.67	28040.79
512.88	28003.92
513.08	28110.42
513.29	28567.12
513.49	28096.08
513.69	28173.91
513.90	28434.00
514.10	28487.25
514.31	28126.80
514.51	28689.99
514.72	28591.69
514.92	28800.58
515.13	28790.34
515.33	28630.60
515.53	28866.12
515.74	28474.96
515.94	29011.53
516.15	28689.99
516.35	28964.42
516.56	29314.62
516.76	29210.18
516.96	29316.67
517.17	29503.04
517.37	29390.40
517.58	29558.33
517.78	29384.26
517.99	29679.16
518.19	29787.71
518.39	29638.20
518.60	29750.84
518.80	29869.62
519.01	30187.06
519.21	30187.06
519.41	30152.24
519.62	29828.66
519.82	30199.35
520.03	30299.70
520.23	30107.19
520.43	29914.68
520.64	30402.10
520.84	30842.41
521.05	30602.80
521.25	30434.86
521.45	30711.34
521.66	30830.12
521.86	30914.09
522.07	30922.28
522.27	30998.06
522.47	30901.80
522.68	31364.64
522.88	31053.35
523.08	31557.15
523.29	31395.36
523.49	31505.95
523.70	31452.70
523.90	31974.94
524.10	31807.00
524.31	31938.07
524.51	31886.87
524.71	32390.67
524.92	32153.11
525.12	32077.33
525.33	32433.68
525.53	32341.52
525.73	32529.94
525.94	32763.40
526.14	32667.15
526.34	32839.18
526.55	32683.53
526.75	32943.63
526.95	32738.83
527.16	33072.65
527.36	32851.47
527.56	33392.13
527.77	33480.19
527.97	33154.57
528.17	33414.66
528.38	33570.30
528.58	33732.09
528.78	33695.23
528.99	33746.43
529.19	34139.64
529.39	33871.36
529.60	33926.65
529.80	34160.12
530.00	34180.60
530.21	34209.27
530.41	34514.42
530.61	34508.27
530.82	34614.77
531.02	34403.83
531.22	34856.43
531.43	34799.08
531.63	34993.64
531.83	35374.56
532.04	35349.99
532.24	35177.96
532.44	35646.94
532.64	35716.58
532.85	35509.73
533.05	35681.76
533.25	35784.16
533.46	35522.02
533.66	36388.31
533.86	35436.00
534.07	36414.93
534.27	36294.10
534.47	36255.19
534.67	36310.49
534.88	36376.02
535.08	36605.39
535.28	36488.66
535.49	36849.10
535.69	37010.89
535.89	37080.52
536.09	37160.39
536.30	37467.59
536.50	37400.01
536.70	37178.82
536.91	37430.72
537.11	37713.34
537.31	37565.89
537.51	37385.67
537.72	37795.26
537.92	38135.23
538.12	38317.50
538.32	37817.79
538.53	38419.89
538.73	38294.97
538.93	37862.85
539.13	38075.84
539.34	38569.40
539.54	37991.87
539.74	38827.44
539.94	38587.83
540.15	38469.04
540.35	38976.94
540.55	39017.90
540.75	38806.96
540.96	38845.87
541.16	38905.26
541.36	39108.01
541.56	39153.07
541.77	39392.68
541.97	39589.28
542.17	39591.33
542.37	39757.22
542.58	39562.66
542.78	39759.27
542.98	39605.67
543.18	39732.64
543.38	39910.82
543.59	40140.19
543.79	39847.33
543.99	39689.63
544.19	40158.62
544.40	40224.15
544.60	40486.29
544.80	40336.79
545.00	40787.35
545.20	40756.63
545.41	40697.24
545.61	40426.90
545.81	41014.67
546.01	40971.66
546.21	40619.41
546.42	40873.36
546.62	41198.99
546.82	41268.62
547.02	41508.23
547.22	41530.76
547.43	41186.70
547.63	41080.21
547.83	41543.05
548.03	41618.82
548.23	41743.75
548.44	41821.57
548.64	41760.13
548.84	41686.40
549.04	41600.39
549.24	41919.87
549.45	42093.95
549.65	41796.99
549.85	42153.34
550.05	41995.65
550.25	41936.26
550.45	42583.41
550.66	42106.24
550.86	42511.74
551.06	42876.27
551.26	42829.17
551.46	42335.61
551.66	42630.52
551.87	42552.69
552.07	42706.29
552.27	42593.65
552.47	42726.77
552.67	42904.95
552.87	42720.63
553.07	43246.96
553.28	42853.75
553.48	43193.71
553.68	43394.41
553.88	43562.34
554.08	43513.19
554.28	43070.83
554.48	42904.95
554.69	43369.83
554.89	43177.33
555.09	43216.24
555.29	43646.31
555.49	43486.57
555.69	43681.13
555.89	43382.12
556.10	43425.13
556.30	43267.44
556.50	43300.20
556.70	43603.30
556.90	44053.86
557.10	44094.82
557.30	43779.43
557.50	43939.17
557.70	43971.94
557.91	44246.36
558.11	44043.62
558.31	44373.34
558.51	44111.20
558.71	44387.67
558.91	44295.52
559.11	44496.22
559.31	44078.43
559.51	44119.39
559.72	44299.61
559.92	44823.89
560.12	44395.87
560.32	44602.71
560.52	44582.23
560.72	44830.04
560.92	45122.90
561.12	44688.73
561.32	44905.81
561.52	44612.95
561.72	45159.76
561.93	45047.12
562.13	44643.67
562.33	44686.68
562.53	45286.73
562.73	44946.77
562.93	45026.64
563.13	45364.56
563.33	44836.18
563.53	45602.12
563.73	45131.09
563.93	45215.05
564.13	45573.45
564.33	45413.71
564.53	45337.93
564.74	45794.63
564.94	45446.47
565.14	45552.97
565.34	45389.13
565.54	45587.78
565.74	45700.42
565.94	45872.45
566.14	45249.87
566.34	45856.07
566.54	46204.22
566.74	45770.05
566.94	45802.82
567.14	45880.64
567.34	45733.19
567.54	46150.98
567.74	46144.83
567.94	45722.95
568.14	46179.65
568.34	46030.15
568.54	45536.59
568.74	46257.47
568.94	46089.54
569.14	46409.02
569.34	46232.89
569.54	46288.19
569.75	46474.55
569.95	46728.50
570.15	46814.52
570.35	46732.60
570.55	46433.60
570.75	46769.46
570.95	46366.01
571.15	46300.48
571.35	46632.25
571.55	47195.44
571.75	47056.18
571.95	46861.62
572.15	47064.37
572.35	46880.05
572.55	47273.26
572.75	46945.59
572.95	47459.63
573.15	47293.74
573.35	47105.33
573.55	46581.05
573.75	47265.07
573.95	47592.75
574.15	46798.13
574.35	47689.00
574.55	47299.89
574.75	47686.95
574.95	47486.25
575.15	47435.05
575.34	47619.37
575.54	47686.95
575.74	47764.78
575.94	47947.04
576.14	47850.79
576.34	48037.16
576.54	48155.94
576.74	47867.17
576.94	48039.20
577.14	48246.05
577.34	48561.44
577.54	48264.48
577.74	48211.23
577.94	48555.29
578.14	48155.94
578.34	48534.81
578.54	48020.77
578.74	48315.68
578.94	48827.67
579.14	48698.65
579.34	48504.09
579.54	48631.07
579.74	49159.44
579.94	48801.05
580.13	49220.88
580.33	49044.76
580.53	49014.04
580.73	49026.32
580.93	48817.43
581.13	49095.95
581.33	49372.43
581.53	49399.05
581.73	48870.68
581.93	49263.89
582.13	49597.71
582.33	49538.32
582.53	49313.04
582.73	49476.88
582.92	49429.77
583.12	49974.53
583.32	49870.09
583.52	49493.26
583.72	50009.35
583.92	49818.89
584.12	49673.48
584.32	50339.07
584.52	49466.64
584.72	50093.32
584.92	50382.08
585.11	50353.41
585.31	50541.82
585.51	50169.09
585.71	50316.54
585.91	50840.82
586.11	50447.61
586.31	50574.59
586.51	50566.40
586.71	50844.92
586.91	51191.03
587.10	50767.10
587.30	50840.82
587.50	51105.01
587.70	50748.67
587.90	50705.66
588.10	51156.21
588.30	51549.42
588.50	51477.74
