SpectraSuite Data File
++++++++++++++++++++++++++++++++++++
Date: Fri Jun 02 14:41:55 CEST 2017
User: INFO_000
Dark Spectrum Present: No
Reference Spectrum Present: No
Number of Sampled Component Spectra: 1
Spectrometers: USB4H00879
Integration Time (usec): 80000 (USB4H00879)
Spectra Averaged: 1 (USB4H00879)
Boxcar Smoothing: 0 (USB4H00879)
Correct for Electrical Dark: No (USB4H00879)
Strobe/Lamp Enabled: No (USB4H00879)
Correct for Detector Non-linearity: No (USB4H00879)
Correct for Stray Light: No (USB4H00879)
Number of Pixels in Processed Spectrum: 3648
>>>>>Begin Processed Spectral Data<<<<<
345.13	1234.93
345.34	1234.93
345.56	1234.93
345.78	1316.84
345.99	1359.85
346.21	1705.96
346.42	1703.91
346.64	1679.33
346.86	1755.11
347.07	1644.52
347.29	1662.95
347.50	1486.83
347.72	1683.43
347.94	1738.73
348.15	1535.98
348.37	1607.66
348.59	1730.53
348.80	1628.14
349.02	1728.49
349.23	1886.18
349.45	1763.30
349.67	1898.47
349.88	1837.03
350.10	1886.18
350.31	1837.03
350.53	1732.58
350.75	1984.48
350.96	1841.12
351.18	1910.75
351.39	1877.99
351.61	1804.26
351.82	1892.32
352.04	1931.23
352.26	1830.88
352.47	1900.52
352.69	1896.42
352.90	1757.16
353.12	1855.46
353.34	1820.64
353.55	1937.38
353.77	1875.94
353.98	1822.69
354.20	1843.17
354.41	1863.65
354.63	1929.19
354.85	2056.16
355.06	1902.56
355.28	1773.54
355.49	1923.04
355.71	1828.84
355.92	1898.47
356.14	1961.95
356.35	1834.98
356.57	1843.17
356.79	1908.71
357.00	1841.12
357.22	2009.06
357.43	1783.78
357.65	2021.35
357.86	1886.18
358.08	1904.61
358.29	1880.04
358.51	1959.91
358.72	1933.28
358.94	1888.23
359.16	1892.32
359.37	1980.39
359.59	1918.95
359.80	2000.87
360.02	2025.44
360.23	1918.95
360.45	1970.15
360.66	1892.32
360.88	1920.99
361.09	1988.58
361.31	1935.33
361.52	1972.19
361.74	2084.83
361.95	2078.69
362.17	1955.81
362.38	2078.69
362.60	2084.83
362.81	1955.81
363.03	1984.48
363.24	1966.05
363.46	2060.26
363.67	2068.45
363.89	2072.54
364.10	2050.02
364.32	1968.10
364.53	2154.46
364.75	1904.61
364.96	2131.94
365.18	2060.26
365.39	1998.82
365.61	2031.58
365.82	2127.84
366.04	2033.63
366.25	1988.58
366.47	2025.44
366.68	2015.20
366.90	2002.91
367.11	2117.60
367.33	2017.25
367.54	2047.97
367.76	2011.11
367.97	2043.87
368.19	2031.58
368.40	2052.06
368.62	2002.91
368.83	1978.34
369.05	2082.78
369.26	1970.15
369.48	1974.24
369.69	2084.83
369.91	2027.49
370.12	2041.82
370.33	2119.65
370.55	2017.25
370.76	1990.63
370.98	2113.50
371.19	1994.72
371.41	1996.77
371.62	2125.79
371.84	1980.39
372.05	2236.38
372.27	2052.06
372.48	2117.60
372.69	2047.97
372.91	2101.22
373.12	2201.57
373.34	2191.33
373.55	2148.32
373.77	2162.66
373.98	2072.54
374.20	2185.18
374.41	2201.57
374.62	2084.83
374.84	2115.55
375.05	2203.61
375.27	2293.72
375.48	2187.23
375.70	2295.77
375.91	2168.80
376.12	2379.74
376.34	2158.56
376.55	2289.63
376.77	2242.53
376.98	2125.79
377.19	2209.76
377.41	2154.46
377.62	2277.34
377.84	2283.49
378.05	2359.26
378.27	2166.75
378.48	2318.30
378.69	2342.88
378.91	2346.97
379.12	2293.72
379.34	2275.29
379.55	2222.05
379.76	2267.10
379.98	2281.44
380.19	2250.72
380.41	2250.72
380.62	2392.03
380.83	2256.86
381.05	2248.67
381.26	2371.55
381.47	2260.96
381.69	2351.07
381.90	2494.43
382.12	2387.93
382.33	2297.82
382.54	2312.16
382.76	2365.40
382.97	2377.69
383.19	2283.49
383.40	2369.50
383.61	2363.36
383.83	2301.92
384.04	2330.59
384.25	2385.88
384.47	2435.03
384.68	2394.08
384.89	2369.50
385.11	2281.44
385.32	2371.55
385.54	2377.69
385.75	2344.92
385.96	2459.61
386.18	2361.31
386.39	2430.94
386.60	2428.89
386.82	2432.99
387.03	2422.75
387.24	2437.08
387.46	2541.53
387.67	2508.76
387.88	2590.68
388.10	2578.39
388.31	2527.19
388.52	2633.69
388.74	2449.37
388.95	2568.15
389.16	2523.10
389.38	2531.29
389.59	2553.82
389.80	2795.48
390.02	2555.86
390.23	2617.30
390.44	2650.07
390.66	2568.15
390.87	2500.57
391.08	2598.87
391.30	2777.05
391.51	2615.26
391.72	2674.65
391.94	2783.19
392.15	2654.17
392.36	2709.46
392.58	2715.61
392.79	2627.54
393.00	2754.52
393.22	2803.67
393.43	2824.15
393.64	2846.68
393.85	2772.95
394.07	2772.95
394.28	2838.48
394.49	2754.52
394.71	2881.49
394.92	2832.34
395.13	2613.21
395.35	2797.53
395.56	2781.14
395.77	2811.86
395.98	2951.12
396.20	2916.31
396.41	3012.56
396.62	2959.31
396.84	2990.03
397.05	2848.72
397.26	2990.03
397.47	2936.79
397.69	2897.88
397.90	3125.20
398.11	2904.02
398.32	2936.79
398.54	2912.21
398.75	2979.79
398.96	2953.17
399.18	3127.25
399.39	3096.53
399.60	3022.80
399.81	2967.51
400.03	2942.93
400.24	3276.75
400.45	3037.14
400.66	3098.58
400.88	3143.63
401.09	3278.80
401.30	3119.06
401.51	3155.92
401.73	3147.73
401.94	3147.73
402.15	3190.74
402.36	3256.27
402.58	3182.54
402.79	3280.85
403.00	3282.89
403.21	3207.12
403.43	3188.69
403.64	3299.28
403.85	3172.30
404.06	3217.36
404.27	3248.08
404.49	3229.65
404.70	3192.78
404.91	3403.72
405.12	3282.89
405.34	3297.23
405.55	3467.21
405.76	3209.17
405.97	3411.92
406.19	3368.91
406.40	3272.65
406.61	3487.69
406.82	3375.05
407.03	3348.43
407.25	3248.08
407.46	3477.45
407.67	3409.87
407.88	3534.79
408.09	3405.77
408.31	3403.72
408.52	3420.11
408.73	3428.30
408.94	3477.45
409.15	3461.07
409.37	3499.98
409.58	3583.95
409.79	3571.66
410.00	3645.38
410.21	3602.38
410.43	3545.03
410.64	3461.07
410.85	3639.24
411.06	3635.14
411.27	3702.73
411.48	3667.91
411.70	3727.30
411.91	3678.15
412.12	3762.12
412.33	3735.50
412.54	3598.28
412.76	3809.22
412.97	3811.27
413.18	3565.51
413.39	3794.89
413.60	3704.78
413.81	3948.48
414.03	3688.39
414.24	3667.91
414.45	3858.37
414.66	3762.12
414.87	3858.37
415.08	3798.98
415.30	3794.89
415.51	3846.09
415.72	3919.81
415.93	3758.02
416.14	3841.99
416.35	3928.00
416.56	3786.69
416.78	3960.77
416.99	3897.28
417.20	3829.70
417.41	3936.20
417.62	3987.40
417.83	4016.07
418.04	4026.31
418.26	4079.55
418.47	3960.77
418.68	4097.99
418.89	3911.62
419.10	4237.25
419.31	4016.07
419.52	4034.50
419.73	4153.28
419.95	4161.47
420.16	4100.03
420.37	4059.07
420.58	4231.10
420.79	4073.41
421.00	4237.25
421.21	4229.06
421.42	4151.23
421.63	4300.73
421.85	4286.40
422.06	4267.97
422.27	4378.56
422.48	4286.40
422.69	4325.31
422.90	4417.47
423.11	4417.47
423.32	4417.47
423.53	4566.97
423.75	4472.76
423.96	4509.63
424.17	4503.48
424.38	4515.77
424.59	4505.53
424.80	4734.90
425.01	4513.72
425.22	4616.12
425.43	4530.11
425.64	4704.18
425.85	4734.90
426.06	4788.15
426.28	4808.63
426.49	4571.07
426.70	4689.85
426.91	4693.94
427.12	4755.38
427.33	4749.24
427.54	4798.39
427.75	4800.44
427.96	4949.94
428.17	4861.88
428.38	4958.13
428.59	4919.22
428.80	4890.55
429.01	4851.64
429.23	4978.61
429.44	5167.03
429.65	5138.35
429.86	5212.08
430.07	4935.60
430.28	5038.00
430.49	5093.30
430.70	5363.63
430.91	5271.47
431.12	5126.07
431.33	5371.82
431.54	5361.58
431.75	5312.43
431.96	5296.05
432.17	5294.00
432.38	5308.34
432.59	5584.81
432.80	5472.17
433.01	5480.36
433.22	5480.36
433.43	5466.03
433.64	5357.49
433.85	5375.92
434.06	5531.56
434.27	5408.69
434.49	5597.10
434.70	5664.68
434.91	5660.59
435.12	5752.74
435.33	5580.71
435.54	5705.64
435.75	5584.81
435.96	5664.68
436.17	5545.90
436.38	5783.46
436.59	5885.86
436.80	5578.67
437.01	5869.48
437.22	6025.12
437.43	5760.94
437.64	5607.34
437.85	5867.43
438.06	5955.49
438.27	5705.64
438.48	5894.05
438.69	5990.31
438.90	6039.46
439.11	5842.85
439.32	6143.91
439.53	5959.59
439.74	6037.41
439.95	6070.18
440.16	6043.56
440.37	6076.32
440.57	6006.69
440.78	6299.55
440.99	6164.39
441.20	6168.48
441.41	6029.22
441.62	6305.70
441.83	5969.83
442.04	6141.86
442.25	6154.15
442.46	6213.54
442.67	6457.25
442.88	6664.09
443.09	6252.45
443.30	6414.24
443.51	6416.29
443.72	6682.52
443.93	6492.06
444.14	6608.80
444.35	6406.05
444.56	6659.99
444.77	6721.43
444.98	6514.59
445.19	6557.60
445.40	6565.79
445.61	6664.09
445.81	6807.45
446.02	6746.01
446.23	6592.41
446.44	6586.27
446.65	6791.06
446.86	6688.67
447.07	6932.37
447.28	7012.24
447.49	6737.82
447.70	6879.13
447.91	6868.89
448.12	6879.13
448.33	7135.12
448.54	6907.80
448.74	6891.41
448.95	7108.50
449.16	7008.15
449.37	7114.64
449.58	7124.88
449.79	7331.73
450.00	6905.75
450.21	7094.16
450.42	7372.69
450.63	7069.59
450.84	7356.30
451.05	7380.88
451.25	7258.00
451.46	7128.98
451.67	7448.46
451.88	7481.23
452.09	7452.56
452.30	7417.74
452.51	7290.77
452.72	7600.01
452.93	7813.00
453.13	7417.74
453.34	7387.02
453.55	7425.93
453.76	7573.39
453.97	7827.34
454.18	7593.87
454.39	7729.03
454.60	7980.93
454.81	7835.53
455.01	7942.02
455.22	7663.50
455.43	7976.84
455.64	8087.43
455.85	8105.86
456.06	8314.75
456.27	8073.09
456.48	8023.94
456.68	8220.55
456.89	8144.77
457.10	8243.07
457.31	8183.68
457.52	8238.98
457.73	8355.71
457.94	8519.55
458.14	8327.04
458.35	8777.59
458.56	8400.77
458.77	8621.95
458.98	8429.44
459.19	8517.50
459.39	8628.09
459.60	8787.83
459.81	8613.76
460.02	9017.21
460.23	8933.24
460.44	9056.12
460.65	9006.97
460.85	8986.49
461.06	8920.95
461.27	8738.68
461.48	9318.26
461.69	9170.80
461.89	8976.25
462.10	9203.57
462.31	8978.30
462.52	9230.20
462.73	9287.54
462.94	9467.76
463.14	9412.46
463.35	9451.38
463.56	9860.97
463.77	9672.56
463.98	9592.69
464.18	9627.50
464.39	9756.52
464.60	9928.55
464.81	10000.23
465.02	9623.41
465.23	10086.25
465.43	9961.32
465.64	10219.36
465.85	9996.14
466.06	10098.53
466.27	10493.79
466.47	10293.09
466.68	10237.80
466.89	10411.87
467.10	10639.20
467.30	10313.57
467.51	10596.19
467.72	10817.37
467.93	10510.18
468.14	10700.64
468.34	10899.29
468.55	10997.59
468.76	10850.14
468.97	10878.81
469.17	11143.00
469.38	11128.66
469.59	11331.41
469.80	11087.70
470.01	11300.69
470.21	11456.34
470.42	11448.15
470.63	11589.46
470.84	11583.31
471.04	11730.76
471.25	11857.74
471.46	11700.05
471.67	12179.27
471.87	11931.47
472.08	11878.22
472.29	12142.41
472.50	11890.51
472.70	12136.26
472.91	12052.30
473.12	12386.12
473.33	12433.22
473.53	12484.42
473.74	12425.03
473.95	12705.60
474.16	13006.65
474.36	12695.36
474.57	13088.57
474.78	13188.92
474.99	13117.24
475.19	12894.01
475.40	13207.35
475.61	13387.57
475.81	13455.15
476.02	13788.97
476.23	13479.73
476.44	13645.62
476.64	13948.72
476.85	13989.67
477.06	13956.91
477.27	14462.76
477.47	14321.45
477.68	14333.73
477.89	14475.04
478.09	14669.60
478.30	14538.53
478.51	14522.15
478.71	14599.97
478.92	14907.16
479.13	14960.41
479.34	15263.51
479.54	15019.80
479.75	15134.49
479.96	15351.57
480.16	15335.19
480.37	15509.27
480.58	15611.67
480.78	15781.65
480.99	15658.77
481.20	15914.77
481.41	16158.47
481.61	16140.04
481.82	16258.82
482.03	16137.99
482.23	16330.50
482.44	16615.17
482.65	16682.75
482.85	16813.82
483.06	16430.85
483.27	16807.68
483.47	16832.26
483.68	17035.00
483.89	17268.47
484.09	17241.85
484.30	17434.36
484.51	17442.55
484.71	17919.73
484.92	17610.48
485.13	17968.88
485.33	17770.22
485.54	17590.00
485.75	18161.39
485.95	18345.70
486.16	18128.62
486.37	18386.66
486.57	18188.01
486.78	18474.73
486.98	18472.68
487.19	18570.98
487.40	18583.27
487.60	18636.52
487.81	19048.16
488.02	18939.62
488.22	18912.99
488.43	19183.32
488.64	19185.37
488.84	19361.50
489.05	19457.75
489.25	19533.53
489.46	19551.96
489.67	19625.68
489.87	20043.47
490.08	20012.75
490.29	20043.47
490.49	20471.50
490.70	20258.51
490.90	20522.69
491.11	20332.23
491.32	20547.27
491.52	20563.65
491.73	20563.65
491.94	20756.16
492.14	20455.11
492.35	20936.38
492.55	21063.36
492.76	21157.57
492.97	21057.21
493.17	20963.01
493.38	21495.48
493.58	21515.96
493.79	21434.04
494.00	21745.33
494.20	21771.96
494.41	21943.99
494.61	21896.88
494.82	21993.14
495.02	22130.35
495.23	22187.69
495.44	22335.15
495.64	22187.69
495.85	22402.73
496.05	22642.34
496.26	22644.39
496.47	22703.78
496.67	22730.41
496.88	22623.91
497.08	22570.66
497.29	23264.92
497.49	22957.73
497.70	23322.27
497.91	23717.53
498.11	23580.31
498.32	23754.39
498.52	23373.47
498.73	23963.28
498.93	23869.08
499.14	23623.32
499.34	24073.87
499.55	24039.06
499.76	24172.18
499.96	24260.24
500.17	24225.42
500.37	24223.37
500.58	24372.88
500.78	24254.09
500.99	24428.17
501.19	24675.98
501.40	24669.83
501.60	24850.05
501.81	24739.46
502.02	24827.53
502.22	24735.37
502.43	24757.89
502.63	25089.67
502.84	24944.26
503.04	25140.86
503.25	25534.07
503.45	25181.82
503.66	25400.96
503.86	25276.03
504.07	25917.04
504.27	25194.11
504.48	25790.07
504.68	25441.92
504.89	26199.66
505.09	25839.22
505.30	25988.72
505.50	26144.37
505.71	26146.42
505.91	26056.31
506.12	26312.30
506.32	26230.38
506.53	26506.86
506.73	26388.08
506.94	26429.04
507.14	26433.13
507.35	26658.41
507.55	26762.86
507.76	26885.73
507.96	26709.61
508.17	26932.84
508.37	26754.66
508.58	26906.21
508.78	27119.20
508.99	27209.31
509.19	27133.54
509.40	27280.99
509.60	27250.27
509.81	27479.64
510.01	27551.32
510.22	27477.60
510.42	27354.72
510.63	27780.70
510.83	27729.50
511.04	27465.31
511.24	27792.98
511.44	27879.00
511.65	27907.67
511.85	27852.38
512.06	27981.40
512.26	27780.70
512.47	28304.98
512.67	28251.73
512.88	28069.46
513.08	27942.49
513.29	28280.40
513.49	28190.29
513.69	28397.13
513.90	28302.93
514.10	28444.24
514.31	28505.68
514.51	28450.38
514.72	28603.98
514.92	28335.70
515.13	28839.50
515.33	28681.80
515.53	28511.82
515.74	28937.80
515.94	28851.78
516.15	29042.24
516.35	28866.12
516.56	29378.11
516.76	29019.72
516.96	29281.86
517.17	29062.72
517.37	29105.73
517.58	29675.07
517.78	29314.62
517.99	29898.30
518.19	29617.72
518.39	29826.62
518.60	29879.86
518.80	30139.96
519.01	30156.34
519.21	29994.55
519.41	29965.88
519.62	30072.37
519.82	30582.32
520.03	30316.08
520.23	30621.23
520.43	30205.49
520.64	30826.03
520.84	30844.46
521.05	30588.46
521.25	30768.68
521.45	31106.60
521.66	30916.14
521.86	30848.55
522.07	30764.59
522.27	31215.14
522.47	30897.70
522.68	31161.89
522.88	31184.42
523.08	31702.56
523.29	31327.78
523.49	31393.31
523.70	31508.00
523.90	31880.73
524.10	31802.91
524.31	32079.38
524.51	31706.65
524.71	32538.13
524.92	32030.23
525.12	32114.20
525.33	32083.48
525.53	32337.43
525.73	32427.54
525.94	32497.17
526.14	32572.94
526.34	32615.95
526.55	32677.39
526.75	32947.72
526.95	32726.54
527.16	32816.65
527.36	32949.77
527.56	33439.23
527.77	33508.86
527.97	33334.79
528.17	33406.47
528.38	33697.28
528.58	33388.03
528.78	33830.40
528.99	33865.21
529.19	34035.19
529.39	33826.30
529.60	34258.42
529.80	33986.04
530.00	34008.57
530.21	34489.84
530.41	34674.16
530.61	34610.67
530.82	34479.60
531.02	34727.41
531.22	34629.10
531.43	35034.60
531.63	35206.63
531.83	35286.50
532.04	35198.44
532.24	35067.37
532.44	35694.05
532.64	35454.44
532.85	35925.47
533.05	35481.06
533.25	35587.55
533.46	35796.45
533.66	35798.49
533.86	35907.04
534.07	36373.97
534.27	35743.20
534.47	37004.75
534.67	36791.76
534.88	36830.67
535.08	36629.97
535.28	36740.56
535.49	36978.12
535.69	37262.79
535.89	37057.99
536.09	37144.01
536.30	37352.90
536.50	37057.99
536.70	37477.83
536.91	37342.66
537.11	37942.72
537.31	37592.51
537.51	37713.34
537.72	38012.35
537.92	37901.76
538.12	38233.53
538.32	37903.81
538.53	38235.58
538.73	38172.09
538.93	38301.11
539.13	38270.39
539.34	38643.12
539.54	38688.18
539.74	38843.82
539.94	38692.27
540.15	38536.63
540.35	39060.91
540.55	39165.35
540.75	39204.27
540.96	39036.33
541.16	38569.40
541.36	39015.85
541.56	39208.36
541.77	39773.60
541.97	39669.15
542.17	39927.20
542.37	39613.86
542.58	40125.85
542.78	39644.58
542.98	39771.55
543.18	39783.84
543.38	40396.18
543.59	40240.54
543.79	39923.10
543.99	40002.97
544.19	40203.67
544.40	40142.24
544.60	40564.12
544.80	40404.38
545.00	40553.88
545.20	40904.08
545.41	40891.79
545.61	40568.21
545.81	41373.06
546.01	40899.98
546.21	41096.59
546.42	40846.74
546.62	41203.08
546.82	41293.19
547.02	41198.99
547.22	41510.28
547.43	41442.70
547.63	41211.28
547.83	41526.66
548.03	41377.16
548.23	41678.21
548.44	41563.53
548.64	41407.88
548.84	41919.87
549.04	41743.75
549.24	42036.61
549.45	42042.75
549.65	41985.41
549.85	41964.93
550.05	41997.70
550.25	42081.66
550.45	42659.19
550.66	42349.95
550.86	42132.86
551.06	42554.74
551.26	42419.58
551.46	42706.29
551.66	42622.33
551.87	42292.60
552.07	42712.44
552.27	42825.07
552.47	42528.12
552.67	43195.76
552.87	43011.44
553.07	43255.15
553.28	43052.40
553.48	43640.17
553.68	43066.73
553.88	43498.86
554.08	43136.37
554.28	43246.96
554.48	43060.59
554.69	43625.83
554.89	43359.59
555.09	43541.86
555.29	43488.62
555.49	43926.88
555.69	43335.02
555.89	43781.48
556.10	43816.29
556.30	43390.31
556.50	43730.28
556.70	43824.48
556.90	44125.53
557.10	44084.58
557.30	43861.35
557.50	44242.27
557.70	43976.03
557.91	44469.59
558.11	44131.68
558.31	44289.37
558.51	44361.05
558.71	44744.02
558.91	44412.25
559.11	44453.21
559.31	44389.72
559.51	44332.38
559.72	44109.15
559.92	44629.34
560.12	44299.61
560.32	44701.01
560.52	44555.61
560.72	44801.36
560.92	44494.17
561.12	44729.69
561.32	45307.21
561.52	44377.43
561.72	45047.12
561.93	45092.18
562.13	44961.11
562.33	44821.84
562.53	45448.52
562.73	44516.70
562.93	45110.61
563.13	44914.00
563.33	45206.86
563.53	45602.12
563.73	45020.50
563.93	44881.24
564.13	45921.60
564.33	45315.40
564.53	45139.28
564.74	45706.57
564.94	45632.84
565.14	45694.28
565.34	45434.19
565.54	45663.56
565.74	45487.43
565.94	46241.09
566.14	45583.69
566.34	45862.21
566.54	46288.19
566.74	45806.92
566.94	46308.67
567.14	46144.83
567.34	45679.94
567.54	46089.54
567.74	46210.37
567.94	45966.66
568.14	46492.99
568.34	46404.92
568.54	46021.95
568.74	46404.92
568.94	46390.59
569.14	46126.40
569.34	46497.08
569.54	46632.25
569.75	46263.61
569.95	46499.13
570.15	47230.26
570.35	46574.91
570.55	46581.05
570.75	46382.40
570.95	46595.38
571.15	46828.85
571.35	47000.88
571.55	47037.75
571.75	46875.96
571.95	47260.97
572.15	47203.63
572.35	47215.92
572.55	47101.23
572.75	46914.87
572.95	47095.09
573.15	47478.06
573.35	47318.32
573.55	47066.42
573.75	47244.59
573.95	47498.54
574.15	47312.17
574.35	47887.65
574.55	47904.04
574.75	47215.92
574.95	47492.40
575.15	47781.16
575.34	48031.01
575.54	47695.14
575.74	48090.40
575.94	48336.16
576.14	48078.11
576.34	48182.56
576.54	47709.48
576.74	47813.93
576.94	48100.64
577.14	48131.36
577.34	48448.80
577.54	47975.72
577.74	48506.14
577.94	48221.47
578.14	48526.62
578.34	48577.82
578.54	48080.16
578.74	48342.30
578.94	48794.90
579.14	48266.53
579.34	48370.97
579.54	48571.67
579.74	49380.62
579.94	49147.15
580.13	49214.74
580.33	48981.27
580.53	48755.99
580.73	49411.34
580.93	49083.67
581.13	49382.67
581.33	49460.49
581.53	49476.88
581.73	48940.31
581.93	49804.55
582.13	49726.73
582.33	49827.08
582.53	49231.12
582.73	49595.66
582.92	49775.88
583.12	49911.05
583.32	49456.40
583.52	49233.17
583.72	50121.99
583.92	49435.92
584.12	50158.85
584.32	50222.34
584.52	49933.57
584.72	50148.61
584.92	49913.09
585.11	50703.61
585.31	50267.39
585.51	50263.30
585.71	50351.36
585.91	51205.36
586.11	50648.32
586.31	51172.60
586.51	50414.85
586.71	50681.08
586.91	51115.25
587.10	50885.88
587.30	51062.00
587.50	50629.88
587.70	50826.49
587.90	51199.22
588.10	50937.08
588.30	51205.36
588.50	51406.06
