SpectraSuite Data File
++++++++++++++++++++++++++++++++++++
Date: Fri Jun 02 14:41:57 CEST 2017
User: INFO_000
Dark Spectrum Present: No
Reference Spectrum Present: No
Number of Sampled Component Spectra: 1
Spectrometers: USB4H00879
Integration Time (usec): 80000 (USB4H00879)
Spectra Averaged: 1 (USB4H00879)
Boxcar Smoothing: 0 (USB4H00879)
Correct for Electrical Dark: No (USB4H00879)
Strobe/Lamp Enabled: No (USB4H00879)
Correct for Detector Non-linearity: No (USB4H00879)
Correct for Stray Light: No (USB4H00879)
Number of Pixels in Processed Spectrum: 3648
>>>>>Begin Processed Spectral Data<<<<<
345.13	1300.46
345.34	1300.46
345.56	1300.46
345.78	1335.28
345.99	1222.64
346.21	1724.39
346.42	1624.04
346.64	1597.42
346.86	1832.93
347.07	1636.33
347.29	1675.24
347.50	1634.28
347.72	1656.81
347.94	1665.00
348.15	1566.70
348.37	1525.74
348.59	1679.33
348.80	1619.94
349.02	1787.88
349.23	1808.36
349.45	1830.88
349.67	1820.64
349.88	1791.97
350.10	1974.24
350.31	1832.93
350.53	1779.68
350.75	1914.85
350.96	1853.41
351.18	1918.95
351.39	1867.75
351.61	1853.41
351.82	1951.71
352.04	1886.18
352.26	1847.27
352.47	1867.75
352.69	1884.13
352.90	1724.39
353.12	1861.60
353.34	1880.04
353.55	1939.43
353.77	1900.52
353.98	1855.46
354.20	1771.49
354.41	1927.14
354.63	1939.43
354.85	2093.02
355.06	2007.01
355.28	1812.45
355.49	1961.95
355.71	1863.65
355.92	1832.93
356.14	1927.14
356.35	1808.36
356.57	1822.69
356.79	1920.99
357.00	1904.61
357.22	1988.58
357.43	1785.83
357.65	1914.85
357.86	1880.04
358.08	1847.27
358.29	1978.34
358.51	1978.34
358.72	1929.19
358.94	1898.47
359.16	1937.38
359.37	1953.76
359.59	1941.47
359.80	2062.30
360.02	2009.06
360.23	1933.28
360.45	1978.34
360.66	1961.95
360.88	1873.89
361.09	1955.81
361.31	2029.54
361.52	2007.01
361.74	2129.89
361.95	2154.46
362.17	1943.52
362.38	2027.49
362.60	2043.87
362.81	1990.63
363.03	1912.80
363.24	1970.15
363.46	2093.02
363.67	2019.30
363.89	2041.82
364.10	2050.02
364.32	1957.86
364.53	2105.31
364.75	1869.80
364.96	2015.20
365.18	2045.92
365.39	1929.19
365.61	2031.58
365.82	2074.59
366.04	2031.58
366.25	1949.67
366.47	2101.22
366.68	2043.87
366.90	1994.72
367.11	2056.16
367.33	2164.70
367.54	2054.11
367.76	2025.44
367.97	2115.55
368.19	1992.67
368.40	2007.01
368.62	2027.49
368.83	1966.05
369.05	2072.54
369.26	1996.77
369.48	1961.95
369.69	2047.97
369.91	1998.82
370.12	2064.35
370.33	2113.50
370.55	2009.06
370.76	2052.06
370.98	2043.87
371.19	2101.22
371.41	2093.02
371.62	2062.30
371.84	1964.00
372.05	2115.55
372.27	2062.30
372.48	2103.26
372.69	2121.70
372.91	2076.64
373.12	2150.37
373.34	2113.50
373.55	2160.61
373.77	2242.53
373.98	2123.74
374.20	2187.23
374.41	2312.16
374.62	2230.24
374.84	2125.79
375.05	2187.23
375.27	2148.32
375.48	2181.09
375.70	2211.81
375.91	2248.67
376.12	2303.96
376.34	2117.60
376.55	2158.56
376.77	2191.33
376.98	2113.50
377.19	2191.33
377.41	2103.26
377.62	2201.57
377.84	2318.30
378.05	2363.36
378.27	2244.57
378.48	2299.87
378.69	2441.18
378.91	2316.25
379.12	2217.95
379.34	2318.30
379.55	2295.77
379.76	2289.63
379.98	2220.00
380.19	2328.54
380.41	2258.91
380.62	2303.96
380.83	2371.55
381.05	2207.71
381.26	2379.74
381.47	2176.99
381.69	2263.01
381.90	2408.41
382.12	2330.59
382.33	2265.05
382.54	2318.30
382.76	2367.45
382.97	2318.30
383.19	2287.58
383.40	2334.68
383.61	2287.58
383.83	2277.34
384.04	2248.67
384.25	2400.22
384.47	2453.47
384.68	2490.33
384.89	2412.51
385.11	2320.35
385.32	2363.36
385.54	2418.65
385.75	2420.70
385.96	2383.84
386.18	2545.63
386.39	2396.12
386.60	2490.33
386.82	2437.08
387.03	2484.19
387.24	2496.47
387.46	2537.43
387.67	2480.09
387.88	2516.95
388.10	2475.99
388.31	2486.23
388.52	2590.68
388.74	2541.53
388.95	2443.23
389.16	2615.26
389.38	2582.49
389.59	2682.84
389.80	2609.11
390.02	2639.83
390.23	2633.69
390.44	2514.91
390.66	2574.30
390.87	2613.21
391.08	2629.59
391.30	2705.37
391.51	2686.94
391.72	2674.65
391.94	2662.36
392.15	2574.30
392.36	2695.13
392.58	2643.93
392.79	2744.28
393.00	2664.41
393.22	2740.18
393.43	2734.04
393.64	2645.98
393.85	2877.40
394.07	2760.66
394.28	2785.24
394.49	2807.77
394.71	2830.29
394.92	2893.78
395.13	2822.10
395.35	2793.43
395.56	2775.00
395.77	2828.24
395.98	2918.36
396.20	2897.88
396.41	2736.09
396.62	2942.93
396.84	2879.44
397.05	2871.25
397.26	3014.61
397.47	3047.38
397.69	2842.58
397.90	2977.75
398.11	3024.85
398.32	2916.31
398.54	2959.31
398.75	3059.67
398.96	2967.51
399.18	3057.62
399.39	2912.21
399.60	3076.05
399.81	3020.75
400.03	2975.70
400.24	3330.00
400.45	2914.26
400.66	3157.97
400.88	3147.73
401.09	3180.50
401.30	3094.48
401.51	3170.26
401.73	3180.50
401.94	3166.16
402.15	3176.40
402.36	3123.15
402.58	3176.40
402.79	3227.60
403.00	3268.56
403.21	3311.57
403.43	3346.38
403.64	3395.53
403.85	3112.91
404.06	3399.63
404.27	3071.95
404.49	3301.33
404.70	3246.03
404.91	3440.59
405.12	3297.23
405.34	3327.95
405.55	3487.69
405.76	3250.13
405.97	3264.46
406.19	3428.30
406.40	3315.66
406.61	3422.16
406.82	3522.51
407.03	3403.72
407.25	3481.55
407.46	3551.18
407.67	3477.45
407.88	3598.28
408.09	3469.26
408.31	3489.74
408.52	3532.75
408.73	3518.41
408.94	3454.92
409.15	3581.90
409.37	3665.86
409.58	3645.38
409.79	3499.98
410.00	3571.66
410.21	3499.98
410.43	3540.94
410.64	3629.00
410.85	3612.62
411.06	3592.14
411.27	3690.44
411.48	3579.85
411.70	3596.23
411.91	3639.24
412.12	3835.85
412.33	3698.63
412.54	3727.30
412.76	3774.41
412.97	3755.97
413.18	3610.57
413.39	3784.65
413.60	3690.44
413.81	3885.00
414.03	3686.34
414.24	3751.88
414.45	3819.46
414.66	3665.86
414.87	3796.93
415.08	3794.89
415.30	3755.97
415.51	3903.43
415.72	3848.13
415.93	3993.54
416.14	3885.00
416.35	3928.00
416.56	3919.81
416.78	3919.81
416.99	3948.48
417.20	3930.05
417.41	3887.04
417.62	3850.18
417.83	4028.35
418.04	3971.01
418.26	4034.50
418.47	4038.59
418.68	4143.04
418.89	4079.55
419.10	4245.44
419.31	4165.57
419.52	4140.99
419.73	4167.62
419.95	4093.89
420.16	4034.50
420.37	4110.27
420.58	4167.62
420.79	4110.27
421.00	4118.47
421.21	4270.01
421.42	4136.90
421.63	4177.86
421.85	4165.57
422.06	4325.31
422.27	4267.97
422.48	4384.70
422.69	4458.43
422.90	4370.37
423.11	4261.82
423.32	4480.96
423.53	4556.73
423.75	4437.95
423.96	4646.84
424.17	4515.77
424.38	4605.88
424.59	4476.86
424.80	4614.07
425.01	4597.69
425.22	4560.83
425.43	4483.00
425.64	4685.75
425.85	4724.66
426.06	4767.67
426.28	4636.60
426.49	4689.85
426.70	4628.41
426.91	4814.77
427.12	4761.53
427.33	4812.73
427.54	4888.50
427.75	4913.08
427.96	5011.38
428.17	4855.73
428.38	4929.46
428.59	4962.23
428.80	4876.21
429.01	4966.32
429.23	4954.04
429.44	5126.07
429.65	5169.07
429.86	5101.49
430.07	4988.85
430.28	4894.65
430.49	5117.87
430.70	5130.16
430.91	5291.95
431.12	5124.02
431.33	5382.06
431.54	5253.04
431.75	5334.96
431.96	5257.14
432.17	5232.56
432.38	5265.33
432.59	5468.08
432.80	5363.63
433.01	5425.07
433.22	5562.28
433.43	5328.81
433.64	5427.12
433.85	5552.04
434.06	5578.67
434.27	5296.05
434.49	5400.49
434.70	5685.16
434.91	5580.71
435.12	5644.20
435.33	5623.72
435.54	5648.30
435.75	5461.93
435.96	5734.31
436.17	5509.04
436.38	5812.14
436.59	5810.09
436.80	5805.99
437.01	5965.73
437.22	5754.79
437.43	5885.86
437.64	5590.95
437.85	5975.97
438.06	5949.35
438.27	5705.64
438.48	5883.81
438.69	5982.12
438.90	6023.08
439.11	5687.21
439.32	6027.17
439.53	5910.44
439.74	6045.60
439.95	6148.00
440.16	6125.47
440.37	6082.47
440.57	6111.14
440.78	6188.96
440.99	6301.60
441.20	6152.10
441.41	6102.95
441.62	6201.25
441.83	5916.58
442.04	6399.90
442.25	6221.73
442.46	6274.98
442.67	6447.01
442.88	6797.21
443.09	6197.15
443.30	6363.04
443.51	6426.53
443.72	6703.00
443.93	6391.71
444.14	6696.86
444.35	6412.19
444.56	6461.34
444.77	6393.76
444.98	6743.96
445.19	6655.90
445.40	6623.13
445.61	6619.04
445.81	6782.87
446.02	6741.91
446.23	6602.65
446.44	6490.01
446.65	6655.90
446.86	6690.71
447.07	6864.79
447.28	6920.09
447.49	6942.61
447.70	6823.83
447.91	6907.80
448.12	6920.09
448.33	7090.07
448.54	7075.73
448.74	6852.50
448.95	7079.83
449.16	6907.80
449.37	7387.02
449.58	7028.63
449.79	7235.47
450.00	6981.53
450.21	7100.31
450.42	7339.92
450.63	7137.17
450.84	7323.54
451.05	7290.77
451.25	7192.47
451.46	7210.90
451.67	7626.64
451.88	7550.86
452.09	7491.47
452.30	7319.44
452.51	7327.63
452.72	7432.08
452.93	7856.01
453.13	7427.98
453.34	7610.25
453.55	7716.75
453.76	7597.96
453.97	7886.73
454.18	7720.84
454.39	7776.14
454.60	7628.68
454.81	7587.72
455.01	7905.16
455.22	7618.44
455.43	7888.78
455.64	8210.31
455.85	8169.35
456.06	8208.26
456.27	8185.73
456.48	8105.86
456.68	8112.00
456.89	8009.61
457.10	8204.16
457.31	8146.82
457.52	8314.75
457.73	8286.08
457.94	8580.99
458.14	8281.99
458.35	8642.43
458.56	8535.93
458.77	8261.51
458.98	8494.97
459.19	8693.63
459.39	8560.51
459.60	8839.03
459.81	8716.16
460.02	8716.16
460.23	8634.24
460.44	8916.86
460.65	9043.83
460.85	8978.30
461.06	9160.56
461.27	8857.46
461.48	9211.76
461.69	9242.48
461.89	8935.29
462.10	9324.40
462.31	9060.21
462.52	9090.93
462.73	9213.81
462.94	9391.98
463.14	9391.98
463.35	9363.31
463.56	9850.73
463.77	9768.81
463.98	9617.26
464.18	9592.69
464.39	9846.63
464.60	10266.47
464.81	10010.47
465.02	9850.73
465.23	10282.85
465.43	10084.20
465.64	10231.65
465.85	10063.72
466.06	9998.18
466.27	10499.94
466.47	10377.06
466.68	10254.18
466.89	10475.36
467.10	10461.02
467.30	10391.39
467.51	10567.52
467.72	10903.39
467.93	10549.09
468.14	10639.20
468.34	10956.63
468.55	10995.54
468.76	10923.87
468.97	10913.63
469.17	11108.18
469.38	11235.16
469.59	11355.99
469.80	11282.26
470.01	11210.58
470.21	11278.16
470.42	11489.10
470.63	11542.35
470.84	11417.43
471.04	11702.09
471.25	11726.67
471.46	11784.01
471.67	12080.97
471.87	11671.37
472.08	12066.63
472.29	12091.21
472.50	11951.95
472.70	12169.03
472.91	12103.50
473.12	12357.44
473.33	12521.28
473.53	12719.93
473.74	12502.85
473.95	12605.25
474.16	12922.68
474.36	12918.59
474.57	13061.94
474.78	13145.91
474.99	12998.46
475.19	12904.25
475.40	13453.11
475.61	13336.37
475.81	13684.53
476.02	13592.37
476.23	13428.53
476.44	13735.73
476.64	13954.86
476.85	14065.45
477.06	13975.34
477.27	14262.05
477.47	14253.86
477.68	14182.18
477.89	14544.67
478.09	14493.47
478.30	14606.11
478.51	14602.02
478.71	14513.95
478.92	14886.68
479.13	14946.08
479.34	15087.39
479.54	15025.95
479.75	15247.13
479.96	15222.55
480.16	15382.29
480.37	15431.44
480.58	15566.61
480.78	15914.77
480.99	15961.87
481.20	16099.08
481.41	15834.89
481.61	16285.45
481.82	16217.86
482.03	16142.09
482.23	16447.24
482.44	16584.45
482.65	16862.97
482.85	16617.22
483.06	16584.45
483.27	16815.87
483.47	16809.73
483.68	17092.35
483.89	17108.73
484.09	16994.04
484.30	17116.92
484.51	17534.71
484.71	17731.31
484.92	17344.25
485.13	17757.94
485.33	17678.07
485.54	17712.88
485.75	18110.19
485.95	18241.26
486.16	18044.65
486.37	18601.70
486.57	18083.56
486.78	18310.89
486.98	18454.25
487.19	18689.76
487.40	18833.12
487.60	18749.15
487.81	18749.15
488.02	18747.11
488.22	18974.43
488.43	19191.52
488.64	19064.54
488.84	19302.11
489.05	19648.21
489.25	19490.52
489.46	19861.20
489.67	19789.52
489.87	19766.99
490.08	20098.77
490.29	19693.27
490.49	20260.55
490.70	20567.75
490.90	20389.58
491.11	20434.63
491.32	20559.56
491.52	20461.26
491.73	20737.73
491.94	20448.97
492.14	20971.20
492.35	21026.50
492.55	20688.58
492.76	21053.12
492.97	21380.79
493.17	21073.60
493.38	21399.23
493.58	21565.11
493.79	21565.11
494.00	21724.85
494.20	21704.37
494.41	21886.64
494.61	22048.43
494.82	22245.04
495.02	21868.21
495.23	22122.16
495.44	22185.65
495.64	22494.89
495.85	22351.53
496.05	22859.43
496.26	22509.22
496.47	22699.69
496.67	22556.33
496.88	23076.51
497.08	22859.43
497.29	23172.77
497.49	22980.26
497.70	23113.38
497.91	23346.84
498.11	23391.90
498.32	23514.78
498.52	23742.10
498.73	24073.87
498.93	23545.50
499.14	23555.74
499.34	24118.93
499.55	23957.14
499.76	24000.15
499.96	23828.12
500.17	24026.77
500.37	23813.78
500.58	24059.54
500.78	24245.90
500.99	24651.40
501.19	24931.97
501.40	24641.16
501.60	24491.66
501.81	24340.11
502.02	24733.32
502.22	24727.17
502.43	25067.14
502.63	25216.64
502.84	24991.36
503.04	24929.92
503.25	25106.05
503.45	25388.67
503.66	25462.40
503.86	25394.81
504.07	25681.53
504.27	25667.19
504.48	25691.77
504.68	25714.30
504.89	26181.23
505.09	25962.10
505.30	25937.52
505.50	25783.93
505.71	26084.98
505.91	26232.43
506.12	26289.77
506.32	26046.07
506.53	26007.16
506.73	26234.48
506.94	26592.87
507.14	26568.30
507.35	26642.03
507.55	26764.90
507.76	26875.49
507.96	26889.83
508.17	26926.69
508.37	26756.71
508.58	26678.89
508.78	27086.43
508.99	27115.11
509.19	27197.02
509.40	26971.75
509.60	27186.79
509.81	27217.50
510.01	27358.81
510.22	27215.46
510.42	27233.89
510.63	27487.84
510.83	27666.01
511.04	27477.60
511.24	27942.49
511.44	27737.69
511.65	27792.98
511.85	27659.87
512.06	28044.88
512.26	28157.52
512.47	28132.95
512.67	28077.65
512.88	27967.06
513.08	27876.95
513.29	28491.34
513.49	27936.34
513.69	27987.54
513.90	28259.92
514.10	28329.55
514.31	28556.88
514.51	28880.46
514.72	28534.35
514.92	28802.63
515.13	28761.67
515.33	29183.55
515.53	29025.86
515.74	29075.01
515.94	28997.19
516.15	29263.43
516.35	28816.97
516.56	29353.54
516.76	28968.52
516.96	29312.58
517.17	29357.63
517.37	29066.82
517.58	29361.73
517.78	29824.57
517.99	29238.85
518.19	29775.42
518.39	29693.50
518.60	30088.76
518.80	29699.64
519.01	30256.69
519.21	30119.48
519.41	30287.41
519.62	29967.93
519.82	30060.09
520.03	30373.42
520.23	30553.65
520.43	30279.22
520.64	30717.48
520.84	30549.55
521.05	30533.17
521.25	30711.34
521.45	30760.49
521.66	31198.76
521.86	30862.89
522.07	30901.80
522.27	31006.25
522.47	30998.06
522.68	31434.27
522.88	31231.52
523.08	31657.50
523.29	31430.18
523.49	31677.98
523.70	31395.36
523.90	31811.10
524.10	31725.08
524.31	32024.09
524.51	31829.53
524.71	32325.14
524.92	32169.49
525.12	32003.61
525.33	32339.47
525.53	32378.39
525.73	32859.66
525.94	32906.76
526.14	32476.69
526.34	32675.34
526.55	32714.25
526.75	32996.87
526.95	33048.07
527.16	33070.60
527.36	32714.25
527.56	33345.03
527.77	33728.00
527.97	33412.61
528.17	33437.19
528.38	33656.32
528.58	33644.03
528.78	33613.31
528.99	33572.35
529.19	34211.32
529.39	33834.49
529.60	34272.76
529.80	34037.24
530.00	34184.69
530.21	34264.57
530.41	34801.13
530.61	34506.23
530.82	34848.24
531.02	34475.51
531.22	34751.98
531.43	35061.22
531.63	35186.15
531.83	35173.86
532.04	35503.59
532.24	35036.65
532.44	35855.84
532.64	35487.20
532.85	35347.94
533.05	35780.06
533.25	35788.25
533.46	35601.89
533.66	35991.00
533.86	35794.40
534.07	36371.92
534.27	36083.16
534.47	36656.59
534.67	36453.84
534.88	36427.22
535.08	36611.54
535.28	36556.24
535.49	37012.94
535.69	37389.77
535.89	36953.55
536.09	36933.07
536.30	37582.27
536.50	37311.94
536.70	37205.45
536.91	37705.15
537.11	37416.39
537.31	37520.84
537.51	37395.91
537.72	38434.23
537.92	38116.79
538.12	38157.75
538.32	38135.23
538.53	38032.83
538.73	38106.55
538.93	38380.98
539.13	38274.49
539.34	38317.50
539.54	38376.89
539.74	38782.38
539.94	38714.80
540.15	38778.29
540.35	38991.28
540.55	38909.36
540.75	38817.20
540.96	39241.13
541.16	38995.37
541.36	39490.98
541.56	39136.68
541.77	39959.97
541.97	39308.71
542.17	39583.14
542.37	39671.20
542.58	40158.62
542.78	40000.93
542.98	39869.86
543.18	40070.56
543.38	39939.49
543.59	40297.88
543.79	40232.35
543.99	40199.58
544.19	40205.72
544.40	40531.35
544.60	40861.07
544.80	40543.64
545.00	40502.68
545.20	40687.00
545.41	40383.90
545.61	40797.59
545.81	41364.87
546.01	41215.37
546.21	40908.18
546.42	40451.48
546.62	41391.50
546.82	41383.30
547.02	41508.23
547.22	41332.11
547.43	41184.65
547.63	41680.26
547.83	41340.30
548.03	41624.96
548.23	41782.66
548.44	41487.75
548.64	41561.48
548.84	41688.45
549.04	41454.98
549.24	41837.95
549.45	42306.94
549.65	41917.82
549.85	41983.36
550.05	41801.09
550.25	42147.20
550.45	42839.41
550.66	42444.15
550.86	42087.81
551.06	42751.35
551.26	42319.23
551.46	42659.19
551.66	42581.37
551.87	42583.41
552.07	42347.90
552.27	42630.52
552.47	43373.93
552.67	43146.61
552.87	42474.87
553.07	43017.58
553.28	42997.10
553.48	43154.80
553.68	42872.18
553.88	43418.99
554.08	43052.40
554.28	43693.41
554.48	43373.93
554.69	43597.16
554.89	43521.38
555.09	43378.03
555.29	43537.77
555.49	43779.43
555.69	43939.17
555.89	43519.34
556.10	43928.93
556.30	43314.54
556.50	44039.52
556.70	43631.97
556.90	43951.46
557.10	44256.60
557.30	43787.62
557.50	44346.72
557.70	44301.66
557.91	44647.77
558.11	44164.45
558.31	44432.73
558.51	43687.27
558.71	44039.52
558.91	44789.08
559.11	44326.24
559.31	44260.70
559.51	44537.18
559.72	44330.33
559.92	44819.80
560.12	44619.10
560.32	44840.28
560.52	44332.38
560.72	44617.05
560.92	44619.10
561.12	44821.84
561.32	44963.15
561.52	44520.79
561.72	44991.83
561.93	44834.13
562.13	45231.44
562.33	44778.84
562.53	45239.63
562.73	44942.67
562.93	45040.98
563.13	45200.72
563.33	44897.62
563.53	45421.90
563.73	45032.78
563.93	45487.43
564.13	46015.81
564.33	45864.26
564.53	45213.01
564.74	45868.36
564.94	45561.16
565.14	45608.26
565.34	45245.77
565.54	45786.44
565.74	45784.39
565.94	45636.94
566.14	45395.28
566.34	45393.23
566.54	45733.19
566.74	45618.50
566.94	45843.78
567.14	45710.66
567.34	45897.03
567.54	45872.45
567.74	45909.32
567.94	45751.62
568.14	46175.55
568.34	46392.64
568.54	46306.62
568.74	46415.16
568.94	46185.79
569.14	46290.24
569.34	46396.73
569.54	46849.33
569.75	46382.40
569.95	46480.70
570.15	46812.47
570.35	46363.96
570.55	46472.51
570.75	46449.98
570.95	46773.56
571.15	46769.46
571.35	46804.28
571.55	46716.22
571.75	46900.53
571.95	47355.18
572.15	47056.18
572.35	47097.14
572.55	47346.99
572.75	47127.86
572.95	46839.09
573.15	47543.59
573.35	47273.26
573.55	47402.28
573.75	47494.44
573.95	47822.12
574.15	47150.38
574.35	47740.20
574.55	47420.72
574.75	47330.61
574.95	47562.03
575.15	47539.50
575.34	47551.79
575.54	47473.96
575.74	47828.26
575.94	48413.98
576.14	47783.21
576.34	48477.47
576.54	48153.89
576.74	48045.35
576.94	48121.12
577.14	48256.29
577.34	48530.72
577.54	48135.46
577.74	48366.88
577.94	47957.28
578.14	48311.58
578.34	48483.61
578.54	47709.48
578.74	48338.21
578.94	48567.58
579.14	48477.47
579.34	48401.69
579.54	48766.23
579.74	49470.73
579.94	49098.00
580.13	48878.87
580.33	48952.60
580.53	48727.32
580.73	49005.84
580.93	48690.46
581.13	48964.88
581.33	49333.52
581.53	49345.81
581.73	49132.82
581.93	49605.90
582.13	49575.18
582.33	49405.20
582.53	49569.04
582.73	49706.25
582.92	49345.81
583.12	49769.74
583.32	49632.52
583.52	49079.57
583.72	50060.55
583.92	50144.51
584.12	50179.33
584.32	50554.11
584.52	50103.56
584.72	50488.57
584.92	50406.65
585.11	50556.16
585.31	50081.03
585.51	50251.01
585.71	50263.30
585.91	50449.66
586.11	50345.22
586.31	50425.09
586.51	50816.25
586.71	50687.23
586.91	51072.24
587.10	51299.57
587.30	50853.11
587.50	50337.02
587.70	51252.47
587.90	51029.24
588.10	51270.90
588.30	50996.47
588.50	51240.18
