SpectraSuite Data File
++++++++++++++++++++++++++++++++++++
Date: Fri Jun 02 14:41:58 CEST 2017
User: INFO_000
Dark Spectrum Present: No
Reference Spectrum Present: No
Number of Sampled Component Spectra: 1
Spectrometers: USB4H00879
Integration Time (usec): 80000 (USB4H00879)
Spectra Averaged: 1 (USB4H00879)
Boxcar Smoothing: 0 (USB4H00879)
Correct for Electrical Dark: No (USB4H00879)
Strobe/Lamp Enabled: No (USB4H00879)
Correct for Detector Non-linearity: No (USB4H00879)
Correct for Stray Light: No (USB4H00879)
Number of Pixels in Processed Spectrum: 3648
>>>>>Begin Processed Spectral Data<<<<<
345.13	1296.36
345.34	1296.36
345.56	1296.36
345.78	1314.80
345.99	1253.36
346.21	1712.10
346.42	1714.15
346.64	1689.57
346.86	1716.20
347.07	1685.48
347.29	1646.57
347.50	1576.94
347.72	1665.00
347.94	1785.83
348.15	1593.32
348.37	1591.27
348.59	1673.19
348.80	1640.42
349.02	1712.10
349.23	1945.57
349.45	1775.59
349.67	1920.99
349.88	1759.21
350.10	2025.44
350.31	1865.70
350.53	1802.21
350.75	1961.95
350.96	1841.12
351.18	1855.46
351.39	1927.14
351.61	1775.59
351.82	1916.90
352.04	1892.32
352.26	1824.74
352.47	1912.80
352.69	1896.42
352.90	1830.88
353.12	1890.28
353.34	1869.80
353.55	1912.80
353.77	1902.56
353.98	1853.41
354.20	1884.13
354.41	1951.71
354.63	1941.47
354.85	2050.02
355.06	1900.52
355.28	1824.74
355.49	1875.94
355.71	1884.13
355.92	1959.91
356.14	1998.82
356.35	1890.28
356.57	1884.13
356.79	1961.95
357.00	1851.36
357.22	2007.01
357.43	1857.51
357.65	1927.14
357.86	1853.41
358.08	1918.95
358.29	1957.86
358.51	1939.43
358.72	1961.95
358.94	1959.91
359.16	1953.76
359.37	1955.81
359.59	1961.95
359.80	2054.11
360.02	1949.67
360.23	2000.87
360.45	1996.77
360.66	1839.08
360.88	1898.47
361.09	1955.81
361.31	2023.39
361.52	1980.39
361.74	2074.59
361.95	2035.68
362.17	1945.57
362.38	2156.51
362.60	1937.38
362.81	1939.43
363.03	1955.81
363.24	1970.15
363.46	2115.55
363.67	2082.78
363.89	2037.73
364.10	2086.88
364.32	1949.67
364.53	2013.15
364.75	1916.90
364.96	2017.25
365.18	2033.63
365.39	2097.12
365.61	1992.67
365.82	2095.07
366.04	2060.26
366.25	1966.05
366.47	2009.06
366.68	2013.15
366.90	2009.06
367.11	2019.30
367.33	2172.89
367.54	2090.98
367.76	2007.01
367.97	2164.70
368.19	2066.40
368.40	2047.97
368.62	2007.01
368.83	2017.25
369.05	2101.22
369.26	2019.30
369.48	1949.67
369.69	1957.86
369.91	2033.63
370.12	2050.02
370.33	2127.84
370.55	2070.50
370.76	2119.65
370.98	2088.93
371.19	2101.22
371.41	2021.35
371.62	2129.89
371.84	2009.06
372.05	2205.66
372.27	2121.70
372.48	2023.39
372.69	2162.66
372.91	2191.33
373.12	2111.46
373.34	2142.18
373.55	2138.08
373.77	2197.47
373.98	2189.28
374.20	2152.42
374.41	2224.09
374.62	2166.75
374.84	2199.52
375.05	2166.75
375.27	2156.51
375.48	2103.26
375.70	2234.33
375.91	2197.47
376.12	2295.77
376.34	2201.57
376.55	2236.38
376.77	2172.89
376.98	2105.31
377.19	2271.20
377.41	2176.99
377.62	2224.09
377.84	2203.61
378.05	2332.64
378.27	2271.20
378.48	2330.59
378.69	2371.55
378.91	2287.58
379.12	2299.87
379.34	2160.61
379.55	2330.59
379.76	2279.39
379.98	2252.77
380.19	2322.40
380.41	2324.44
380.62	2340.83
380.83	2246.62
381.05	2248.67
381.26	2443.23
381.47	2301.92
381.69	2291.68
381.90	2314.20
382.12	2318.30
382.33	2328.54
382.54	2361.31
382.76	2275.29
382.97	2349.02
383.19	2263.01
383.40	2381.79
383.61	2293.72
383.83	2355.16
384.04	2351.07
384.25	2332.64
384.47	2396.12
384.68	2410.46
384.89	2359.26
385.11	2324.44
385.32	2346.97
385.54	2412.51
385.75	2357.21
385.96	2445.27
386.18	2439.13
386.39	2447.32
386.60	2299.87
386.82	2441.18
387.03	2389.98
387.24	2562.01
387.46	2453.47
387.67	2416.60
387.88	2514.91
388.10	2592.73
388.31	2473.95
388.52	2557.91
388.74	2527.19
388.95	2523.10
389.16	2592.73
389.38	2478.04
389.59	2611.16
389.80	2652.12
390.02	2613.21
390.23	2590.68
390.44	2658.26
390.66	2656.22
390.87	2512.86
391.08	2725.85
391.30	2815.96
391.51	2639.83
391.72	2723.80
391.94	2752.47
392.15	2605.02
392.36	2564.06
392.58	2678.74
392.79	2809.81
393.00	2828.24
393.22	2736.09
393.43	2842.58
393.64	2801.62
393.85	2863.06
394.07	2715.61
394.28	2680.79
394.49	2869.20
394.71	2744.28
394.92	2879.44
395.13	2787.29
395.35	2875.35
395.56	2852.82
395.77	2910.16
395.98	2846.68
396.20	2899.92
396.41	2861.01
396.62	2947.03
396.84	2809.81
397.05	2889.68
397.26	2904.02
397.47	2873.30
397.69	2797.53
397.90	3035.09
398.11	2955.22
398.32	2934.74
398.54	3000.27
398.75	2981.84
398.96	2975.70
399.18	3137.49
399.39	3092.43
399.60	3125.20
399.81	3037.14
400.03	2957.27
400.24	3233.74
400.45	2944.98
400.66	3157.97
400.88	3147.73
401.09	3182.54
401.30	3082.19
401.51	3284.94
401.73	3121.10
401.94	3106.77
402.15	3194.83
402.36	3131.34
402.58	3239.89
402.79	3207.12
403.00	3231.69
403.21	3252.17
403.43	3364.81
403.64	3405.77
403.85	3196.88
404.06	3358.67
404.27	3180.50
404.49	3190.74
404.70	3229.65
404.91	3411.92
405.12	3258.32
405.34	3274.70
405.55	3416.01
405.76	3284.94
405.97	3301.33
406.19	3557.32
406.40	3393.48
406.61	3385.29
406.82	3397.58
407.03	3313.61
407.25	3291.09
407.46	3461.07
407.67	3461.07
407.88	3573.71
408.09	3418.06
408.31	3327.95
408.52	3456.97
408.73	3467.21
408.94	3379.15
409.15	3495.88
409.37	3616.71
409.58	3540.94
409.79	3590.09
410.00	3649.48
410.21	3452.88
410.43	3581.90
410.64	3463.12
410.85	3571.66
411.06	3624.90
411.27	3657.67
411.48	3770.31
411.70	3596.23
411.91	3647.43
412.12	3866.56
412.33	3645.38
412.54	3618.76
412.76	3717.06
412.97	3796.93
413.18	3665.86
413.39	3798.98
413.60	3751.88
413.81	3710.92
414.03	3753.93
414.24	3624.90
414.45	3801.03
414.66	3686.34
414.87	3942.34
415.08	3899.33
415.30	3700.68
415.51	3782.60
415.72	3817.41
415.93	3885.00
416.14	3856.33
416.35	3880.90
416.56	3850.18
416.78	3977.16
416.99	4005.83
417.20	3919.81
417.41	4020.16
417.62	3989.44
417.83	3889.09
418.04	3997.64
418.26	3977.16
418.47	4079.55
418.68	4087.75
418.89	4087.75
419.10	4259.78
419.31	4108.23
419.52	4124.61
419.73	4173.76
419.95	4157.38
420.16	3854.28
420.37	4079.55
420.58	4093.89
420.79	4087.75
421.00	4128.70
421.21	4214.72
421.42	4257.73
421.63	4282.30
421.85	4278.21
422.06	4523.96
422.27	4310.97
422.48	4188.10
422.69	4431.80
422.90	4270.01
423.11	4327.36
423.32	4460.48
423.53	4526.01
423.75	4497.34
423.96	4499.39
424.17	4485.05
424.38	4618.17
424.59	4501.44
424.80	4765.62
425.01	4560.83
425.22	4622.27
425.43	4542.39
425.64	4700.09
425.85	4775.86
426.06	4755.38
426.28	4812.73
426.49	4579.26
426.70	4865.97
426.91	4818.87
427.12	4628.41
427.33	4734.90
427.54	4757.43
427.75	4843.45
427.96	4892.60
428.17	4798.39
428.38	4886.45
428.59	5048.24
428.80	4951.99
429.01	4927.41
429.23	4859.83
429.44	5287.86
429.65	5164.98
429.86	5236.66
430.07	5070.77
430.28	5044.15
430.49	5230.51
430.70	5220.27
430.91	5189.55
431.12	5160.88
431.33	5273.52
431.54	5287.86
431.75	5308.34
431.96	5154.74
432.17	5244.85
432.38	5316.53
432.59	5539.76
432.80	5384.11
433.01	5502.89
433.22	5504.94
433.43	5556.14
433.64	5472.17
433.85	5339.05
434.06	5558.19
434.27	5339.05
434.49	5695.40
434.70	5681.07
434.91	5687.21
435.12	5767.08
435.33	5556.14
435.54	5584.81
435.75	5466.03
435.96	5750.70
436.17	5539.76
436.38	5816.23
436.59	5881.77
436.80	5842.85
437.01	5949.35
437.22	6012.84
437.43	5814.18
437.64	5726.12
437.85	5930.92
438.06	6025.12
438.27	5785.51
438.48	5975.97
438.69	5973.92
438.90	5959.59
439.11	5949.35
439.32	6025.12
439.53	5951.40
439.74	6201.25
439.95	6119.33
440.16	6205.35
440.37	6215.59
440.57	6096.80
440.78	6086.56
440.99	6131.62
441.20	6297.50
441.41	6229.92
441.62	6154.15
441.83	6182.82
442.04	6356.90
442.25	6152.10
442.46	6145.95
442.67	6336.42
442.88	6801.30
443.09	6154.15
443.30	6352.80
443.51	6332.32
443.72	6770.58
443.93	6301.60
444.14	6780.82
444.35	6328.22
444.56	6657.95
444.77	6537.12
444.98	6631.32
445.19	6711.19
445.40	6551.45
445.61	6659.99
445.81	6766.49
446.02	6795.16
446.23	6487.96
446.44	6555.55
446.65	6778.78
446.86	6700.95
447.07	6778.78
447.28	6989.72
447.49	6864.79
447.70	6762.39
447.91	6838.17
448.12	6758.30
448.33	7034.77
448.54	6985.62
448.74	7006.10
448.95	6905.75
449.16	6754.20
449.37	7284.62
449.58	6934.42
449.79	7352.21
450.00	6924.18
450.21	7231.38
450.42	7417.74
450.63	7376.78
450.84	7169.94
451.05	7292.82
451.25	7131.03
451.46	7188.37
451.67	7475.09
451.88	7567.24
452.09	7417.74
452.30	7317.39
452.51	7401.36
452.72	7581.58
452.93	7741.32
453.13	7450.51
453.34	7497.61
453.55	7552.91
453.76	7559.05
453.97	7923.59
454.18	7702.41
454.39	7882.63
454.60	7835.53
454.81	7784.33
455.01	7921.54
455.22	7600.01
455.43	7905.16
455.64	8069.00
455.85	8251.27
456.06	8046.47
456.27	8324.99
456.48	8034.18
456.68	8224.64
456.89	8226.69
457.10	8343.42
457.31	8173.44
457.52	8165.25
457.73	8312.71
457.94	8554.37
458.14	8304.51
458.35	8855.42
458.56	8628.09
458.77	8408.96
458.98	8613.76
459.19	8671.10
459.39	8701.82
459.60	8871.80
459.81	8464.25
460.02	8959.86
460.23	8933.24
460.44	9058.17
460.65	9099.13
460.85	9105.27
461.06	9092.98
461.27	8834.94
461.48	9002.87
461.69	9375.60
461.89	8861.56
462.10	9295.73
462.31	9195.38
462.52	9086.84
462.73	9303.92
462.94	9498.48
463.14	9482.10
463.35	9256.82
463.56	9940.84
463.77	9748.33
463.98	9748.33
464.18	9637.74
464.39	9719.66
464.60	10168.16
464.81	9930.60
465.02	9809.77
465.23	10121.06
465.43	10112.87
465.64	10168.16
465.85	9946.98
466.06	10016.62
466.27	10469.22
466.47	10454.88
466.68	10260.32
466.89	10424.16
467.10	10651.49
467.30	10342.24
467.51	10762.08
467.72	10899.29
467.93	10585.95
468.14	10751.84
468.34	10895.19
468.55	11210.58
468.76	11112.28
468.97	10893.15
469.17	10893.15
469.38	11085.65
469.59	11198.29
469.80	11083.61
470.01	11208.53
470.21	11407.19
470.42	11747.15
470.63	11544.40
470.84	11347.79
471.04	11824.97
471.25	11929.42
471.46	11886.41
471.67	11884.36
471.87	12005.19
472.08	12107.59
472.29	12156.74
472.50	11935.56
472.70	12191.56
472.91	12164.93
473.12	12402.50
473.33	12564.29
473.53	12648.26
473.74	12488.51
473.95	12742.46
474.16	12967.74
474.36	12875.58
474.57	13135.67
474.78	13342.52
474.99	13020.99
475.19	13180.73
475.40	13428.53
475.61	13506.35
475.81	13623.09
476.02	13924.14
476.23	13514.55
476.44	13821.74
476.64	13987.63
476.85	14049.07
477.06	14098.22
477.27	14307.11
477.47	14282.53
477.68	14249.77
477.89	14503.71
478.09	14468.90
478.30	14751.52
478.51	14526.24
478.71	14798.62
478.92	14927.64
479.13	14974.75
479.34	15267.61
479.54	15130.39
479.75	15071.00
479.96	15273.75
480.16	15361.81
480.37	15501.08
480.58	15560.47
480.78	15701.78
480.99	15847.18
481.20	15855.37
481.41	16008.97
481.61	16168.71
481.82	16391.94
482.03	16189.19
482.23	16281.35
482.44	16692.99
482.65	16637.70
482.85	16787.20
483.06	16723.71
483.27	16893.69
483.47	17049.34
483.68	17131.26
483.89	17157.88
484.09	16983.80
484.30	17491.70
484.51	17479.41
484.71	17563.38
484.92	17387.25
485.13	17772.27
485.33	17772.27
485.54	17788.66
485.75	18077.42
485.95	18198.25
486.16	18290.41
486.37	18540.26
486.57	18196.20
486.78	18345.70
486.98	18403.05
487.19	18816.74
487.40	18730.72
487.60	18902.75
487.81	19158.75
488.02	18867.94
488.22	18960.09
488.43	19209.95
488.64	19291.87
488.84	19381.98
489.05	19631.83
489.25	19588.82
489.46	19850.96
489.67	19451.61
489.87	19797.71
490.08	19877.58
490.29	20084.43
490.49	20299.47
490.70	20436.68
490.90	20475.59
491.11	20266.70
491.32	20528.84
491.52	20627.14
491.73	20813.51
491.94	20979.39
492.14	20965.06
492.35	20829.89
492.55	21079.74
492.76	21102.27
492.97	21206.72
493.17	21348.03
493.38	21479.10
493.58	21589.69
493.79	21634.74
494.00	21814.96
494.20	21853.87
494.41	21931.70
494.61	21962.42
494.82	22089.39
495.02	22046.38
495.23	22124.21
495.44	22109.87
495.64	22458.03
495.85	22539.94
496.05	22636.20
496.26	22380.20
496.47	22744.74
496.67	22564.52
496.88	22994.59
497.08	22910.63
497.29	22970.02
497.49	22939.30
497.70	23047.84
497.91	23338.65
498.11	23766.68
498.32	23396.00
498.52	23826.07
498.73	23946.90
498.93	23692.95
499.14	24041.11
499.34	24127.12
499.55	24118.93
499.76	23770.77
499.96	24147.60
500.17	24417.93
500.37	24309.39
500.58	24577.67
500.78	24673.93
500.99	24497.80
501.19	24706.70
501.40	24618.63
501.60	24549.00
501.81	24598.15
502.02	25157.25
502.22	24360.59
502.43	24749.70
502.63	24981.12
502.84	25214.59
503.04	24925.83
503.25	25249.41
503.45	25587.32
503.66	25374.33
503.86	25464.44
504.07	25892.47
504.27	25362.04
504.48	26136.18
504.68	25693.82
504.89	26041.97
505.09	26054.26
505.30	25898.61
505.50	25921.14
505.71	26189.42
505.91	26242.67
506.12	26254.96
506.32	26168.94
506.53	26125.94
506.73	26476.14
506.94	26830.44
507.14	26662.51
507.35	26629.74
507.55	26961.51
507.76	26730.09
507.96	27125.35
508.17	26809.96
508.37	27113.06
508.58	26973.80
508.78	27088.48
508.99	27580.00
509.19	27133.54
509.40	27328.10
509.60	27285.09
509.81	27352.67
510.01	27504.22
510.22	27620.95
510.42	27733.59
510.63	27614.81
510.83	27659.87
511.04	27864.66
511.24	27887.19
511.44	27891.29
511.65	27973.21
511.85	27909.72
512.06	27743.83
512.26	28227.15
512.47	28307.02
512.67	28102.23
512.88	28452.43
513.08	28337.74
513.29	28548.68
513.49	28218.96
513.69	28464.72
513.90	28880.46
514.10	28499.53
514.31	28618.32
514.51	28788.30
514.72	28612.17
514.92	28628.56
515.13	28909.13
515.33	28829.26
515.53	28730.95
515.74	28997.19
515.94	29298.24
516.15	29197.89
516.35	29019.72
516.56	29208.13
516.76	29281.86
516.96	29259.33
517.17	29105.73
517.37	29630.01
517.58	29371.97
517.78	29597.24
517.99	29546.05
518.19	29498.94
518.39	29974.07
518.60	30146.10
518.80	30076.47
519.01	30002.74
519.21	30326.32
519.41	30432.82
519.62	30285.36
519.82	30158.39
520.03	30713.39
520.23	30279.22
520.43	30094.90
520.64	30783.02
520.84	30740.01
521.05	30498.35
521.25	30907.94
521.45	30934.57
521.66	31340.07
521.86	30647.85
522.07	31262.24
522.27	31317.54
522.47	31053.35
522.68	31331.87
522.88	31073.83
523.08	31686.17
523.29	31280.67
523.49	31553.05
523.70	31751.71
523.90	31899.16
524.10	31557.15
524.31	32124.44
524.51	31614.49
524.71	32218.64
524.92	32151.06
525.12	32316.95
525.33	32245.27
525.53	32685.58
525.73	32484.88
525.94	32566.80
526.14	32620.05
526.34	32529.94
526.55	32693.77
526.75	32816.65
526.95	33465.86
527.16	33146.37
527.36	32935.43
527.56	33146.37
527.77	33617.41
527.97	33519.10
528.17	33555.97
528.38	33760.76
528.58	33658.37
528.78	34127.35
528.99	33895.93
529.19	33900.03
529.39	33955.32
529.60	34090.49
529.80	34285.04
530.00	34002.43
530.21	34364.92
530.41	34969.07
530.61	34825.71
530.82	34758.13
531.02	34428.40
531.22	34866.67
531.43	34950.63
531.63	34788.85
531.83	35517.92
532.04	35571.17
532.24	35223.01
532.44	35696.10
532.64	35448.29
532.85	35780.06
533.05	35872.22
533.25	35849.69
533.46	35991.00
533.66	36290.01
533.86	36226.52
534.07	36654.54
534.27	36277.72
534.47	36484.56
534.67	36400.60
534.88	36539.86
535.08	36412.88
535.28	36967.88
535.49	36988.36
535.69	37135.82
535.89	37172.68
536.09	37053.90
536.30	37295.56
536.50	37625.28
536.70	37316.04
536.91	37529.03
537.11	37612.99
537.31	37916.09
537.51	37682.62
537.72	38163.90
537.92	38395.32
538.12	38200.76
538.32	38417.85
538.53	38348.21
538.73	38196.67
538.93	38374.84
539.13	38600.12
539.34	38411.70
539.54	38772.14
539.74	39030.19
539.94	38655.41
540.15	38469.04
540.35	39183.79
540.55	38436.28
540.75	39271.85
540.96	38929.84
541.16	39239.08
541.36	39116.20
541.56	39036.33
541.77	39607.72
541.97	39832.99
542.17	39882.14
542.37	39675.30
542.58	39794.08
542.78	39697.83
542.98	39660.96
543.18	40056.22
543.38	40498.58
543.59	40256.92
543.79	40072.60
543.99	40363.42
544.19	40648.08
544.40	40242.59
544.60	40496.53
544.80	40469.91
545.00	40625.56
545.20	41049.49
545.41	40506.77
545.61	40627.60
545.81	41172.36
546.01	41268.62
546.21	41194.89
546.42	41336.20
546.62	41110.92
546.82	41020.81
547.02	41397.64
547.22	41512.33
547.43	41094.54
547.63	41549.19
547.83	41481.61
548.03	41411.98
548.23	41942.40
548.44	41676.16
548.64	41590.15
548.84	41958.78
549.04	41579.91
549.24	42046.85
549.45	42124.67
549.65	42325.37
549.85	41989.50
550.05	42446.20
550.25	42048.89
550.45	42536.31
550.66	42159.48
550.86	42401.14
551.06	42675.57
551.26	42784.12
551.46	42603.89
551.66	42859.89
551.87	43169.13
552.07	42698.10
552.27	42806.64
552.47	43015.54
552.67	43119.98
552.87	43122.03
553.07	43087.21
553.28	42831.22
553.48	43167.09
553.68	43046.26
553.88	43353.45
554.08	43414.89
554.28	43152.75
554.48	43468.14
554.69	43169.13
554.89	43480.42
555.09	43677.03
555.29	43271.53
555.49	43826.53
555.69	43828.58
555.89	43572.58
556.10	44348.76
556.30	43449.70
556.50	43933.03
556.70	43664.74
556.90	43609.45
557.10	43906.40
557.30	44139.87
557.50	44154.21
557.70	44383.58
557.91	44584.28
558.11	44637.53
558.31	44746.07
558.51	44737.88
558.71	44318.04
558.91	44584.28
559.11	44297.56
559.31	44242.27
559.51	44031.33
559.72	44567.90
559.92	45057.36
560.12	44430.68
560.32	44674.39
560.52	45030.74
560.72	44715.35
560.92	44864.85
561.12	45096.27
561.32	44957.01
561.52	45172.05
561.72	44901.71
561.93	44692.82
562.13	44950.87
562.33	44950.87
562.53	45671.75
562.73	44625.24
562.93	45382.99
563.13	45763.91
563.33	44934.48
563.53	45657.42
563.73	45053.26
563.93	45780.29
564.13	45995.33
564.33	45239.63
564.53	45495.63
564.74	45997.38
564.94	45405.52
565.14	46120.26
565.34	45628.74
565.54	45690.18
565.74	45815.11
565.94	46257.47
566.14	45864.26
566.34	45725.00
566.54	46392.64
566.74	45835.59
566.94	46298.43
567.14	46454.08
567.34	45733.19
567.54	46224.70
567.74	45622.60
567.94	45942.08
568.14	46206.27
568.34	46427.45
568.54	46353.72
568.74	46296.38
568.94	46087.49
569.14	46560.57
569.34	46452.03
569.54	46847.29
569.75	46200.13
569.95	46447.93
570.15	46695.74
570.35	46748.98
570.55	46791.99
570.75	46677.30
570.95	46964.02
571.15	46968.12
571.35	46617.91
571.55	47117.62
571.75	47138.10
571.95	47260.97
572.15	46914.87
572.35	47805.73
572.55	46925.11
572.75	47215.92
572.95	47609.13
573.15	47664.42
573.35	47361.33
573.55	47031.60
573.75	47203.63
573.95	47142.19
574.15	47453.48
574.35	47691.05
574.55	47375.66
574.75	47605.03
574.95	47484.20
575.15	47568.17
575.34	47549.74
575.54	47842.60
575.74	48059.68
575.94	48323.87
576.14	48041.25
576.34	48315.68
576.54	48112.93
576.74	47961.38
576.94	47910.18
577.14	48383.26
577.34	48760.09
577.54	47824.17
577.74	48760.09
577.94	48356.64
578.14	48305.44
578.34	49030.42
578.54	47848.74
578.74	48489.76
578.94	48786.71
579.14	48381.21
579.34	48325.92
579.54	48799.00
579.74	49659.15
579.94	49212.69
580.13	49394.96
580.33	49153.30
580.53	49450.25
580.73	49165.59
580.93	49321.23
581.13	49265.94
581.33	49081.62
581.53	49310.99
581.73	49394.96
581.93	49259.79
582.13	49718.54
582.33	49675.53
582.53	49390.86
582.73	49630.47
582.92	49595.66
583.12	50107.65
583.32	49865.99
583.52	49677.58
583.72	49878.28
583.92	50224.39
584.12	49722.63
584.32	50269.44
584.52	50251.01
584.72	50308.35
584.92	49954.05
585.11	50844.92
585.31	50672.89
585.51	50517.25
585.71	50568.44
585.91	50822.39
586.11	50619.64
586.31	50588.92
586.51	50965.75
586.71	50648.32
586.91	51002.61
587.10	51053.81
587.30	51117.30
587.50	51025.14
587.70	51084.53
587.90	51195.12
588.10	50836.73
588.30	51158.26
588.50	51717.35
