SpectraSuite Data File
++++++++++++++++++++++++++++++++++++
Date: Fri Jun 02 14:41:54 CEST 2017
User: INFO_000
Dark Spectrum Present: No
Reference Spectrum Present: No
Number of Sampled Component Spectra: 1
Spectrometers: USB4H00879
Integration Time (usec): 80000 (USB4H00879)
Spectra Averaged: 1 (USB4H00879)
Boxcar Smoothing: 0 (USB4H00879)
Correct for Electrical Dark: No (USB4H00879)
Strobe/Lamp Enabled: No (USB4H00879)
Correct for Detector Non-linearity: No (USB4H00879)
Correct for Stray Light: No (USB4H00879)
Number of Pixels in Processed Spectrum: 3648
>>>>>Begin Processed Spectral Data<<<<<
345.13	1228.78
345.34	1228.78
345.56	1228.78
345.78	1265.64
345.99	1212.40
346.21	1691.62
346.42	1697.77
346.64	1716.20
346.86	1716.20
347.07	1619.94
347.29	1701.86
347.50	1642.47
347.72	1570.79
347.94	1728.49
348.15	1603.56
348.37	1568.74
348.59	1669.09
348.80	1662.95
349.02	1771.49
349.23	1849.32
349.45	1843.17
349.67	1966.05
349.88	1783.78
350.10	1992.67
350.31	1767.40
350.53	1798.12
350.75	2004.96
350.96	1800.16
351.18	1767.40
351.39	1861.60
351.61	1804.26
351.82	1902.56
352.04	1931.23
352.26	1798.12
352.47	1955.81
352.69	1880.04
352.90	1734.63
353.12	1843.17
353.34	1865.70
353.55	2009.06
353.77	1849.32
353.98	1841.12
354.20	1871.84
354.41	1904.61
354.63	1941.47
354.85	2017.25
355.06	1951.71
355.28	1855.46
355.49	1869.80
355.71	1867.75
355.92	1814.50
356.14	1890.28
356.35	1822.69
356.57	1810.40
356.79	1939.43
357.00	1798.12
357.22	2058.21
357.43	1816.55
357.65	1951.71
357.86	1845.22
358.08	1918.95
358.29	1933.28
358.51	1888.23
358.72	1994.72
358.94	1961.95
359.16	1931.23
359.37	1964.00
359.59	1982.43
359.80	1957.86
360.02	1996.77
360.23	1918.95
360.45	2035.68
360.66	1920.99
360.88	1904.61
361.09	1912.80
361.31	1998.82
361.52	1951.71
361.74	2103.26
361.95	2023.39
362.17	1970.15
362.38	2109.41
362.60	2060.26
362.81	1996.77
363.03	1943.52
363.24	2045.92
363.46	1970.15
363.67	1986.53
363.89	2019.30
364.10	2000.87
364.32	1927.14
364.53	2056.16
364.75	1941.47
364.96	2002.91
365.18	1939.43
365.39	2052.06
365.61	1943.52
365.82	2117.60
366.04	2011.11
366.25	1939.43
366.47	2058.21
366.68	2039.78
366.90	1970.15
367.11	2064.35
367.33	2095.07
367.54	2052.06
367.76	2074.59
367.97	2101.22
368.19	1978.34
368.40	2103.26
368.62	2007.01
368.83	2011.11
369.05	2097.12
369.26	1886.18
369.48	2125.79
369.69	2007.01
369.91	2107.36
370.12	2031.58
370.33	2154.46
370.55	1996.77
370.76	2035.68
370.98	2181.09
371.19	2084.83
371.41	1966.05
371.62	2107.36
371.84	2015.20
372.05	2164.70
372.27	2050.02
372.48	2082.78
372.69	2109.41
372.91	2084.83
373.12	2195.42
373.34	2115.55
373.55	2234.33
373.77	2174.94
373.98	2131.94
374.20	2174.94
374.41	2283.49
374.62	2146.27
374.84	2234.33
375.05	2162.66
375.27	2207.71
375.48	2205.66
375.70	2168.80
375.91	2275.29
376.12	2406.36
376.34	2172.89
376.55	2168.80
376.77	2260.96
376.98	2133.98
377.19	2154.46
377.41	2176.99
377.62	2232.29
377.84	2238.43
378.05	2394.08
378.27	2203.61
378.48	2355.16
378.69	2355.16
378.91	2277.34
379.12	2222.05
379.34	2258.91
379.55	2322.40
379.76	2293.72
379.98	2170.85
380.19	2283.49
380.41	2303.96
380.62	2248.67
380.83	2281.44
381.05	2224.09
381.26	2404.32
381.47	2312.16
381.69	2289.63
381.90	2441.18
382.12	2324.44
382.33	2357.21
382.54	2256.86
382.76	2365.40
382.97	2387.93
383.19	2334.68
383.40	2404.32
383.61	2306.01
383.83	2361.31
384.04	2359.26
384.25	2381.79
384.47	2398.17
384.68	2342.88
384.89	2355.16
385.11	2361.31
385.32	2293.72
385.54	2346.97
385.75	2338.78
385.96	2322.40
386.18	2441.18
386.39	2512.86
386.60	2381.79
386.82	2475.99
387.03	2447.32
387.24	2607.06
387.46	2475.99
387.67	2555.86
387.88	2570.20
388.10	2498.52
388.31	2500.57
388.52	2549.72
388.74	2580.44
388.95	2484.19
389.16	2490.33
389.38	2486.23
389.59	2613.21
389.80	2559.96
390.02	2566.10
390.23	2682.84
390.44	2617.30
390.66	2660.31
390.87	2402.27
391.08	2648.02
391.30	2705.37
391.51	2580.44
391.72	2654.17
391.94	2693.08
392.15	2639.83
392.36	2580.44
392.58	2580.44
392.79	2758.61
393.00	2748.37
393.22	2709.46
393.43	2824.15
393.64	2852.82
393.85	2822.10
394.07	2789.33
394.28	2854.87
394.49	2801.62
394.71	2787.29
394.92	2877.40
395.13	2762.71
395.35	2801.62
395.56	2693.08
395.77	2838.48
395.98	2799.57
396.20	2953.17
396.41	2924.50
396.62	2918.36
396.84	2867.16
397.05	2834.39
397.26	2891.73
397.47	3057.62
397.69	2959.31
397.90	3024.85
398.11	2883.54
398.32	2920.40
398.54	3051.47
398.75	2924.50
398.96	3000.27
399.18	3026.90
399.39	2916.31
399.60	2951.12
399.81	2955.22
400.03	2983.89
400.24	3268.56
400.45	3059.67
400.66	3035.09
400.88	3030.99
401.09	3252.17
401.30	3119.06
401.51	3282.89
401.73	3155.92
401.94	3160.02
402.15	3252.17
402.36	3162.06
402.58	3174.35
402.79	3246.03
403.00	3258.32
403.21	3313.61
403.43	3293.13
403.64	3299.28
403.85	3102.67
404.06	3330.00
404.27	3219.41
404.49	3299.28
404.70	3209.17
404.91	3426.25
405.12	3364.81
405.34	3370.96
405.55	3454.92
405.76	3168.21
405.97	3276.75
406.19	3360.72
406.40	3323.85
406.61	3506.12
406.82	3426.25
407.03	3368.91
407.25	3301.33
407.46	3508.17
407.67	3518.41
407.88	3526.60
408.09	3373.00
408.31	3475.40
408.52	3350.48
408.73	3346.38
408.94	3469.26
409.15	3434.44
409.37	3583.95
409.58	3477.45
409.79	3547.08
410.00	3598.28
410.21	3479.50
410.43	3565.51
410.64	3598.28
410.85	3573.71
411.06	3575.75
411.27	3604.42
411.48	3641.29
411.70	3600.33
411.91	3631.05
412.12	3780.55
412.33	3655.62
412.54	3612.62
412.76	3760.07
412.97	3762.12
413.18	3581.90
413.39	3747.78
413.60	3815.37
413.81	3798.98
414.03	3790.79
414.24	3710.92
414.45	3788.74
414.66	3590.09
414.87	3850.18
415.08	3815.37
415.30	3829.70
415.51	3856.33
415.72	3831.75
415.93	3887.04
416.14	3917.76
416.35	3817.41
416.56	3905.48
416.78	3942.34
416.99	4014.02
417.20	3956.68
417.41	3936.20
417.62	4040.64
417.83	4124.61
418.04	3979.20
418.26	3999.68
418.47	3917.76
418.68	4067.27
418.89	3944.39
419.10	4179.90
419.31	4067.27
419.52	4143.04
419.73	4038.59
419.95	4284.35
420.16	4073.41
420.37	4143.04
420.58	4179.90
420.79	3942.34
421.00	4061.12
421.21	4177.86
421.42	4179.90
421.63	4190.14
421.85	4319.17
422.06	4349.89
422.27	4325.31
422.48	4265.92
422.69	4433.85
422.90	4292.54
423.11	4450.24
423.32	4310.97
423.53	4507.58
423.75	4437.95
423.96	4509.63
424.17	4483.00
424.38	4685.75
424.59	4648.89
424.80	4638.65
425.01	4607.93
425.22	4523.96
425.43	4446.14
425.64	4786.10
425.85	4876.21
426.06	4747.19
426.28	4632.51
426.49	4614.07
426.70	4722.62
426.91	4650.94
427.12	4683.70
427.33	4857.78
427.54	4771.77
427.75	4808.63
427.96	4902.84
428.17	4911.03
428.38	4982.71
428.59	4984.76
428.80	4968.37
429.01	5001.14
429.23	4966.32
429.44	5238.70
429.65	5099.44
429.86	5148.59
430.07	5009.33
430.28	5046.20
430.49	5152.69
430.70	5238.70
430.91	5160.88
431.12	5173.17
431.33	5326.77
431.54	5263.28
431.75	5300.14
431.96	5250.99
432.17	5314.48
432.38	5115.83
432.59	5517.23
432.80	5361.58
433.01	5506.99
433.22	5486.51
433.43	5316.53
433.64	5396.40
433.85	5472.17
434.06	5531.56
434.27	5388.21
434.49	5445.55
434.70	5685.16
434.91	5636.01
435.12	5619.63
435.33	5453.74
435.54	5699.50
435.75	5457.84
435.96	5777.32
436.17	5556.14
436.38	5765.03
436.59	5748.65
436.80	5662.63
437.01	6037.41
437.22	5877.67
437.43	5801.90
437.64	5574.57
437.85	5894.05
438.06	6084.52
438.27	5984.16
438.48	5875.62
438.69	5943.21
438.90	5957.54
439.11	5896.10
439.32	6104.99
439.53	6061.99
439.74	6154.15
439.95	6104.99
440.16	5953.45
440.37	6113.19
440.57	6197.15
440.78	6018.98
440.99	6084.52
441.20	6127.52
441.41	5994.40
441.62	6174.63
441.83	5994.40
442.04	6180.77
442.25	6219.68
442.46	6272.93
442.67	6352.80
442.88	6801.30
443.09	6031.27
443.30	6365.09
443.51	6401.95
443.72	6512.54
443.93	6299.55
444.14	6496.16
444.35	6395.81
444.56	6541.21
444.77	6418.33
444.98	6547.36
445.19	6717.34
445.40	6655.90
445.61	6610.84
445.81	6737.82
446.02	6639.51
446.23	6608.80
446.44	6594.46
446.65	6655.90
446.86	6762.39
447.07	6754.20
447.28	6866.84
447.49	6922.13
447.70	6746.01
447.91	6936.47
448.12	6905.75
448.33	6885.27
448.54	6946.71
448.74	6752.15
448.95	7022.48
449.16	6899.61
449.37	7309.20
449.58	7057.30
449.79	7212.95
450.00	7034.77
450.21	7096.21
450.42	7147.41
450.63	7233.43
450.84	7376.78
451.05	7339.92
451.25	7243.67
451.46	7069.59
451.67	7464.85
451.88	7477.13
452.09	7364.50
452.30	7376.78
452.51	7569.29
452.72	7636.88
452.93	7714.70
453.13	7464.85
453.34	7579.53
453.55	7516.05
453.76	7565.20
453.97	7925.64
454.18	7688.07
454.39	7729.03
454.60	7647.12
454.81	7858.06
455.01	8146.82
455.22	7616.40
455.43	7872.39
455.64	7935.88
455.85	8208.26
456.06	8345.47
456.27	7962.50
456.48	8032.13
456.68	8052.61
456.89	8333.18
457.10	8140.68
457.31	8253.31
457.52	8277.89
457.73	8355.71
457.94	8533.89
458.14	8322.94
458.35	8660.86
458.56	8497.02
458.77	8474.49
458.98	8695.68
459.19	8658.81
459.39	8660.86
459.60	8740.73
459.81	8689.53
460.02	8712.06
460.23	8728.44
460.44	9135.99
460.65	8988.53
460.85	9095.03
461.06	8912.76
461.27	8767.35
461.48	9191.28
461.69	9566.06
461.89	8982.39
462.10	9138.04
462.31	9086.84
462.52	9400.18
462.73	9291.63
462.94	9613.17
463.14	9594.73
463.35	9514.86
463.56	9748.33
463.77	9715.56
463.98	9609.07
464.18	9670.51
464.39	9723.76
464.60	9940.84
464.81	10047.33
465.02	9936.74
465.23	10178.40
465.43	9975.66
465.64	10268.52
465.85	10051.43
466.06	10205.03
466.27	10438.50
466.47	10284.90
466.68	10532.70
466.89	10397.54
467.10	10575.71
467.30	10112.87
467.51	10559.33
467.72	10868.57
467.93	10628.96
468.14	10796.89
468.34	10930.01
468.55	10753.88
468.76	10989.40
468.97	10690.40
469.17	11061.08
469.38	11104.09
469.59	11372.37
469.80	11093.85
470.01	11149.14
470.21	11396.95
470.42	11480.91
470.63	11413.33
470.84	11341.65
471.04	11962.19
471.25	11824.97
471.46	11683.66
471.67	12091.21
471.87	11798.35
472.08	12068.68
472.29	12232.52
472.50	12066.63
472.70	12054.34
472.91	12097.35
473.12	12476.23
473.33	12515.14
473.53	12695.36
473.74	12508.99
473.95	12779.32
474.16	12607.30
474.36	12756.80
474.57	13147.96
474.78	13262.65
474.99	13137.72
475.19	13029.18
475.40	13514.55
475.61	13315.89
475.81	13641.52
476.02	13625.14
476.23	13547.31
476.44	13803.31
476.64	13938.48
476.85	14077.74
477.06	13864.75
477.27	14167.85
477.47	14427.94
477.68	13993.77
477.89	14544.67
478.09	14552.87
478.30	14509.86
478.51	14599.97
478.71	14728.99
478.92	14917.40
479.13	14982.94
479.34	15101.72
479.54	14997.28
479.75	14960.41
479.96	15370.01
480.16	15341.33
480.37	15421.20
480.58	15558.42
480.78	15843.09
480.99	15795.98
481.20	15716.11
481.41	15994.64
481.61	16324.36
481.82	16047.88
482.03	16142.09
482.23	16291.59
482.44	16572.16
482.65	16832.26
482.85	16711.42
483.06	16905.98
483.27	16871.17
483.47	16619.27
483.68	17069.82
483.89	17084.16
484.09	17344.25
484.30	17352.44
484.51	17653.49
484.71	17618.68
484.92	17798.90
485.13	17772.27
485.33	17714.93
485.54	17571.57
485.75	18110.19
485.95	18102.00
486.16	18192.11
486.37	18198.25
486.57	18214.63
486.78	18267.88
486.98	18519.78
487.19	18882.27
487.40	18841.31
487.60	18824.93
487.81	18966.24
488.02	18910.94
488.22	18654.95
488.43	19338.97
488.64	19189.47
488.84	19406.55
489.05	19547.86
489.25	19474.13
489.46	19865.30
489.67	19822.29
489.87	20037.33
490.08	20156.11
490.29	20176.59
490.49	20444.87
490.70	20344.52
490.90	20121.29
491.11	20379.34
491.32	20645.57
491.52	20672.20
491.73	20647.62
491.94	20739.78
492.14	20831.94
492.35	21051.07
492.55	20887.23
492.76	21163.71
492.97	21483.19
493.17	21374.65
493.38	21511.86
493.58	21755.57
493.79	21644.98
494.00	21532.34
494.20	21708.47
494.41	21917.36
494.61	22159.02
494.82	21962.42
495.02	22292.14
495.23	21956.27
495.44	22339.24
495.64	22337.20
495.85	22335.15
496.05	22470.31
496.26	22386.35
496.47	22912.67
496.67	22433.45
496.88	23021.22
497.08	22711.97
497.29	22816.42
497.49	22894.24
497.70	23260.83
497.91	23299.74
498.11	23449.24
498.32	23525.02
498.52	23463.58
498.73	23873.17
498.93	23639.70
499.14	24020.63
499.34	23973.52
499.55	23930.51
499.76	23606.94
499.96	24024.72
500.17	24168.08
500.37	24358.54
500.58	24258.19
500.78	24385.16
500.99	24448.65
501.19	24520.33
501.40	24848.00
501.60	24549.00
501.81	24764.04
502.02	24721.03
502.22	24817.29
502.43	24884.87
502.63	25108.10
502.84	25140.86
503.04	25030.27
503.25	25040.51
503.45	25398.91
503.66	25775.73
503.86	25388.67
504.07	25650.81
504.27	25857.65
504.48	25667.19
504.68	25605.75
504.89	26170.99
505.09	25867.89
505.30	26109.55
505.50	25947.76
505.71	26226.29
505.91	26275.44
506.12	26001.01
506.32	26138.23
506.53	26216.05
506.73	26332.78
506.94	26297.97
507.14	26455.66
507.35	26494.57
507.55	26625.64
507.76	26756.71
507.96	26809.96
508.17	26670.70
508.37	26879.59
508.58	26908.26
508.78	27039.33
508.99	27344.48
509.19	27176.55
509.40	27344.48
509.60	27305.57
509.81	27516.51
510.01	27254.37
510.22	27635.29
510.42	27049.57
510.63	27543.13
510.83	27620.95
511.04	27450.97
511.24	27522.65
511.44	27635.29
511.65	27772.50
511.85	27649.63
512.06	27874.90
512.26	28001.88
512.47	28026.45
512.67	28026.45
512.88	28268.11
513.08	28218.96
513.29	28397.13
513.49	28483.15
513.69	28227.15
513.90	28290.64
514.10	28558.92
514.31	28497.49
514.51	28798.54
514.72	28495.44
514.92	28687.95
515.13	28819.02
515.33	28837.45
515.53	28749.39
515.74	28935.75
515.94	29191.75
516.15	29083.20
516.35	28628.56
516.56	29445.69
516.76	28831.30
516.96	28751.43
517.17	29589.05
517.37	29537.85
517.58	29462.08
517.78	29652.54
517.99	29523.52
518.19	29625.92
518.39	29587.00
518.60	30004.79
518.80	29761.08
519.01	30113.33
519.21	29775.42
519.41	29834.81
519.62	29996.60
519.82	30260.79
520.03	30330.42
520.23	30258.74
520.43	30176.82
520.64	30373.42
520.84	30512.69
521.05	30457.39
521.25	31008.29
521.45	30836.27
521.66	31209.00
521.86	30885.42
522.07	31088.17
522.27	30762.54
522.47	31407.65
522.68	31536.67
522.88	31413.79
523.08	31604.25
523.29	31532.57
523.49	31688.22
523.70	31634.97
523.90	31708.70
524.10	31481.38
524.31	32011.80
524.51	31364.64
524.71	32120.34
524.92	31999.51
525.12	32429.59
525.33	32353.81
525.53	32257.56
525.73	32661.01
525.94	32247.32
526.14	32349.71
526.34	32859.66
526.55	32849.42
526.75	33035.78
526.95	33064.46
527.16	32722.44
527.36	33037.83
527.56	33048.07
527.77	33684.99
527.97	33496.58
528.17	33400.32
528.38	33607.17
528.58	33377.79
528.78	33558.02
528.99	33938.94
529.19	34018.81
529.39	33699.33
529.60	34332.15
529.80	33951.23
530.00	34186.74
530.21	34297.33
530.41	34369.01
530.61	34254.33
530.82	34803.18
531.02	34735.60
531.22	34696.69
531.43	34833.90
531.63	34962.92
531.83	35202.53
532.04	35448.29
532.24	35010.03
532.44	35626.46
532.64	35689.95
532.85	35874.27
533.05	35661.28
533.25	35861.98
533.46	35380.71
533.66	36187.61
533.86	35968.48
534.07	36453.84
534.27	36240.86
534.47	36363.73
534.67	36507.09
534.88	36163.03
535.08	36230.62
535.28	37121.48
535.49	36896.20
535.69	37367.24
535.89	37000.65
536.09	37144.01
536.30	37082.57
536.50	37254.60
536.70	37377.48
536.91	37211.59
537.11	37703.10
537.31	37737.92
537.51	37926.33
537.72	37862.85
537.92	37733.82
538.12	38286.78
538.32	37868.99
538.53	38155.71
538.73	38092.22
538.93	38041.02
539.13	38258.10
539.34	38452.66
539.54	38149.56
539.74	38624.69
539.94	38487.48
540.15	38559.16
540.35	39349.67
540.55	38962.61
540.75	38774.19
540.96	39179.69
541.16	39394.73
541.36	39253.42
541.56	39224.75
541.77	39400.87
541.97	39321.00
542.17	39906.72
542.37	39288.23
542.58	39425.45
542.78	39900.58
542.98	40019.36
543.18	40000.93
543.38	40154.52
543.59	40138.14
543.79	39982.49
543.99	40005.02
544.19	40410.52
544.40	40506.77
544.60	40709.52
544.80	40478.10
545.00	40523.16
545.20	40816.02
545.41	40529.30
545.61	40545.69
545.81	40861.07
546.01	41012.62
546.21	40953.23
546.42	41026.96
546.62	40842.64
546.82	40809.87
547.02	40748.43
547.22	41481.61
547.43	41262.47
547.63	41504.13
547.83	41555.33
548.03	41551.24
548.23	42077.57
548.44	41827.71
548.64	41489.80
548.84	41911.68
549.04	41833.86
549.24	42012.03
549.45	42282.36
549.65	41893.25
549.85	41772.42
550.05	42280.31
550.25	42048.89
550.45	42560.89
550.66	42308.99
550.86	42198.40
551.06	42591.61
551.26	42653.05
551.46	42474.87
551.66	43091.31
551.87	42593.65
552.07	42923.38
552.27	42610.04
552.47	43152.75
552.67	43265.39
552.87	42943.86
553.07	42968.43
553.28	43187.56
553.48	43226.48
553.68	42665.33
553.88	43556.20
554.08	43189.61
554.28	42980.72
554.48	43332.97
554.69	43517.29
554.89	42767.73
555.09	43578.73
555.29	43482.47
555.49	43378.03
555.69	43461.99
555.89	43468.14
556.10	43822.44
556.30	43681.13
556.50	44107.10
556.70	43474.28
556.90	44021.09
557.10	43980.13
557.30	43689.32
557.50	44213.60
557.70	43963.75
557.91	44371.29
558.11	44262.75
558.31	44395.87
558.51	44346.72
558.71	44203.36
558.91	44201.31
559.11	44455.26
559.31	44383.58
559.51	44574.04
559.72	44451.16
559.92	44864.85
560.12	44547.42
560.32	44741.97
560.52	44502.36
560.72	44617.05
560.92	44971.35
561.12	44627.29
561.32	44676.44
561.52	44715.35
561.72	45145.42
561.93	44692.82
562.13	44920.15
562.33	44733.78
562.53	45727.05
562.73	45020.50
562.93	44766.55
563.13	44932.43
563.33	45077.84
563.53	45434.19
563.73	45067.60
563.93	45425.99
564.13	45659.46
564.33	45575.50
564.53	45368.65
564.74	45610.31
564.94	45176.14
565.14	45466.95
565.34	45583.69
565.54	45499.72
565.74	45528.39
565.94	45835.59
566.14	45833.54
566.34	45866.31
566.54	45972.80
566.74	45860.16
566.94	46097.73
567.14	46077.25
567.34	45886.79
567.54	46003.52
567.74	45942.08
567.94	45829.44
568.14	45477.19
568.34	46597.43
568.54	45763.91
568.74	46251.33
568.94	46054.72
569.14	46648.63
569.34	46230.85
569.54	46847.29
569.75	46081.34
569.95	46191.94
570.15	46982.45
570.35	47148.34
570.55	46343.48
570.75	46628.15
570.95	46820.66
571.15	46605.62
571.35	47004.98
571.55	46990.64
571.75	47019.31
571.95	46945.59
572.15	46748.98
572.35	47002.93
572.55	47187.25
572.75	47256.88
572.95	47148.34
573.15	47404.33
573.35	47375.66
573.55	47174.96
573.75	46935.35
573.95	47187.25
574.15	46921.01
574.35	47836.45
574.55	47373.61
574.75	47271.21
574.95	47430.96
575.15	47449.39
575.34	47891.75
575.54	47897.89
575.74	47789.35
575.94	47738.15
576.14	47588.65
576.34	48250.14
576.54	48135.46
576.74	47772.97
576.94	48100.64
577.14	48164.13
577.34	48237.86
577.54	48198.94
577.74	48557.34
577.94	48684.31
578.14	48680.22
578.34	48571.67
578.54	48194.85
578.74	48303.39
578.94	48491.80
579.14	48280.86
579.34	48764.18
579.54	48801.05
579.74	49165.59
579.94	49014.04
580.13	49093.91
580.33	48915.73
580.53	48567.58
580.73	49141.01
580.93	49278.22
581.13	48981.27
581.33	49859.85
581.53	49610.00
581.73	49444.11
581.93	49878.28
582.13	49356.05
582.33	49548.56
582.53	49566.99
582.73	49718.54
582.92	49505.55
583.12	49657.10
583.32	49521.93
583.52	49460.49
583.72	50017.54
583.92	49575.18
584.12	49775.88
584.32	50435.33
584.52	50265.34
584.72	50074.88
584.92	50132.23
585.11	50801.91
585.31	50533.63
585.51	50773.24
585.71	50320.64
585.91	50869.50
586.11	50500.86
586.31	50560.25
586.51	50328.83
586.71	50607.36
586.91	50984.18
587.10	50922.74
587.30	50713.85
587.50	50384.13
587.70	51176.69
587.90	50722.04
588.10	50978.04
588.30	50693.37
588.50	50963.70
