SpectraSuite Data File
++++++++++++++++++++++++++++++++++++
Date: Fri Jun 02 14:41:53 CEST 2017
User: INFO_000
Dark Spectrum Present: No
Reference Spectrum Present: No
Number of Sampled Component Spectra: 1
Spectrometers: USB4H00879
Integration Time (usec): 80000 (USB4H00879)
Spectra Averaged: 1 (USB4H00879)
Boxcar Smoothing: 0 (USB4H00879)
Correct for Electrical Dark: No (USB4H00879)
Strobe/Lamp Enabled: No (USB4H00879)
Correct for Detector Non-linearity: No (USB4H00879)
Correct for Stray Light: No (USB4H00879)
Number of Pixels in Processed Spectrum: 3648
>>>>>Begin Processed Spectral Data<<<<<
345.13	1277.93
345.34	1277.93
345.56	1277.93
345.78	1193.97
345.99	1294.32
346.21	1621.99
346.42	1675.24
346.64	1630.18
346.86	1849.32
347.07	1646.57
347.29	1728.49
347.50	1552.36
347.72	1712.10
347.94	1728.49
348.15	1601.51
348.37	1660.90
348.59	1667.05
348.80	1630.18
349.02	1787.88
349.23	1789.92
349.45	1900.52
349.67	1814.50
349.88	1767.40
350.10	1925.09
350.31	1802.21
350.53	1869.80
350.75	1941.47
350.96	1763.30
351.18	1785.83
351.39	1777.64
351.61	1818.60
351.82	1822.69
352.04	1925.09
352.26	1843.17
352.47	1791.97
352.69	1968.10
352.90	1822.69
353.12	1818.60
353.34	1781.73
353.55	1910.75
353.77	1865.70
353.98	1824.74
354.20	1810.40
354.41	1927.14
354.63	1920.99
354.85	2099.17
355.06	2009.06
355.28	1837.03
355.49	1865.70
355.71	1923.04
355.92	1896.42
356.14	1888.23
356.35	1843.17
356.57	1818.60
356.79	1877.99
357.00	1841.12
357.22	1908.71
357.43	1863.65
357.65	1968.10
357.86	1865.70
358.08	1953.76
358.29	1929.19
358.51	1982.43
358.72	1953.76
358.94	1955.81
359.16	1882.08
359.37	1898.47
359.59	1961.95
359.80	1933.28
360.02	1929.19
360.23	1970.15
360.45	2000.87
360.66	1957.86
360.88	1837.03
361.09	1951.71
361.31	2023.39
361.52	1910.75
361.74	2076.64
361.95	2037.73
362.17	1949.67
362.38	2017.25
362.60	2017.25
362.81	2011.11
363.03	1974.24
363.24	1992.67
363.46	2043.87
363.67	1964.00
363.89	2007.01
364.10	1994.72
364.32	1953.76
364.53	2056.16
364.75	1920.99
364.96	2009.06
365.18	2082.78
365.39	2021.35
365.61	1937.38
365.82	2107.36
366.04	1992.67
366.25	2021.35
366.47	2111.46
366.68	1994.72
366.90	1984.48
367.11	2045.92
367.33	2004.96
367.54	2074.59
367.76	2043.87
367.97	2185.18
368.19	1943.52
368.40	2164.70
368.62	2043.87
368.83	2002.91
369.05	2125.79
369.26	2004.96
369.48	2072.54
369.69	2023.39
369.91	2070.50
370.12	2058.21
370.33	2133.98
370.55	1988.58
370.76	2033.63
370.98	2099.17
371.19	2037.73
371.41	2007.01
371.62	2039.78
371.84	2019.30
372.05	2088.93
372.27	2066.40
372.48	2101.22
372.69	2002.91
372.91	2172.89
373.12	2176.99
373.34	2131.94
373.55	2113.50
373.77	2152.42
373.98	2236.38
374.20	2166.75
374.41	2265.05
374.62	2093.02
374.84	2146.27
375.05	2205.66
375.27	2183.13
375.48	2203.61
375.70	2195.42
375.91	2174.94
376.12	2295.77
376.34	2207.71
376.55	2260.96
376.77	2273.25
376.98	2133.98
377.19	2123.74
377.41	2189.28
377.62	2189.28
377.84	2344.92
378.05	2338.78
378.27	2224.09
378.48	2277.34
378.69	2396.12
378.91	2338.78
379.12	2314.20
379.34	2209.76
379.55	2283.49
379.76	2230.24
379.98	2369.50
380.19	2232.29
380.41	2318.30
380.62	2371.55
380.83	2242.53
381.05	2240.48
381.26	2420.70
381.47	2203.61
381.69	2373.60
381.90	2389.98
382.12	2351.07
382.33	2340.83
382.54	2277.34
382.76	2385.88
382.97	2310.11
383.19	2342.88
383.40	2363.36
383.61	2289.63
383.83	2271.20
384.04	2359.26
384.25	2369.50
384.47	2430.94
384.68	2471.90
384.89	2353.12
385.11	2426.84
385.32	2457.56
385.54	2377.69
385.75	2326.49
385.96	2471.90
386.18	2465.75
386.39	2459.61
386.60	2435.03
386.82	2441.18
387.03	2426.84
387.24	2531.29
387.46	2377.69
387.67	2490.33
387.88	2625.50
388.10	2461.66
388.31	2475.99
388.52	2537.43
388.74	2602.97
388.95	2535.39
389.16	2584.54
389.38	2494.43
389.59	2699.22
389.80	2744.28
390.02	2574.30
390.23	2566.10
390.44	2519.00
390.66	2617.30
390.87	2516.95
391.08	2674.65
391.30	2682.84
391.51	2660.31
391.72	2752.47
391.94	2734.04
392.15	2613.21
392.36	2641.88
392.58	2658.26
392.79	2662.36
393.00	2764.76
393.22	2770.90
393.43	2764.76
393.64	2752.47
393.85	2758.61
394.07	2740.18
394.28	2731.99
394.49	2807.77
394.71	2738.13
394.92	2881.49
395.13	2789.33
395.35	2795.48
395.56	2795.48
395.77	2869.20
395.98	2811.86
396.20	2983.89
396.41	2973.65
396.62	2877.40
396.84	2916.31
397.05	2930.64
397.26	2920.40
397.47	3004.37
397.69	2779.09
397.90	3119.06
398.11	2891.73
398.32	2965.46
398.54	2930.64
398.75	2877.40
398.96	2928.60
399.18	3051.47
399.39	3030.99
399.60	3047.38
399.81	3090.38
400.03	2992.08
400.24	3284.94
400.45	3045.33
400.66	3125.20
400.88	3098.58
401.09	3385.29
401.30	3147.73
401.51	3157.97
401.73	3164.11
401.94	3143.63
402.15	3233.74
402.36	3248.08
402.58	3248.08
402.79	3209.17
403.00	3190.74
403.21	3325.90
403.43	3149.78
403.64	3360.72
403.85	3172.30
404.06	3319.76
404.27	3207.12
404.49	3196.88
404.70	3227.60
404.91	3299.28
405.12	3246.03
405.34	3352.52
405.55	3450.83
405.76	3170.26
405.97	3258.32
406.19	3463.12
406.40	3330.00
406.61	3368.91
406.82	3373.00
407.03	3481.55
407.25	3420.11
407.46	3471.31
407.67	3465.16
407.88	3528.65
408.09	3409.87
408.31	3297.23
408.52	3362.76
408.73	3366.86
408.94	3393.48
409.15	3614.66
409.37	3532.75
409.58	3583.95
409.79	3545.03
410.00	3600.33
410.21	3481.55
410.43	3487.69
410.64	3493.83
410.85	3561.42
411.06	3651.53
411.27	3606.47
411.48	3682.25
411.70	3616.71
411.91	3579.85
412.12	3743.69
412.33	3526.60
412.54	3657.67
412.76	3788.74
412.97	3721.16
413.18	3649.48
413.39	3745.73
413.60	3725.26
413.81	3696.58
414.03	3676.10
414.24	3682.25
414.45	3719.11
414.66	3629.00
414.87	3827.65
415.08	3717.06
415.30	3864.52
415.51	3966.92
415.72	3874.76
415.93	3846.09
416.14	3872.71
416.35	3934.15
416.56	3925.96
416.78	3987.40
416.99	3876.80
417.20	3964.87
417.41	3923.91
417.62	4024.26
417.83	4028.35
418.04	3938.24
418.26	3903.43
418.47	4036.55
418.68	3983.30
418.89	4108.23
419.10	4224.96
419.31	4007.87
419.52	4177.86
419.73	4151.23
419.95	4173.76
420.16	4192.19
420.37	4157.38
420.58	4163.52
420.79	4057.03
421.00	4186.05
421.21	4300.73
421.42	4194.24
421.63	4235.20
421.85	4147.14
422.06	4294.59
422.27	4366.27
422.48	4347.84
422.69	4409.28
422.90	4302.78
423.11	4274.11
423.32	4442.04
423.53	4597.69
423.75	4483.00
423.96	4534.20
424.17	4536.25
424.38	4618.17
424.59	4546.49
424.80	4683.70
425.01	4628.41
425.22	4483.00
425.43	4663.22
425.64	4763.58
425.85	4833.21
426.06	4575.16
426.28	4663.22
426.49	4652.98
426.70	4659.13
426.91	4730.81
427.12	4818.87
427.33	4677.56
427.54	4689.85
427.75	4863.93
427.96	4943.80
428.17	4841.40
428.38	4812.73
428.59	5107.63
428.80	4951.99
429.01	4937.65
429.23	5128.11
429.44	5248.94
429.65	5136.31
429.86	5025.72
430.07	4835.25
430.28	5056.43
430.49	5048.24
430.70	5330.86
430.91	5201.84
431.12	5138.35
431.33	5369.77
431.54	5310.38
431.75	5193.65
431.96	5230.51
432.17	5255.09
432.38	5228.46
432.59	5525.42
432.80	5318.57
433.01	5463.98
433.22	5490.60
433.43	5480.36
433.64	5429.17
433.85	5261.23
434.06	5447.60
434.27	5400.49
434.49	5504.94
434.70	5674.92
434.91	5758.89
435.12	5689.26
435.33	5529.52
435.54	5621.67
435.75	5498.80
435.96	5674.92
436.17	5611.43
436.38	5846.95
436.59	5787.56
436.80	5683.11
437.01	5799.85
437.22	5820.33
437.43	5846.95
437.64	5564.33
437.85	5926.82
438.06	6004.64
438.27	6031.27
438.48	5939.11
438.69	6158.24
438.90	5963.68
439.11	5908.39
439.32	6125.47
439.53	6064.04
439.74	5920.68
439.95	6049.70
440.16	6047.65
440.37	6129.57
440.57	6031.27
440.78	6137.76
440.99	6168.48
441.20	6074.28
441.41	6084.52
441.62	6348.70
441.83	5971.88
442.04	6248.35
442.25	6301.60
442.46	6197.15
442.67	6371.23
442.88	6670.23
443.09	6205.35
443.30	6229.92
443.51	6299.55
443.72	6541.21
443.93	6373.28
444.14	6580.12
444.35	6328.22
444.56	6596.51
444.77	6453.15
444.98	6533.02
445.19	6741.91
445.40	6686.62
445.61	6518.68
445.81	6727.58
446.02	6623.13
446.23	6713.24
446.44	6412.19
446.65	6705.05
446.86	6616.99
447.07	6629.27
447.28	6852.50
447.49	6875.03
447.70	6791.06
447.91	7018.39
448.12	6813.59
448.33	7010.20
448.54	6987.67
448.74	6803.35
448.95	6948.76
449.16	6877.08
449.37	7247.76
449.58	7040.92
449.79	7251.86
450.00	7088.02
450.21	7309.20
450.42	7303.06
450.63	7128.98
450.84	7350.16
451.05	7188.37
451.25	7108.50
451.46	7233.43
451.67	7430.03
451.88	7602.06
452.09	7354.26
452.30	7294.86
452.51	7286.67
452.72	7526.29
452.93	7802.76
453.13	7401.36
453.34	7446.41
453.55	7473.04
453.76	7640.97
453.97	7856.01
454.18	7593.87
454.39	7921.54
454.60	7821.19
454.81	7692.17
455.01	7919.50
455.22	7567.24
455.43	7874.44
455.64	8066.95
455.85	8146.82
456.06	8277.89
456.27	8046.47
456.48	7987.08
456.68	7968.65
456.89	8130.44
457.10	8269.70
457.31	8361.86
457.52	8273.79
457.73	8327.04
457.94	8433.54
458.14	8425.34
458.35	8789.88
458.56	8503.17
458.77	8343.42
458.98	8515.45
459.19	8488.83
459.39	8791.93
459.60	8685.44
459.81	8605.56
460.02	8953.72
460.23	8830.84
460.44	9031.54
460.65	9043.83
460.85	9156.47
461.06	9135.99
461.27	8675.20
461.48	9238.39
461.69	9416.56
461.89	8839.03
462.10	9174.90
462.31	9064.31
462.52	9133.94
462.73	9240.44
462.94	9473.90
463.14	9299.83
463.35	9375.60
463.56	9584.49
463.77	9822.06
463.98	9469.81
464.18	9351.03
464.39	9832.30
464.60	9992.04
464.81	9678.70
465.02	9828.20
465.23	10198.88
465.43	9832.30
465.64	10235.75
465.85	10151.78
466.06	10073.96
466.27	10508.13
466.47	10352.48
466.68	10407.78
466.89	10297.19
467.10	10725.21
467.30	10147.69
467.51	10575.71
467.72	10917.72
467.93	10432.35
468.14	10798.94
468.34	10858.33
468.55	11036.50
468.76	10811.23
468.97	10784.60
469.17	11124.57
469.38	11134.81
469.59	11290.45
469.80	11065.18
470.01	11384.66
470.21	11312.98
470.42	11456.34
470.63	11632.46
470.84	11485.01
471.04	11857.74
471.25	11757.39
471.46	11761.48
471.67	12060.49
471.87	11884.36
472.08	12076.87
472.29	12222.28
472.50	11888.46
472.70	12070.73
472.91	12246.85
473.12	12455.75
473.33	12435.27
473.53	12545.86
473.74	12439.36
473.95	12609.34
474.16	12844.86
474.36	12842.81
474.57	12883.77
474.78	13156.15
474.99	12951.35
475.19	12926.78
475.40	13471.54
475.61	13289.27
475.81	13578.03
476.02	13598.51
476.23	13522.74
476.44	13537.07
476.64	13690.67
476.85	14073.64
477.06	13762.35
477.27	14208.81
477.47	14071.59
477.68	14251.81
477.89	14442.28
478.09	14491.43
478.30	14401.32
478.51	14841.63
478.71	14665.50
478.92	14667.55
479.13	14821.15
479.34	14872.35
479.54	15040.28
479.75	15013.66
479.96	15273.75
480.16	15370.01
480.37	15576.85
480.58	15693.58
480.78	15925.00
480.99	15548.18
481.20	15793.94
481.41	16058.12
481.61	15908.62
481.82	16103.18
482.03	16144.14
482.23	16215.82
482.44	16639.75
482.65	16619.27
482.85	16619.27
483.06	16748.29
483.27	16625.41
483.47	16838.40
483.68	16971.52
483.89	17037.05
484.09	17336.06
484.30	17356.54
484.51	17471.22
484.71	17192.70
484.92	17432.31
485.13	17792.75
485.33	17657.59
485.54	17684.21
485.75	18102.00
485.95	18235.11
486.16	18345.70
486.37	18314.98
486.57	18106.09
486.78	18439.91
486.98	18366.18
487.19	18439.91
487.40	18644.71
487.60	18796.26
487.81	18810.59
488.02	18747.11
488.22	18814.69
488.43	18996.96
488.64	19097.31
488.84	19316.44
489.05	19597.01
489.25	19351.26
489.46	19789.52
489.67	19433.18
489.87	19760.85
490.08	19807.95
490.29	19855.06
490.49	20561.61
490.70	20354.76
490.90	20432.58
491.11	20205.26
491.32	20293.32
491.52	20475.59
491.73	20463.30
491.94	20909.76
492.14	20696.77
492.35	20956.86
492.55	20821.70
492.76	21165.76
492.97	21272.25
493.17	21339.83
493.38	21397.18
493.58	21499.58
493.79	21669.56
494.00	21331.64
494.20	21409.47
494.41	22003.38
494.61	21896.88
494.82	21999.28
495.02	21968.56
495.23	22148.78
495.44	22462.12
495.64	22316.72
495.85	22523.56
496.05	22337.20
496.26	22480.55
496.47	22630.05
496.67	22648.49
496.88	22949.54
497.08	22689.45
497.29	23240.35
497.49	22845.09
497.70	23064.22
497.91	23381.66
498.11	23312.03
498.32	23436.95
498.52	23787.16
498.73	23676.57
498.93	23678.61
499.14	23731.86
499.34	24053.39
499.55	23991.95
499.76	24102.54
499.96	23869.08
500.17	23991.95
500.37	24225.42
500.58	24168.08
500.78	24041.11
500.99	24444.56
501.19	24524.43
501.40	24495.75
501.60	24682.12
501.81	24675.98
502.02	24755.85
502.22	24614.54
502.43	24802.95
502.63	24862.34
502.84	25112.19
503.04	25091.71
503.25	25192.06
503.45	24968.84
503.66	25388.67
503.86	25269.89
504.07	25687.67
504.27	25220.74
504.48	25566.84
504.68	25527.93
504.89	25869.94
505.09	25763.45
505.30	26070.64
505.50	26111.60
505.71	25927.28
505.91	26209.90
506.12	25984.63
506.32	26195.57
506.53	26052.21
506.73	26572.39
506.94	26687.08
507.14	26164.85
507.35	26728.04
507.55	26375.79
507.76	26611.31
507.96	26914.41
508.17	26807.91
508.37	26658.41
508.58	27010.66
508.78	26873.45
508.99	26687.08
509.19	27367.01
509.40	27078.24
509.60	27113.06
509.81	27260.51
510.01	27283.04
510.22	27399.77
510.42	27393.63
510.63	27657.82
510.83	27602.52
511.04	27520.60
511.24	27889.24
511.44	27623.00
511.65	27940.44
511.85	27999.83
512.06	27506.27
512.26	28003.92
512.47	28376.66
512.67	28077.65
512.88	27883.09
513.08	27915.86
513.29	28288.59
513.49	28307.02
513.69	28108.37
513.90	28218.96
514.10	28368.46
514.31	28276.30
514.51	28466.77
514.72	28223.06
514.92	28438.09
515.13	28624.46
515.33	28728.91
515.53	28704.33
515.74	28896.84
515.94	29314.62
516.15	29292.10
516.35	28644.94
516.56	28831.30
516.76	28874.31
516.96	29163.08
517.17	29492.80
517.37	29068.87
517.58	29443.65
517.78	29443.65
517.99	29668.92
518.19	29654.59
518.39	29912.63
518.60	29834.81
518.80	29838.90
519.01	29707.83
519.21	30191.16
519.41	30084.66
519.62	30123.57
519.82	30109.24
520.03	29992.50
520.23	30320.18
520.43	29806.14
520.64	30891.56
520.84	30801.45
521.05	30361.14
521.25	30672.43
521.45	30713.39
521.66	30998.06
521.86	30854.70
522.07	30707.24
522.27	31147.56
522.47	31215.14
522.68	31182.37
522.88	31430.18
523.08	31342.11
523.29	31340.07
523.49	31364.64
523.70	31270.43
523.90	31682.08
524.10	31786.52
524.31	31587.87
524.51	31346.21
524.71	32054.81
524.92	32015.90
525.12	32149.01
525.33	32067.09
525.53	32286.23
525.73	32349.71
525.94	32585.23
526.14	32392.72
526.34	32503.31
526.55	32906.76
526.75	32851.47
526.95	33162.76
527.16	33056.26
527.36	33105.41
527.56	33076.74
527.77	33146.37
527.97	33541.63
528.17	33052.17
528.38	33345.03
528.58	33551.87
528.78	33639.93
528.99	33594.88
529.19	33852.92
529.39	33992.19
529.60	34072.06
529.80	34317.81
530.00	34164.21
530.21	34303.48
530.41	34678.25
530.61	34321.91
530.82	34469.36
531.02	34584.05
531.22	34704.88
531.43	34332.15
531.63	34903.53
531.83	35165.67
532.04	35188.20
532.24	34960.87
532.44	35501.54
532.64	35345.89
532.85	35423.72
533.05	35542.50
533.25	35198.44
533.46	35818.97
533.66	36027.87
533.86	35661.28
534.07	36046.30
534.27	35909.08
534.47	36177.37
534.67	36560.34
534.88	35993.05
535.08	36275.67
535.28	36621.78
535.49	36431.32
535.69	36955.60
535.89	36865.49
536.09	37037.51
536.30	37221.83
536.50	37256.65
536.70	37350.85
536.91	37357.00
537.11	37492.16
537.31	37930.43
537.51	37397.96
537.72	37918.14
537.92	37932.48
538.12	38510.00
538.32	37807.55
538.53	38245.82
538.73	37914.05
538.93	38094.27
539.13	38311.35
539.34	38538.68
539.54	38352.31
539.74	38651.31
539.94	38608.31
540.15	38706.61
540.35	38819.25
540.55	38716.85
540.75	38958.51
540.96	39284.14
541.16	39019.95
541.36	39212.46
541.56	38958.51
541.77	39134.63
541.97	39413.16
542.17	39318.95
542.37	39196.07
542.58	39245.23
542.78	39345.58
542.98	39302.57
543.18	40084.89
543.38	39822.75
543.59	40365.46
543.79	39992.73
543.99	39859.62
544.19	40289.69
544.40	40328.60
544.60	40426.90
544.80	40279.45
545.00	40799.63
545.20	40777.11
545.41	40334.74
545.61	40760.72
545.81	40877.46
546.01	41104.78
546.21	40852.88
546.42	40809.87
546.62	40838.54
546.82	40783.25
547.02	40953.23
547.22	41436.55
547.43	41188.75
547.63	41285.00
547.83	41299.34
548.03	41143.69
548.23	41424.26
548.44	41559.43
548.64	41700.74
548.84	41366.92
549.04	41938.30
549.24	41706.88
549.45	42227.07
549.65	41530.76
549.85	41919.87
550.05	42296.70
550.25	42302.84
550.45	42677.62
550.66	42239.36
550.86	42108.29
551.06	42728.82
551.26	42599.80
551.46	42491.26
551.66	42343.80
551.87	42556.79
552.07	42710.39
552.27	43117.93
552.47	42917.23
552.67	43072.88
552.87	42634.61
553.07	42855.79
553.28	42986.86
553.48	43267.44
553.68	43173.23
553.88	43375.98
554.08	43246.96
554.28	43111.79
554.48	43126.13
554.69	43435.37
554.89	43476.33
555.09	43142.51
555.29	43169.13
555.49	43810.15
555.69	43570.54
555.89	43566.44
556.10	43920.74
556.30	43099.50
556.50	43574.63
556.70	43826.53
556.90	44094.82
557.10	43926.88
557.30	43642.21
557.50	43951.46
557.70	44240.22
557.91	44004.70
558.11	44270.94
558.31	44668.25
558.51	44086.62
558.71	43906.40
558.91	44582.23
559.11	44332.38
559.31	44547.42
559.51	44209.50
559.72	44739.93
559.92	44477.79
560.12	44354.91
560.32	44404.06
560.52	44412.25
560.72	45131.09
560.92	44799.32
561.12	44551.51
561.32	45286.73
561.52	44455.26
561.72	44817.75
561.93	44760.40
562.13	44768.60
562.33	44225.89
562.53	45421.90
562.73	44893.52
562.93	45235.53
563.13	44899.67
563.33	45057.36
563.53	45249.87
563.73	44885.33
563.93	44916.05
564.13	45919.56
564.33	45247.82
564.53	45456.71
564.74	45585.74
564.94	45299.02
565.14	45538.63
565.34	45096.27
565.54	45319.50
565.74	45686.09
565.94	45712.71
566.14	45536.59
566.34	45499.72
566.54	45798.73
566.74	45530.44
566.94	45784.39
567.14	45944.13
567.34	45776.20
567.54	45952.32
567.74	45624.65
567.94	45704.52
568.14	45796.68
568.34	46198.08
568.54	46157.12
568.74	46425.40
568.94	45958.47
569.14	46187.84
569.34	46626.10
569.54	46779.70
569.75	46064.96
569.95	46292.29
570.15	46509.37
570.35	46732.60
570.55	46576.95
570.75	46355.77
570.95	46740.79
571.15	46587.19
571.35	46601.53
571.55	47019.31
571.75	46753.08
571.95	47011.12
572.15	46820.66
572.35	47449.39
572.55	46841.14
572.75	47068.47
572.95	47185.20
573.15	47410.48
573.35	47072.56
573.55	46472.51
573.75	47248.69
573.95	47490.35
574.15	47412.52
574.35	47174.96
574.55	47648.04
574.75	47770.92
574.95	47609.13
575.15	47084.85
575.34	47344.94
575.54	47645.99
575.74	47621.42
575.94	47963.43
576.14	47293.74
576.34	48100.64
576.54	47818.02
576.74	48278.82
576.94	47779.11
577.14	47707.43
577.34	48387.36
577.54	47666.47
577.74	48416.03
577.94	48473.37
578.14	48620.83
578.34	48608.54
578.54	47895.85
578.74	48258.34
578.94	48387.36
579.14	48387.36
579.34	48448.80
579.54	48839.96
579.74	49249.55
579.94	48991.51
580.13	48538.91
580.33	49014.04
580.53	49077.52
580.73	49028.37
580.93	48665.88
581.13	48987.41
581.33	49267.98
581.53	49349.90
581.73	48796.95
581.93	49509.64
582.13	49360.14
582.33	49534.22
582.53	49401.10
582.73	49351.95
582.92	49526.03
583.12	49665.29
583.32	49724.68
583.52	49444.11
583.72	49685.77
583.92	49675.53
584.12	49786.12
584.32	50238.72
584.52	49689.87
584.72	50117.89
584.92	50089.22
585.11	50468.09
585.31	50504.96
585.51	50353.41
585.71	50296.06
585.91	50660.60
586.11	50230.53
586.31	50443.52
586.51	50693.37
586.71	50597.12
586.91	50763.00
587.10	50941.17
587.30	50480.38
587.50	50785.53
587.70	50803.96
587.90	51205.36
588.10	50961.65
588.30	50908.41
588.50	51262.71
