SpectraSuite Data File
++++++++++++++++++++++++++++++++++++
Date: Fri Jun 02 14:41:56 CEST 2017
User: INFO_000
Dark Spectrum Present: No
Reference Spectrum Present: No
Number of Sampled Component Spectra: 1
Spectrometers: USB4H00879
Integration Time (usec): 80000 (USB4H00879)
Spectra Averaged: 1 (USB4H00879)
Boxcar Smoothing: 0 (USB4H00879)
Correct for Electrical Dark: No (USB4H00879)
Strobe/Lamp Enabled: No (USB4H00879)
Correct for Detector Non-linearity: No (USB4H00879)
Correct for Stray Light: No (USB4H00879)
Number of Pixels in Processed Spectrum: 3648
>>>>>Begin Processed Spectral Data<<<<<
345.13	1302.51
345.34	1302.51
345.56	1302.51
345.78	1232.88
345.99	1279.98
346.21	1732.58
346.42	1671.14
346.64	1701.86
346.86	1787.88
347.07	1658.85
347.29	1677.29
347.50	1617.90
347.72	1650.66
347.94	1681.38
348.15	1587.18
348.37	1730.53
348.59	1658.85
348.80	1652.71
349.02	1742.82
349.23	1837.03
349.45	1751.01
349.67	1802.21
349.88	1869.80
350.10	1984.48
350.31	1882.08
350.53	1736.68
350.75	1992.67
350.96	1779.68
351.18	1839.08
351.39	1837.03
351.61	1820.64
351.82	1976.29
352.04	1927.14
352.26	1841.12
352.47	1900.52
352.69	1882.08
352.90	1773.54
353.12	1886.18
353.34	1826.79
353.55	1925.09
353.77	1923.04
353.98	1839.08
354.20	1863.65
354.41	1898.47
354.63	1853.41
354.85	2027.49
355.06	1904.61
355.28	1824.74
355.49	1822.69
355.71	1902.56
355.92	1814.50
356.14	1970.15
356.35	1914.85
356.57	1861.60
356.79	1945.57
357.00	1912.80
357.22	1947.62
357.43	1910.75
357.65	1947.62
357.86	1914.85
358.08	1951.71
358.29	1945.57
358.51	1990.63
358.72	1943.52
358.94	1894.37
359.16	1974.24
359.37	1918.95
359.59	1955.81
359.80	1970.15
360.02	1906.66
360.23	1961.95
360.45	2015.20
360.66	1939.43
360.88	1865.70
361.09	1910.75
361.31	2035.68
361.52	1964.00
361.74	2023.39
361.95	2086.88
362.17	1925.09
362.38	2105.31
362.60	2047.97
362.81	1990.63
363.03	2013.15
363.24	1970.15
363.46	2068.45
363.67	2072.54
363.89	2043.87
364.10	2039.78
364.32	2019.30
364.53	2090.98
364.75	1945.57
364.96	2015.20
365.18	2050.02
365.39	2021.35
365.61	1959.91
365.82	2105.31
366.04	1974.24
366.25	1980.39
366.47	2031.58
366.68	2109.41
366.90	2000.87
367.11	2052.06
367.33	2058.21
367.54	2027.49
367.76	1994.72
367.97	2144.22
368.19	2066.40
368.40	2037.73
368.62	2011.11
368.83	1943.52
369.05	2076.64
369.26	2025.44
369.48	1994.72
369.69	1982.43
369.91	2000.87
370.12	2039.78
370.33	2174.94
370.55	1951.71
370.76	2033.63
370.98	2172.89
371.19	2115.55
371.41	2041.82
371.62	2060.26
371.84	2066.40
372.05	2111.46
372.27	2093.02
372.48	2066.40
372.69	2084.83
372.91	2107.36
373.12	2142.18
373.34	2107.36
373.55	2140.13
373.77	2222.05
373.98	2142.18
374.20	2187.23
374.41	2267.10
374.62	2142.18
374.84	2148.32
375.05	2289.63
375.27	2197.47
375.48	2084.83
375.70	2193.37
375.91	2258.91
376.12	2338.78
376.34	2166.75
376.55	2131.94
376.77	2152.42
376.98	2162.66
377.19	2113.50
377.41	2176.99
377.62	2199.52
377.84	2328.54
378.05	2320.35
378.27	2207.71
378.48	2422.75
378.69	2324.44
378.91	2383.84
379.12	2314.20
379.34	2232.29
379.55	2342.88
379.76	2289.63
379.98	2207.71
380.19	2281.44
380.41	2252.77
380.62	2285.53
380.83	2265.05
381.05	2303.96
381.26	2394.08
381.47	2287.58
381.69	2281.44
381.90	2357.21
382.12	2303.96
382.33	2281.44
382.54	2330.59
382.76	2375.64
382.97	2387.93
383.19	2265.05
383.40	2459.61
383.61	2344.92
383.83	2308.06
384.04	2297.82
384.25	2328.54
384.47	2453.47
384.68	2369.50
384.89	2377.69
385.11	2355.16
385.32	2361.31
385.54	2387.93
385.75	2346.97
385.96	2455.51
386.18	2455.51
386.39	2428.89
386.60	2469.85
386.82	2451.42
387.03	2478.04
387.24	2549.72
387.46	2467.80
387.67	2514.91
387.88	2508.76
388.10	2500.57
388.31	2549.72
388.52	2625.50
388.74	2541.53
388.95	2519.00
389.16	2516.95
389.38	2484.19
389.59	2686.94
389.80	2682.84
390.02	2572.25
390.23	2660.31
390.44	2602.97
390.66	2555.86
390.87	2426.84
391.08	2625.50
391.30	2672.60
391.51	2619.35
391.72	2760.66
391.94	2772.95
392.15	2598.87
392.36	2721.75
392.58	2611.16
392.79	2652.12
393.00	2619.35
393.22	2797.53
393.43	2768.85
393.64	2824.15
393.85	2662.36
394.07	2699.22
394.28	2813.91
394.49	2707.41
394.71	2805.72
394.92	2867.16
395.13	2682.84
395.35	2854.87
395.56	2791.38
395.77	2881.49
395.98	2846.68
396.20	2858.96
396.41	2930.64
396.62	2875.35
396.84	2873.30
397.05	2881.49
397.26	2971.60
397.47	3030.99
397.69	2824.15
397.90	3076.05
398.11	2924.50
398.32	2867.16
398.54	2998.23
398.75	2928.60
398.96	3028.95
399.18	3231.69
399.39	2969.55
399.60	3117.01
399.81	3057.62
400.03	3039.19
400.24	3254.22
400.45	3094.48
400.66	3033.04
400.88	3078.10
401.09	3342.28
401.30	3018.71
401.51	3209.17
401.73	3203.02
401.94	3147.73
402.15	3272.65
402.36	3219.41
402.58	3131.34
402.79	3297.23
403.00	3239.89
403.21	3301.33
403.43	3450.83
403.64	3399.63
403.85	3217.36
404.06	3344.33
404.27	3198.93
404.49	3315.66
404.70	3284.94
404.91	3426.25
405.12	3336.14
405.34	3252.17
405.55	3420.11
405.76	3174.35
405.97	3366.86
406.19	3491.79
406.40	3291.09
406.61	3360.72
406.82	3493.83
407.03	3375.05
407.25	3301.33
407.46	3450.83
407.67	3518.41
407.88	3465.16
408.09	3385.29
408.31	3389.39
408.52	3467.21
408.73	3442.64
408.94	3450.83
409.15	3469.26
409.37	3504.07
409.58	3618.76
409.79	3639.24
410.00	3682.25
410.21	3542.99
410.43	3557.32
410.64	3571.66
410.85	3637.19
411.06	3667.91
411.27	3618.76
411.48	3657.67
411.70	3637.19
411.91	3821.51
412.12	3751.88
412.33	3700.68
412.54	3739.59
412.76	3952.58
412.97	3772.36
413.18	3629.00
413.39	3731.40
413.60	3841.99
413.81	3792.84
414.03	3727.30
414.24	3796.93
414.45	3905.48
414.66	3645.38
414.87	3887.04
415.08	3811.27
415.30	3821.51
415.51	3917.76
415.72	3801.03
415.93	3792.84
416.14	3876.80
416.35	4001.73
416.56	3995.59
416.78	3866.56
416.99	3891.14
417.20	3993.54
417.41	4108.23
417.62	4036.55
417.83	4034.50
418.04	3950.53
418.26	4202.43
418.47	3989.44
418.68	4018.11
418.89	4110.27
419.10	4235.20
419.31	4147.14
419.52	4243.39
419.73	4198.34
419.95	4218.82
420.16	4042.69
420.37	4227.01
420.58	4298.69
420.79	4065.22
421.00	4212.67
421.21	4302.78
421.42	4130.75
421.63	4270.01
421.85	4181.95
422.06	4321.21
422.27	4265.92
422.48	4218.82
422.69	4296.64
422.90	4343.74
423.11	4380.61
423.32	4474.81
423.53	4499.39
423.75	4503.48
423.96	4589.50
424.17	4558.78
424.38	4693.94
424.59	4605.88
424.80	4665.27
425.01	4749.24
425.22	4640.70
425.43	4571.07
425.64	4706.23
425.85	4724.66
426.06	4759.48
426.28	4691.90
426.49	4609.98
426.70	4597.69
426.91	4673.46
427.12	4870.07
427.33	4798.39
427.54	4755.38
427.75	4853.69
427.96	4890.55
428.17	4886.45
428.38	5003.19
428.59	4968.37
428.80	4935.60
429.01	5091.25
429.23	4984.76
429.44	5201.84
429.65	5259.18
429.86	5167.03
430.07	4935.60
430.28	5085.11
430.49	5253.04
430.70	5205.94
430.91	5169.07
431.12	5257.14
431.33	5326.77
431.54	5341.10
431.75	5214.13
431.96	5253.04
432.17	5273.52
432.38	5386.16
432.59	5533.61
432.80	5597.10
433.01	5443.50
433.22	5461.93
433.43	5371.82
433.64	5461.93
433.85	5482.41
434.06	5541.80
434.27	5380.01
434.49	5527.47
434.70	5586.86
434.91	5664.68
435.12	5730.22
435.33	5572.52
435.54	5568.43
435.75	5500.84
435.96	5797.80
436.17	5443.50
436.38	5969.83
436.59	5836.71
436.80	5644.20
437.01	5959.59
437.22	5961.64
437.43	5922.73
437.64	5590.95
437.85	6074.28
438.06	5982.12
438.27	5910.44
438.48	5941.16
438.69	5975.97
438.90	5998.50
439.11	5812.14
439.32	6199.20
439.53	6125.47
439.74	6098.85
439.95	6145.95
440.16	6049.70
440.37	6205.35
440.57	6199.20
440.78	6154.15
440.99	6256.54
441.20	6299.55
441.41	6076.32
441.62	6174.63
441.83	6168.48
442.04	6229.92
442.25	6377.37
442.46	6172.58
442.67	6533.02
442.88	6741.91
443.09	6199.20
443.30	6397.85
443.51	6414.24
443.72	6545.31
443.93	6514.59
444.14	6664.09
444.35	6438.81
444.56	6598.56
444.77	6455.20
444.98	6655.90
445.19	6569.88
445.40	6707.10
445.61	6541.21
445.81	6666.14
446.02	6762.39
446.23	6631.32
446.44	6631.32
446.65	6616.99
446.86	6752.15
447.07	6821.78
447.28	7030.68
447.49	7034.77
447.70	6811.54
447.91	6948.76
448.12	6963.09
448.33	6977.43
448.54	7075.73
448.74	6954.90
448.95	7221.14
449.16	6844.31
449.37	7276.43
449.58	7176.08
449.79	7227.28
450.00	7174.03
450.21	7135.12
450.42	7393.17
450.63	7262.10
450.84	7212.95
451.05	7335.82
451.25	7163.79
451.46	7180.18
451.67	7430.03
451.88	7542.67
452.09	7485.33
452.30	7276.43
452.51	7434.13
452.72	7645.07
452.93	7696.27
453.13	7413.65
453.34	7307.15
453.55	7602.06
453.76	7450.51
453.97	7991.17
454.18	7923.59
454.39	7749.51
454.60	7786.38
454.81	7810.95
455.01	7991.17
455.22	7602.06
455.43	7858.06
455.64	8120.20
455.85	8163.20
456.06	8302.47
456.27	8109.96
456.48	8138.63
456.68	8152.96
456.89	8062.85
457.10	8296.32
457.31	8265.60
457.52	8173.44
457.73	8232.83
457.94	8783.74
458.14	8433.54
458.35	8630.14
458.56	8601.47
458.77	8499.07
458.98	8562.56
459.19	8720.25
459.39	8621.95
459.60	8804.22
459.81	8728.44
460.02	8777.59
460.23	8904.57
460.44	9047.93
460.65	8966.01
460.85	8996.73
461.06	9090.93
461.27	8884.09
461.48	9283.44
461.69	9359.22
461.89	8953.72
462.10	9226.10
462.31	9183.09
462.52	9330.55
462.73	9205.62
462.94	9416.56
463.14	9631.60
463.35	9598.83
463.56	9744.24
463.77	9795.43
463.98	9690.99
464.18	9645.93
464.39	9705.32
464.60	10053.48
464.81	9973.61
465.02	9994.09
465.23	10121.06
465.43	10012.52
465.64	10127.21
465.85	10051.43
466.06	10092.39
466.27	10415.97
466.47	10301.28
466.68	10569.57
466.89	10223.46
467.10	10618.72
467.30	10483.55
467.51	10592.09
467.72	10874.71
467.93	10641.25
468.14	10575.71
468.34	11110.23
468.55	10995.54
468.76	10839.90
468.97	10743.64
469.17	11251.54
469.38	11253.59
469.59	11456.34
469.80	11376.47
470.01	11243.35
470.21	11274.07
470.42	11589.46
470.63	11689.81
470.84	11487.06
471.04	11800.40
471.25	11786.06
471.46	11829.07
471.67	12115.78
471.87	11878.22
472.08	12011.34
472.29	12201.80
472.50	12062.54
472.70	12365.64
472.91	12400.45
473.12	12488.51
473.33	12332.87
473.53	12603.20
473.74	12439.36
473.95	12572.48
474.16	12986.17
474.36	12814.14
474.57	13018.94
474.78	12967.74
474.99	13084.47
475.19	12988.22
475.40	13547.31
475.61	13399.86
475.81	13866.80
476.02	13758.25
476.23	13672.24
476.44	13745.97
476.64	13836.08
476.85	14098.22
477.06	13922.09
477.27	14329.64
477.47	14587.68
477.68	14241.57
477.89	14604.07
478.09	14425.89
478.30	14622.50
478.51	14653.22
478.71	14798.62
478.92	14952.22
479.13	15208.22
479.34	15068.95
479.54	15261.46
479.75	15138.58
479.96	15550.23
480.16	15531.80
480.37	15695.63
480.58	15836.94
480.78	16017.16
480.99	15773.46
481.20	16301.83
481.41	16264.97
481.61	16144.14
481.82	16320.26
482.03	16365.32
482.23	16213.77
482.44	16688.90
482.65	16715.52
482.85	16744.19
483.06	16789.25
483.27	16805.63
483.47	16883.45
483.68	17092.35
483.89	17086.20
484.09	17417.97
484.30	17288.95
484.51	17340.15
484.71	17848.05
484.92	17706.74
485.13	17747.70
485.33	17940.21
485.54	17878.77
485.75	17952.49
485.95	18132.72
486.16	18413.29
486.37	18448.10
486.57	18269.93
486.78	18280.17
486.98	18382.57
487.19	18743.01
487.40	18765.54
487.60	18876.13
487.81	19234.52
488.02	19019.49
488.22	19058.40
488.43	19220.19
488.64	19191.52
488.84	19549.91
489.05	19314.39
489.25	19572.44
489.46	20037.33
489.67	19500.76
489.87	20084.43
490.08	19945.17
490.29	20049.61
490.49	20367.05
490.70	20367.05
490.90	20383.43
491.11	20446.92
491.32	20764.36
491.52	20514.50
491.73	20711.11
491.94	20694.72
492.14	20836.03
492.35	21106.37
492.55	21190.33
492.76	21354.17
492.97	21104.32
493.17	21296.83
493.38	21593.78
493.58	21606.07
493.79	21864.11
494.00	21718.71
494.20	21649.08
494.41	21948.08
494.61	22034.10
494.82	22042.29
495.02	22064.82
495.23	22458.03
495.44	22363.82
495.64	22718.12
495.85	22245.04
496.05	22855.33
496.26	22554.28
496.47	23262.88
496.67	22746.79
496.88	23324.32
497.08	22920.87
497.29	23117.47
497.49	23316.12
497.70	23365.28
497.91	23244.45
498.11	23637.66
498.32	23135.90
498.52	23748.25
498.73	23979.67
498.93	23735.96
499.14	23781.01
499.34	23989.91
499.55	24163.98
499.76	23871.12
499.96	24331.92
500.17	24331.92
500.37	24241.81
500.58	24436.36
500.78	24370.83
500.99	24452.75
501.19	24606.34
501.40	24817.29
501.60	24729.22
501.81	24956.55
502.02	24911.49
502.22	24823.43
502.43	24977.03
502.63	25319.04
502.84	25222.78
503.04	25104.00
503.25	25282.17
503.45	25235.07
503.66	25697.91
503.86	25450.11
504.07	25841.27
504.27	25386.62
504.48	26095.22
504.68	25919.09
504.89	26023.54
505.09	25921.14
505.30	26162.80
505.50	26191.47
505.71	26023.54
505.91	26140.27
506.12	26527.34
506.32	26560.11
506.53	26441.32
506.73	26502.76
506.94	26556.01
507.14	26504.81
507.35	26543.72
507.55	26650.22
507.76	26666.60
507.96	26670.70
508.17	26945.12
508.37	26871.40
508.58	27020.90
508.78	27231.84
508.99	27166.31
509.19	27289.18
509.40	27270.75
509.60	27446.88
509.81	27389.53
510.01	27352.67
510.22	27362.91
510.42	27553.37
510.63	27715.16
510.83	27547.23
511.04	27831.90
511.24	28053.08
511.44	28114.52
511.65	27706.97
511.85	27745.88
512.06	28102.23
512.26	27862.61
512.47	28309.07
512.67	28208.72
512.88	28397.13
513.08	27879.00
513.29	28694.09
513.49	28409.42
513.69	28456.53
513.90	28814.92
514.10	28802.63
514.31	28466.77
514.51	28862.02
514.72	28646.99
514.92	28620.36
515.13	29036.10
515.33	28902.98
515.53	29050.44
515.74	28651.08
515.94	29070.92
516.15	29314.62
516.35	28939.85
516.56	29306.43
516.76	28839.50
516.96	29367.87
517.17	29554.24
517.37	29564.48
517.58	29570.62
517.78	29464.13
517.99	29607.48
518.19	30115.38
518.39	30137.91
518.60	30207.54
518.80	30203.44
519.01	30111.28
519.21	30348.85
519.41	30238.26
519.62	29951.54
519.82	30170.68
520.03	30264.88
520.23	30893.61
520.43	30232.11
520.64	30631.47
520.84	30832.17
521.05	30518.83
521.25	30977.58
521.45	31141.41
521.66	31340.07
521.86	30959.14
522.07	31051.30
522.27	30889.51
522.47	31284.77
522.68	31641.12
522.88	31342.11
523.08	31649.31
523.29	31424.03
523.49	31706.65
523.70	31700.51
523.90	31788.57
524.10	31751.71
524.31	31999.51
524.51	31761.95
524.71	32478.74
524.92	32278.04
525.12	32114.20
525.33	32085.53
525.53	32513.55
525.73	32697.87
525.94	32876.04
526.14	32765.45
526.34	32665.10
526.55	32990.73
526.75	32890.38
526.95	33244.68
527.16	33119.75
527.36	33009.16
527.56	33588.74
527.77	33347.08
527.97	33504.77
528.17	33580.54
528.38	33435.14
528.58	33555.97
528.78	33680.89
528.99	33529.34
529.19	34307.57
529.39	33826.30
529.60	34690.54
529.80	34543.09
530.00	34203.13
530.21	34405.88
530.41	34792.94
530.61	34602.48
530.82	34586.10
531.02	34850.28
531.22	34895.34
531.43	34967.02
531.63	34827.76
531.83	35329.51
532.04	35565.03
532.24	35274.21
532.44	35980.76
532.64	35706.34
532.85	35552.74
533.05	36107.74
533.25	35845.60
533.46	36109.78
533.66	36179.42
533.86	35825.12
534.07	36326.87
534.27	36462.04
534.47	36611.54
534.67	36675.02
534.88	36623.83
535.08	36767.18
535.28	36885.97
535.49	36910.54
535.69	37357.00
535.89	37062.09
536.09	37027.28
536.30	37711.30
536.50	37221.83
536.70	37594.56
536.91	37430.72
537.11	37635.52
537.31	37948.86
537.51	37727.68
537.72	38106.55
537.92	38297.02
538.12	38593.97
538.32	38237.62
538.53	38430.13
538.73	38163.90
538.93	38350.26
539.13	38495.67
539.34	38571.44
539.54	38352.31
539.74	38981.04
539.94	38823.34
540.15	38653.36
540.35	39132.59
540.55	39116.20
540.75	38645.17
540.96	39058.86
541.16	39296.42
541.36	39267.75
541.56	39148.97
541.77	39726.50
541.97	39663.01
542.17	39769.51
542.37	39763.36
542.58	40263.07
542.78	39597.48
542.98	39900.58
543.18	40088.99
543.38	40496.53
543.59	40412.57
543.79	40299.93
543.99	40297.88
544.19	40447.38
544.40	40557.97
544.60	40760.72
544.80	40822.16
545.00	40580.50
545.20	40942.99
545.41	40791.44
545.61	40766.87
545.81	41309.58
546.01	41178.51
546.21	41364.87
546.42	41235.85
546.62	41543.05
546.82	41233.80
547.02	41276.81
547.22	41358.73
547.43	41448.84
547.63	41620.87
547.83	41276.81
548.03	41670.02
548.23	42265.98
548.44	41737.60
548.64	41893.25
548.84	41876.86
549.04	42106.24
549.24	42681.72
549.45	42481.02
549.65	41919.87
549.85	42012.03
550.05	42519.93
550.25	42278.27
550.45	42599.80
550.66	42677.62
550.86	42225.02
551.06	42777.97
551.26	42816.88
551.46	42761.59
551.66	43044.21
551.87	42587.51
552.07	42614.13
552.27	42491.26
552.47	42583.41
552.67	43283.82
552.87	42882.42
553.07	43119.98
553.28	43156.85
553.48	43156.85
553.68	43179.37
553.88	43437.42
554.08	43511.14
554.28	43531.62
554.48	43523.43
554.69	43636.07
554.89	43322.73
555.09	43810.15
555.29	43349.35
555.49	43652.45
555.69	43328.87
555.89	43672.93
556.10	43799.91
556.30	43951.46
556.50	44113.25
556.70	43861.35
556.90	44213.60
557.10	44193.12
557.30	44236.12
557.50	44119.39
557.70	44344.67
557.91	44580.18
558.11	44256.60
558.31	44498.26
558.51	44578.14
558.71	44864.85
558.91	44557.66
559.11	44344.67
559.31	44610.90
559.51	44502.36
559.72	44578.14
559.92	44885.33
560.12	44465.50
560.32	44725.59
560.52	44639.57
560.72	45028.69
560.92	45204.81
561.12	44604.76
561.32	45270.35
561.52	44719.45
561.72	45223.25
561.93	45008.21
562.13	45245.77
562.33	44959.06
562.53	45503.82
562.73	44897.62
562.93	45149.52
563.13	45284.68
563.33	45188.43
563.53	45710.66
563.73	45286.73
563.93	45546.82
564.13	45962.56
564.33	45479.24
564.53	45536.59
564.74	45712.71
564.94	45464.91
565.14	45624.65
565.34	45739.33
565.54	45825.35
565.74	45759.81
565.94	46052.67
566.14	45878.60
566.34	45602.12
566.54	46484.79
566.74	46087.49
566.94	45923.65
567.14	46290.24
567.34	46007.62
567.54	46503.23
567.74	45948.23
567.94	45868.36
568.14	46376.25
568.34	46449.98
568.54	46413.12
568.74	46488.89
568.94	46474.55
569.14	47009.07
569.34	46726.46
569.54	46613.82
569.75	46255.42
569.95	46937.40
570.15	46908.72
570.35	47101.23
570.55	46861.62
570.75	46495.03
570.95	47047.99
571.15	46996.79
571.35	47383.85
571.55	47394.09
571.75	47177.01
571.95	47084.85
572.15	46843.19
572.35	47342.89
572.55	47473.96
572.75	46994.74
572.95	47488.30
573.15	47412.52
573.35	47207.73
573.55	47496.49
573.75	47486.25
573.95	47314.22
574.15	47818.02
574.35	47666.47
574.55	47635.75
574.75	47756.58
574.95	47858.98
575.15	47523.11
575.34	47643.94
575.54	48102.69
575.74	48184.61
575.94	47945.00
576.14	48022.82
576.34	48661.79
576.54	48391.45
576.74	48172.32
576.94	47818.02
577.14	48581.91
577.34	48575.77
577.54	48223.52
577.74	48547.10
577.94	48528.67
578.14	48594.20
578.34	48837.91
578.54	48223.52
578.74	48446.75
578.94	48772.38
579.14	48106.79
579.34	48366.88
579.54	48608.54
579.74	49145.11
579.94	49354.00
580.13	48948.50
580.33	49188.11
580.53	49526.03
580.73	49304.85
580.93	48866.58
581.13	49356.05
581.33	49601.80
581.53	49603.85
581.73	49263.89
581.93	49804.55
582.13	49478.92
582.33	49818.89
582.53	49474.83
582.73	49853.70
582.92	49628.43
583.12	49825.03
583.32	49397.01
583.52	49648.91
583.72	50025.73
583.92	50017.54
584.12	50187.52
584.32	50656.51
584.52	50263.30
584.72	50703.61
584.92	50402.56
585.11	51205.36
585.31	50291.97
585.51	50679.03
585.71	50625.79
585.91	51019.00
586.11	50674.94
586.31	50615.55
586.51	50697.47
586.71	50726.14
586.91	51047.67
587.10	51336.43
587.30	51205.36
587.50	51158.26
587.70	51449.07
587.90	51176.69
588.10	50996.47
588.30	51172.60
588.50	51274.99
