SpectraSuite Data File
++++++++++++++++++++++++++++++++++++
Date: Fri Jun 02 14:41:57 CEST 2017
User: INFO_000
Dark Spectrum Present: No
Reference Spectrum Present: No
Number of Sampled Component Spectra: 1
Spectrometers: USB4H00879
Integration Time (usec): 80000 (USB4H00879)
Spectra Averaged: 1 (USB4H00879)
Boxcar Smoothing: 0 (USB4H00879)
Correct for Electrical Dark: No (USB4H00879)
Strobe/Lamp Enabled: No (USB4H00879)
Correct for Detector Non-linearity: No (USB4H00879)
Correct for Stray Light: No (USB4H00879)
Number of Pixels in Processed Spectrum: 3648
>>>>>Begin Processed Spectral Data<<<<<
345.13	1255.40
345.34	1255.40
345.56	1255.40
345.78	1310.70
345.99	1327.08
346.21	1712.10
346.42	1794.02
346.64	1714.15
346.86	1849.32
347.07	1640.42
347.29	1712.10
347.50	1617.90
347.72	1714.15
347.94	1839.08
348.15	1581.03
348.37	1605.61
348.59	1736.68
348.80	1628.14
349.02	1751.01
349.23	1798.12
349.45	1841.12
349.67	1861.60
349.88	1814.50
350.10	1916.90
350.31	1822.69
350.53	1880.04
350.75	1935.33
350.96	1730.53
351.18	1890.28
351.39	1888.23
351.61	1798.12
351.82	1863.65
352.04	1910.75
352.26	1826.79
352.47	1873.89
352.69	1986.53
352.90	1808.36
353.12	1918.95
353.34	1853.41
353.55	1933.28
353.77	1910.75
353.98	1742.82
354.20	1820.64
354.41	1937.38
354.63	2047.97
354.85	1988.58
355.06	1832.93
355.28	1771.49
355.49	1925.09
355.71	1888.23
355.92	1884.13
356.14	1923.04
356.35	1892.32
356.57	1951.71
356.79	1902.56
357.00	1890.28
357.22	1970.15
357.43	1822.69
357.65	1994.72
357.86	1906.66
358.08	1867.75
358.29	1896.42
358.51	1976.29
358.72	2050.02
358.94	1974.24
359.16	1916.90
359.37	1894.37
359.59	1927.14
359.80	2078.69
360.02	1953.76
360.23	2009.06
360.45	1982.43
360.66	1902.56
360.88	1863.65
361.09	1920.99
361.31	2068.45
361.52	1931.23
361.74	2074.59
361.95	2023.39
362.17	2009.06
362.38	2123.74
362.60	1990.63
362.81	1949.67
363.03	1941.47
363.24	1906.66
363.46	2052.06
363.67	2099.17
363.89	2011.11
364.10	1972.19
364.32	1949.67
364.53	2060.26
364.75	1849.32
364.96	2029.54
365.18	2037.73
365.39	1986.53
365.61	1951.71
365.82	2138.08
366.04	2033.63
366.25	1982.43
366.47	2078.69
366.68	2041.82
366.90	1953.76
367.11	2074.59
367.33	2031.58
367.54	2174.94
367.76	2043.87
367.97	2088.93
368.19	2068.45
368.40	2068.45
368.62	1990.63
368.83	2015.20
369.05	2056.16
369.26	1978.34
369.48	1992.67
369.69	2029.54
369.91	2009.06
370.12	2011.11
370.33	2131.94
370.55	1972.19
370.76	2103.26
370.98	2113.50
371.19	2066.40
371.41	2025.44
371.62	2052.06
371.84	1986.53
372.05	2154.46
372.27	2037.73
372.48	2082.78
372.69	2109.41
372.91	2125.79
373.12	2107.36
373.34	2197.47
373.55	2113.50
373.77	2117.60
373.98	2205.66
374.20	2115.55
374.41	2244.57
374.62	2150.37
374.84	2119.65
375.05	2191.33
375.27	2189.28
375.48	2240.48
375.70	2209.76
375.91	2293.72
376.12	2265.05
376.34	2230.24
376.55	2209.76
376.77	2224.09
376.98	2166.75
377.19	2140.13
377.41	2082.78
377.62	2183.13
377.84	2248.67
378.05	2324.44
378.27	2260.96
378.48	2303.96
378.69	2367.45
378.91	2342.88
379.12	2338.78
379.34	2252.77
379.55	2297.82
379.76	2252.77
379.98	2195.42
380.19	2322.40
380.41	2404.32
380.62	2283.49
380.83	2289.63
381.05	2179.04
381.26	2478.04
381.47	2220.00
381.69	2330.59
381.90	2426.84
382.12	2357.21
382.33	2355.16
382.54	2242.53
382.76	2363.36
382.97	2320.35
383.19	2281.44
383.40	2400.22
383.61	2244.57
383.83	2295.77
384.04	2336.73
384.25	2334.68
384.47	2428.89
384.68	2459.61
384.89	2330.59
385.11	2400.22
385.32	2381.79
385.54	2463.71
385.75	2330.59
385.96	2402.27
386.18	2430.94
386.39	2410.46
386.60	2344.92
386.82	2416.60
387.03	2494.43
387.24	2521.05
387.46	2461.66
387.67	2453.47
387.88	2613.21
388.10	2523.10
388.31	2465.75
388.52	2519.00
388.74	2539.48
388.95	2537.43
389.16	2559.96
389.38	2568.15
389.59	2668.50
389.80	2752.47
390.02	2574.30
390.23	2654.17
390.44	2596.82
390.66	2611.16
390.87	2656.22
391.08	2602.97
391.30	2731.99
391.51	2709.46
391.72	2682.84
391.94	2662.36
392.15	2564.06
392.36	2686.94
392.58	2617.30
392.79	2770.90
393.00	2742.23
393.22	2709.46
393.43	2785.24
393.64	2783.19
393.85	2834.39
394.07	2717.65
394.28	2813.91
394.49	2877.40
394.71	2838.48
394.92	2828.24
395.13	2795.48
395.35	2756.57
395.56	2899.92
395.77	2871.25
395.98	2815.96
396.20	3012.56
396.41	2895.83
396.62	2899.92
396.84	2842.58
397.05	2828.24
397.26	3000.27
397.47	2934.74
397.69	2858.96
397.90	3051.47
398.11	2942.93
398.32	2916.31
398.54	2981.84
398.75	3049.43
398.96	3010.51
399.18	3125.20
399.39	3004.37
399.60	3022.80
399.81	2983.89
400.03	2983.89
400.24	3266.51
400.45	2961.36
400.66	3045.33
400.88	3069.91
401.09	3194.83
401.30	3166.16
401.51	3264.46
401.73	3149.78
401.94	3272.65
402.15	3174.35
402.36	3209.17
402.58	3170.26
402.79	3286.99
403.00	3192.78
403.21	3313.61
403.43	3299.28
403.64	3397.58
403.85	3151.82
404.06	3282.89
404.27	3176.40
404.49	3352.52
404.70	3264.46
404.91	3229.65
405.12	3338.19
405.34	3248.08
405.55	3387.34
405.76	3334.09
405.97	3301.33
406.19	3442.64
406.40	3241.93
406.61	3420.11
406.82	3502.03
407.03	3379.15
407.25	3448.78
407.46	3573.71
407.67	3463.12
407.88	3598.28
408.09	3391.44
408.31	3426.25
408.52	3483.59
408.73	3456.97
408.94	3434.44
409.15	3426.25
409.37	3489.74
409.58	3538.89
409.79	3600.33
410.00	3528.65
410.21	3522.51
410.43	3557.32
410.64	3485.64
410.85	3514.31
411.06	3579.85
411.27	3717.06
411.48	3755.97
411.70	3475.40
411.91	3639.24
412.12	3772.36
412.33	3563.47
412.54	3669.96
412.76	3727.30
412.97	3721.16
413.18	3706.82
413.39	3649.48
413.60	3737.54
413.81	3786.69
414.03	3684.30
414.24	3626.95
414.45	3893.19
414.66	3663.82
414.87	3749.83
415.08	3821.51
415.30	3862.47
415.51	3837.89
415.72	3776.45
415.93	3796.93
416.14	3954.63
416.35	3893.19
416.56	4050.88
416.78	3975.11
416.99	4003.78
417.20	3964.87
417.41	3925.96
417.62	3905.48
417.83	4024.26
418.04	3925.96
418.26	4065.22
418.47	3993.54
418.68	4102.08
418.89	4059.07
419.10	4251.58
419.31	4042.69
419.52	4196.29
419.73	4120.51
419.95	4255.68
420.16	4046.79
420.37	4147.14
420.58	4302.78
420.79	4018.11
421.00	4161.47
421.21	4214.72
421.42	4126.66
421.63	4184.00
421.85	4198.34
422.06	4349.89
422.27	4427.71
422.48	4298.69
422.69	4392.89
422.90	4323.26
423.11	4317.12
423.32	4425.66
423.53	4521.92
423.75	4538.30
423.96	4521.92
424.17	4612.03
424.38	4628.41
424.59	4427.71
424.80	4665.27
425.01	4665.27
425.22	4579.26
425.43	4612.03
425.64	4798.39
425.85	4679.61
426.06	4577.21
426.28	4648.89
426.49	4638.65
426.70	4724.66
426.91	4796.34
427.12	4773.82
427.33	4800.44
427.54	4769.72
427.75	4730.81
427.96	4988.85
428.17	4812.73
428.38	4966.32
428.59	4927.41
428.80	4917.17
429.01	4911.03
429.23	4923.32
429.44	5175.22
429.65	5099.44
429.86	5173.17
430.07	5027.76
430.28	5027.76
430.49	5128.11
430.70	5271.47
430.91	5214.13
431.12	5062.58
431.33	5304.24
431.54	5263.28
431.75	5197.74
431.96	5236.66
432.17	5349.29
432.38	5193.65
432.59	5459.88
432.80	5455.79
433.01	5435.31
433.22	5552.04
433.43	5423.02
433.64	5459.88
433.85	5353.39
434.06	5654.44
434.27	5478.32
434.49	5568.43
434.70	5545.90
434.91	5683.11
435.12	5783.46
435.33	5603.24
435.54	5672.87
435.75	5431.21
435.96	5480.36
436.17	5492.65
436.38	5869.48
436.59	5744.55
436.80	5705.64
437.01	5973.92
437.22	5851.05
437.43	5869.48
437.64	5744.55
437.85	5904.29
438.06	5949.35
438.27	5871.53
438.48	5840.81
438.69	6057.89
438.90	5982.12
439.11	5797.80
439.32	6109.09
439.53	5984.16
439.74	5959.59
439.95	6059.94
440.16	6178.72
440.37	6121.38
440.57	5844.90
440.78	6264.74
440.99	6209.44
441.20	6098.85
441.41	6131.62
441.62	6160.29
441.83	6049.70
442.04	6168.48
442.25	6358.94
442.46	6203.30
442.67	6342.56
442.88	6729.63
443.09	6279.07
443.30	6287.26
443.51	6358.94
443.72	6539.16
443.93	6381.47
444.14	6561.69
444.35	6299.55
444.56	6526.88
444.77	6547.36
444.98	6533.02
445.19	6559.64
445.40	6590.36
445.61	6383.52
445.81	6795.16
446.02	6616.99
446.23	6715.29
446.44	6457.25
446.65	6619.04
446.86	6659.99
447.07	6868.89
447.28	6776.73
447.49	6944.66
447.70	6703.00
447.91	6981.53
448.12	6856.60
448.33	6967.19
448.54	7022.48
448.74	6983.57
448.95	6963.09
449.16	6832.02
449.37	7212.95
449.58	7059.35
449.79	7282.58
450.00	7016.34
450.21	7239.57
450.42	7294.86
450.63	7348.11
450.84	7233.43
451.05	7268.24
451.25	7188.37
451.46	7143.32
451.67	7374.74
451.88	7528.33
452.09	7366.54
452.30	7432.08
452.51	7294.86
452.72	7575.44
452.93	7690.12
453.13	7454.61
453.34	7542.67
453.55	7593.87
453.76	7446.41
453.97	7888.78
454.18	7726.99
454.39	7749.51
454.60	7694.22
454.81	7837.58
455.01	7903.11
455.22	7698.31
455.43	7794.57
455.64	8003.46
455.85	8243.07
456.06	8277.89
456.27	8140.68
456.48	7999.37
456.68	8038.28
456.89	7962.50
457.10	8243.07
457.31	8306.56
457.52	8281.99
457.73	8398.72
457.94	8439.68
458.14	8232.83
458.35	8494.97
458.56	8554.37
458.77	8320.90
458.98	8757.11
459.19	8445.82
459.39	8691.58
459.60	8886.14
459.81	8568.70
460.02	8968.06
460.23	8855.42
460.44	8961.91
460.65	9011.06
460.85	9148.28
461.06	9019.25
461.27	8843.13
461.48	9256.82
461.69	9312.11
461.89	8941.43
462.10	9166.71
462.31	9174.90
462.52	9103.22
462.73	9242.48
462.94	9471.86
463.14	9391.98
463.35	9400.18
463.56	9873.26
463.77	9772.91
463.98	9613.17
464.18	9629.55
464.39	9822.06
464.60	9936.74
464.81	9922.41
465.02	9879.40
465.23	10153.83
465.43	9873.26
465.64	10321.76
465.85	10196.84
466.06	10104.68
466.27	10524.51
466.47	10289.00
466.68	10340.19
466.89	10495.84
467.10	10645.34
467.30	10227.56
467.51	10620.77
467.72	10884.95
467.93	10479.46
468.14	10538.85
468.34	10864.47
468.55	10985.30
468.76	10837.85
468.97	10882.91
469.17	11243.35
469.38	11194.20
469.59	11382.61
469.80	11181.91
470.01	11067.22
470.21	11347.79
470.42	11616.08
470.63	11642.70
470.84	11689.81
471.04	11601.74
471.25	11913.03
471.46	11659.09
471.67	12115.78
471.87	12089.16
472.08	11966.28
472.29	12293.96
472.50	11980.62
472.70	12113.74
472.91	12328.77
473.12	12554.05
473.33	12306.24
473.53	12439.36
473.74	12562.24
473.95	12658.49
474.16	12996.41
474.36	12885.82
474.57	13242.17
474.78	13233.97
474.99	12977.98
475.19	13125.43
475.40	13397.81
475.61	13162.30
475.81	13444.91
476.02	13741.87
476.23	13578.03
476.44	13868.84
476.64	13745.97
476.85	14122.79
477.06	14024.49
477.27	14278.44
477.47	14325.54
477.68	14210.86
477.89	14460.71
478.09	14556.96
478.30	14520.10
478.51	14640.93
478.71	14874.40
478.92	14747.42
479.13	14991.13
479.34	15286.04
479.54	15089.43
479.75	15240.98
479.96	15224.60
480.16	15288.09
480.37	15525.65
480.58	15675.15
480.78	15884.05
480.99	15513.36
481.20	16047.88
481.41	15861.52
481.61	16074.51
481.82	16207.62
482.03	16019.21
482.23	16267.02
482.44	16625.41
482.65	16604.93
482.85	16731.90
483.06	16572.16
483.27	16832.26
483.47	16764.67
483.68	17174.27
483.89	17194.75
484.09	16996.09
484.30	17188.60
484.51	17559.28
484.71	17608.44
484.92	17567.48
485.13	17723.12
485.33	17729.27
485.54	17872.62
485.75	18296.55
485.95	18116.33
486.16	18171.63
486.37	18507.49
486.57	18235.11
486.78	18245.35
486.98	18278.12
487.19	18712.29
487.40	18638.56
487.60	18667.24
487.81	18984.67
488.02	18974.43
488.22	19123.93
488.43	19181.28
488.64	19353.30
488.84	19404.50
489.05	19766.99
489.25	19271.39
489.46	19932.88
489.67	19635.92
489.87	19828.43
490.08	19994.32
490.29	20043.47
490.49	20129.48
490.70	20195.02
490.90	20440.78
491.11	20276.94
491.32	20469.45
491.52	20606.66
491.73	20606.66
491.94	20606.66
492.14	20719.30
492.35	21040.83
492.55	21167.80
492.76	21247.68
492.97	21454.52
493.17	21149.37
493.38	21558.97
493.58	21692.08
493.79	21423.80
494.00	21417.66
494.20	21624.50
494.41	22021.81
494.61	21882.55
494.82	22060.72
495.02	22124.21
495.23	21870.26
495.44	22124.21
495.64	22511.27
495.85	22548.14
496.05	22541.99
496.26	22447.79
496.47	22943.39
496.67	22515.37
496.88	23070.37
497.08	22472.36
497.29	23285.40
497.49	22863.52
497.70	23178.91
497.91	23348.89
498.11	23410.33
498.32	23508.63
498.52	23598.74
498.73	23758.49
498.93	23774.87
499.14	23920.28
499.34	24071.82
499.55	24178.32
499.76	24170.13
499.96	24012.43
500.17	23932.56
500.37	24319.63
500.58	24286.86
500.78	24305.29
500.99	24434.32
501.19	24616.58
501.40	24747.65
501.60	24637.06
501.81	24723.08
502.02	24807.05
502.22	24561.29
502.43	25093.76
502.63	24913.54
502.84	25341.57
503.04	24911.49
503.25	24987.27
503.45	25337.47
503.66	25624.18
503.86	25419.39
504.07	25745.02
504.27	25376.38
504.48	25849.46
504.68	25595.51
504.89	26033.78
505.09	25933.43
505.30	25683.58
505.50	25951.86
505.71	26041.97
505.91	26056.31
506.12	26240.62
506.32	26289.77
506.53	26164.85
506.73	26173.04
506.94	26369.65
507.14	26502.76
507.35	26629.74
507.55	26508.91
507.76	26785.38
507.96	26443.37
508.17	26773.10
508.37	26926.69
508.58	26992.23
508.78	26756.71
508.99	27266.66
509.19	27283.04
509.40	27397.73
509.60	27033.19
509.81	27201.12
510.01	27137.63
510.22	27317.86
510.42	27080.29
510.63	27442.78
510.83	27276.90
511.04	27666.01
511.24	27801.18
511.44	27639.39
511.65	27604.57
511.85	27545.18
512.06	28065.36
512.26	28175.95
512.47	28139.09
512.67	28022.36
512.88	27772.50
513.08	27967.06
513.29	28667.47
513.49	27883.09
513.69	28337.74
513.90	28503.63
514.10	28552.78
514.31	28612.17
514.51	28661.32
514.72	28665.42
514.92	28595.79
515.13	28702.28
515.33	28724.81
515.53	28636.75
515.74	28907.08
515.94	29267.52
516.15	28929.61
516.35	28900.94
516.56	29611.58
516.76	28993.09
516.96	29132.36
517.17	29460.03
517.37	29275.71
517.58	29537.85
517.78	29580.86
517.99	29793.85
518.19	29748.79
518.39	29599.29
518.60	29943.35
518.80	29871.67
519.01	29816.38
519.21	29902.39
519.41	30279.22
519.62	29906.49
519.82	30223.92
520.03	30180.92
520.23	30250.55
520.43	29996.60
520.64	30469.68
520.84	30615.08
521.05	30643.76
521.25	30821.93
521.45	30858.79
521.66	30883.37
521.86	30727.72
522.07	30967.34
522.27	30932.52
522.47	31127.08
522.68	31409.70
522.88	31114.79
523.08	31485.47
523.29	31397.41
523.49	31503.90
523.70	31544.86
523.90	31532.57
524.10	32106.01
524.31	31809.05
524.51	31475.23
524.71	32292.37
524.92	31997.46
525.12	32253.46
525.33	32065.05
525.53	32448.02
525.73	32568.85
525.94	32398.87
526.14	32540.18
526.34	32587.28
526.55	32816.65
526.75	32777.74
526.95	33224.20
527.16	32595.47
527.36	33000.97
527.56	33207.81
527.77	33439.23
527.97	33463.81
528.17	33314.31
528.38	33748.48
528.58	33353.22
528.78	33603.07
528.99	33644.03
529.19	33684.99
529.39	33877.50
529.60	34260.47
529.80	33979.90
530.00	34291.19
530.21	34551.28
530.41	34579.95
530.61	34293.24
530.82	34569.71
531.02	34723.31
531.22	34538.99
531.43	34700.78
531.63	34991.59
531.83	35210.73
532.04	35259.88
532.24	35075.56
532.44	35722.72
532.64	35433.96
532.85	35780.06
533.05	35495.39
533.25	35648.99
533.46	35509.73
533.66	35851.74
533.86	35743.20
534.07	36302.29
534.27	36064.73
534.47	36144.60
534.67	36658.64
534.88	36109.78
535.08	36363.73
535.28	36644.30
535.49	36599.25
535.69	37178.82
535.89	36855.25
536.09	37205.45
536.30	37225.93
536.50	36941.26
536.70	37649.86
536.91	37619.14
537.11	37561.79
537.31	37496.26
537.51	37776.83
537.72	38026.68
537.92	38358.45
538.12	38208.95
538.32	38243.77
538.53	38548.92
538.73	38108.60
538.93	38151.61
539.13	38067.64
539.34	38348.21
539.54	38409.65
539.74	38690.23
539.94	38725.04
540.15	38487.48
540.35	38796.72
540.55	39073.20
540.75	38669.75
540.96	39140.78
541.16	38962.61
541.36	39548.32
541.56	39259.56
541.77	39675.30
541.97	39302.57
542.17	39441.83
542.37	39632.29
542.58	39677.35
542.78	39333.29
542.98	39746.98
543.18	39800.22
543.38	40025.50
543.59	40099.23
543.79	39941.53
543.99	40009.12
544.19	40416.66
544.40	40670.61
544.60	40816.02
544.80	40439.19
545.00	40760.72
545.20	40527.25
545.41	40557.97
545.61	40498.58
545.81	40770.96
546.01	40973.71
546.21	40750.48
546.42	41000.33
546.62	41276.81
546.82	40930.70
547.02	41366.92
547.22	41250.19
547.43	41342.35
547.63	41383.30
547.83	41649.54
548.03	41657.73
548.23	41774.47
548.44	41657.73
548.64	42093.95
548.84	41606.53
549.04	41956.74
549.24	42104.19
549.45	42431.86
549.65	41973.12
549.85	41874.82
550.05	42407.29
550.25	42001.79
550.45	42341.75
550.66	42227.07
550.86	42245.50
551.06	42276.22
551.26	42487.16
551.46	42409.34
551.66	42513.78
551.87	42632.57
552.07	42741.11
552.27	42956.14
552.47	42890.61
552.67	43244.91
552.87	42452.34
553.07	42870.13
553.28	42792.31
553.48	43402.60
553.68	43279.72
553.88	43425.13
554.08	43289.96
554.28	43365.74
554.48	43040.11
554.69	43337.07
554.89	43296.11
555.09	43912.55
555.29	43554.15
555.49	43865.44
555.69	43533.67
555.89	43455.85
556.10	44281.18
556.30	43408.75
556.50	43740.52
556.70	43625.83
556.90	43619.69
557.10	43867.49
557.30	43939.17
557.50	43887.97
557.70	44023.14
557.91	44098.91
558.11	44109.15
558.31	44275.04
558.51	44006.75
558.71	44215.65
558.91	44029.28
559.11	44266.84
559.31	43949.41
559.51	43814.24
559.72	44291.42
559.92	44825.94
560.12	44342.62
560.32	44455.26
560.52	44512.60
560.72	44809.56
560.92	44711.25
561.12	44725.59
561.32	44983.63
561.52	44516.70
561.72	44827.99
561.93	45294.92
562.13	45049.17
562.33	44893.52
562.53	45466.95
562.73	44801.36
562.93	45110.61
563.13	45319.50
563.33	45227.34
563.53	45348.17
563.73	45225.29
563.93	44832.08
564.13	45530.44
564.33	45393.23
564.53	45546.82
564.74	45731.14
564.94	45397.32
565.14	45851.97
565.34	45528.39
565.54	45845.83
565.74	45387.08
565.94	45915.46
566.14	45765.96
566.34	46038.34
566.54	45991.23
566.74	45770.05
566.94	45524.30
567.14	45851.97
567.34	45581.64
567.54	46306.62
567.74	45966.66
567.94	46263.61
568.14	46175.55
568.34	46357.82
568.54	46296.38
568.74	46898.48
568.94	46036.29
569.14	46832.95
569.34	46431.55
569.54	46323.01
569.75	45917.51
569.95	46394.68
570.15	46937.40
570.35	46785.85
570.55	46738.74
570.75	46505.27
570.95	46685.50
571.15	46906.68
571.35	47011.12
571.55	46867.76
571.75	46535.99
571.95	46976.31
572.15	46753.08
572.35	47383.85
572.55	47242.54
572.75	47129.90
572.95	47455.53
573.15	47596.84
573.35	47295.79
573.55	47041.84
573.75	47109.43
573.95	47539.50
574.15	47740.20
574.35	47707.43
574.55	47803.69
574.75	47195.44
574.95	47623.47
575.15	47361.33
575.34	47985.96
575.54	47754.54
575.74	47424.81
575.94	48102.69
576.14	47775.02
576.34	48250.14
576.54	47945.00
576.74	48190.75
576.94	48096.55
577.14	48362.78
577.34	48241.95
577.54	48184.61
577.74	48217.38
577.94	48323.87
578.14	48413.98
578.34	48684.31
578.54	47846.69
578.74	47904.04
578.94	48456.99
579.14	48520.48
579.34	48631.07
579.54	49007.89
579.74	49102.10
579.94	48692.50
580.13	48887.06
580.33	49186.07
580.53	49161.49
580.73	49329.42
580.93	48704.79
581.13	48964.88
581.33	49249.55
581.53	49876.23
581.73	49323.28
581.93	49788.17
582.13	49622.28
582.33	49497.36
582.53	49579.28
582.73	49933.57
582.92	50013.44
583.12	49300.75
583.32	49380.62
583.52	49599.76
583.72	49906.95
583.92	49906.95
584.12	50054.40
584.32	50498.81
584.52	49943.81
584.72	50119.94
584.92	50289.92
585.11	50517.25
585.31	50453.76
585.51	50595.07
585.71	50050.31
585.91	50920.70
586.11	50189.57
586.31	50629.88
586.51	50875.64
586.71	50783.48
586.91	50416.89
587.10	50689.27
587.30	50431.23
587.50	50769.15
587.70	51221.75
587.90	50877.69
588.10	50996.47
588.30	50967.80
588.50	51305.71
