SpectraSuite Data File
++++++++++++++++++++++++++++++++++++
Date: Fri Jun 02 14:49:27 CEST 2017
User: INFO_000
Dark Spectrum Present: No
Reference Spectrum Present: No
Number of Sampled Component Spectra: 1
Spectrometers: USB4H00879
Integration Time (usec): 80000 (USB4H00879)
Spectra Averaged: 1 (USB4H00879)
Boxcar Smoothing: 0 (USB4H00879)
Correct for Electrical Dark: No (USB4H00879)
Strobe/Lamp Enabled: No (USB4H00879)
Correct for Detector Non-linearity: No (USB4H00879)
Correct for Stray Light: No (USB4H00879)
Number of Pixels in Processed Spectrum: 3648
>>>>>Begin Processed Spectral Data<<<<<
345.13	1257.45
345.34	1257.45
345.56	1257.45
345.78	1277.93
345.99	1343.47
346.21	1673.19
346.42	1675.24
346.64	1728.49
346.86	1839.08
347.07	1646.57
347.29	1679.33
347.50	1693.67
347.72	1703.91
347.94	1759.21
348.15	1572.84
348.37	1658.85
348.59	1714.15
348.80	1644.52
349.02	1816.55
349.23	1855.46
349.45	1814.50
349.67	1906.66
349.88	1765.35
350.10	1972.19
350.31	1789.92
350.53	1859.56
350.75	1941.47
350.96	1771.49
351.18	1861.60
351.39	1888.23
351.61	1775.59
351.82	1884.13
352.04	1927.14
352.26	1896.42
352.47	1970.15
352.69	1992.67
352.90	1734.63
353.12	1822.69
353.34	1845.22
353.55	1898.47
353.77	1908.71
353.98	1859.56
354.20	1843.17
354.41	1894.37
354.63	1890.28
354.85	2009.06
355.06	1898.47
355.28	1806.31
355.49	1789.92
355.71	1904.61
355.92	1894.37
356.14	1923.04
356.35	1869.80
356.57	1826.79
356.79	1937.38
357.00	1808.36
357.22	1894.37
357.43	1837.03
357.65	1949.67
357.86	1923.04
358.08	1937.38
358.29	1959.91
358.51	2002.91
358.72	1964.00
358.94	1976.29
359.16	1951.71
359.37	1914.85
359.59	1894.37
359.80	1939.43
360.02	1970.15
360.23	1986.53
360.45	2021.35
360.66	1902.56
360.88	1882.08
361.09	1910.75
361.31	1957.86
361.52	1957.86
361.74	2066.40
361.95	2074.59
362.17	1898.47
362.38	2121.70
362.60	2029.54
362.81	1933.28
363.03	1873.89
363.24	2033.63
363.46	2113.50
363.67	2062.30
363.89	2064.35
364.10	2011.11
364.32	1894.37
364.53	1994.72
364.75	1968.10
364.96	1998.82
365.18	1986.53
365.39	2050.02
365.61	1986.53
365.82	2103.26
366.04	1980.39
366.25	1964.00
366.47	2072.54
366.68	1982.43
366.90	2009.06
367.11	2033.63
367.33	2060.26
367.54	2127.84
367.76	1984.48
367.97	2107.36
368.19	2035.68
368.40	2107.36
368.62	1994.72
368.83	2007.01
369.05	1994.72
369.26	2017.25
369.48	1972.19
369.69	2050.02
369.91	2121.70
370.12	1994.72
370.33	2101.22
370.55	2009.06
370.76	2043.87
370.98	2021.35
371.19	2017.25
371.41	2002.91
371.62	2156.51
371.84	1976.29
372.05	2158.56
372.27	2047.97
372.48	2052.06
372.69	2052.06
372.91	2181.09
373.12	2232.29
373.34	2103.26
373.55	2189.28
373.77	2187.23
373.98	2156.51
374.20	2136.03
374.41	2289.63
374.62	2076.64
374.84	2160.61
375.05	2203.61
375.27	2045.92
375.48	2093.02
375.70	2160.61
375.91	2097.12
376.12	2228.19
376.34	2043.87
376.55	2109.41
376.77	2101.22
376.98	2179.04
377.19	2076.64
377.41	2199.52
377.62	2154.46
377.84	2162.66
378.05	2263.01
378.27	2160.61
378.48	2295.77
378.69	2379.74
378.91	2389.98
379.12	2301.92
379.34	2220.00
379.55	2258.91
379.76	2260.96
379.98	2232.29
380.19	2252.77
380.41	2314.20
380.62	2295.77
380.83	2238.43
381.05	2099.17
381.26	2392.03
381.47	2230.24
381.69	2301.92
381.90	2346.97
382.12	2279.39
382.33	2297.82
382.54	2306.01
382.76	2265.05
382.97	2371.55
383.19	2199.52
383.40	2355.16
383.61	2314.20
383.83	2289.63
384.04	2326.49
384.25	2332.64
384.47	2408.41
384.68	2344.92
384.89	2385.88
385.11	2355.16
385.32	2306.01
385.54	2289.63
385.75	2334.68
385.96	2441.18
386.18	2400.22
386.39	2416.60
386.60	2314.20
386.82	2461.66
387.03	2357.21
387.24	2432.99
387.46	2443.23
387.67	2514.91
387.88	2537.43
388.10	2480.09
388.31	2379.74
388.52	2543.58
388.74	2605.02
388.95	2463.71
389.16	2512.86
389.38	2525.15
389.59	2564.06
389.80	2547.67
390.02	2473.95
390.23	2691.03
390.44	2625.50
390.66	2510.81
390.87	2590.68
391.08	2609.11
391.30	2688.98
391.51	2582.49
391.72	2721.75
391.94	2666.46
392.15	2588.63
392.36	2596.82
392.58	2551.77
392.79	2658.26
393.00	2721.75
393.22	2664.41
393.43	2670.55
393.64	2734.04
393.85	2693.08
394.07	2676.70
394.28	2744.28
394.49	2713.56
394.71	2701.27
394.92	2842.58
395.13	2697.17
395.35	2729.94
395.56	2654.17
395.77	2699.22
395.98	2811.86
396.20	2863.06
396.41	2809.81
396.62	2813.91
396.84	2820.05
397.05	2699.22
397.26	2836.44
397.47	2901.97
397.69	2705.37
397.90	3000.27
398.11	2942.93
398.32	2799.57
398.54	2846.68
398.75	2836.44
398.96	2879.44
399.18	3008.47
399.39	2983.89
399.60	3051.47
399.81	2918.36
400.03	2973.65
400.24	3248.08
400.45	2912.21
400.66	3010.51
400.88	3002.32
401.09	3170.26
401.30	3030.99
401.51	3151.82
401.73	3110.86
401.94	3123.15
402.15	3194.83
402.36	2992.08
402.58	3151.82
402.79	3213.26
403.00	3123.15
403.21	3186.64
403.43	3180.50
403.64	3196.88
403.85	3059.67
404.06	3170.26
404.27	3016.66
404.49	3207.12
404.70	3092.43
404.91	3303.37
405.12	3182.54
405.34	3186.64
405.55	3317.71
405.76	3092.43
405.97	3340.24
406.19	3309.52
406.40	3235.79
406.61	3346.38
406.82	3344.33
407.03	3186.64
407.25	3272.65
407.46	3383.24
407.67	3487.69
407.88	3516.36
408.09	3375.05
408.31	3301.33
408.52	3373.00
408.73	3282.89
408.94	3319.76
409.15	3362.76
409.37	3442.64
409.58	3532.75
409.79	3481.55
410.00	3545.03
410.21	3432.40
410.43	3309.52
410.64	3377.10
410.85	3459.02
411.06	3540.94
411.27	3530.70
411.48	3551.18
411.70	3407.82
411.91	3610.57
412.12	3624.90
412.33	3590.09
412.54	3555.27
412.76	3676.10
412.97	3692.49
413.18	3641.29
413.39	3596.23
413.60	3594.19
413.81	3657.67
414.03	3561.42
414.24	3614.66
414.45	3782.60
414.66	3524.55
414.87	3712.97
415.08	3723.21
415.30	3715.02
415.51	3692.49
415.72	3727.30
415.93	3743.69
416.14	3841.99
416.35	3723.21
416.56	3860.42
416.78	3729.35
416.99	3809.22
417.20	3866.56
417.41	3911.62
417.62	3837.89
417.83	3862.47
418.04	3715.02
418.26	3938.24
418.47	3909.57
418.68	4030.40
418.89	3899.33
419.10	4181.95
419.31	3928.00
419.52	4102.08
419.73	3956.68
419.95	3971.01
420.16	3940.29
420.37	4085.70
420.58	4140.99
420.79	3938.24
421.00	4028.35
421.21	4204.48
421.42	4020.16
421.63	4153.28
421.85	4022.21
422.06	4216.77
422.27	4194.24
422.48	4140.99
422.69	4200.38
422.90	4227.01
423.11	4224.96
423.32	4304.83
423.53	4415.42
423.75	4284.35
423.96	4327.36
424.17	4313.02
424.38	4460.48
424.59	4362.17
424.80	4536.25
425.01	4478.91
425.22	4442.04
425.43	4517.82
425.64	4599.74
425.85	4657.08
426.06	4583.35
426.28	4499.39
426.49	4521.92
426.70	4419.52
426.91	4564.92
427.12	4603.83
427.33	4624.31
427.54	4521.92
427.75	4712.38
427.96	4845.49
428.17	4698.04
428.38	4759.48
428.59	4792.25
428.80	4716.47
429.01	4855.73
429.23	4712.38
429.44	5019.57
429.65	4855.73
429.86	4845.49
430.07	4810.68
430.28	4794.29
430.49	4906.93
430.70	4958.13
430.91	5113.78
431.12	4990.90
431.33	5046.20
431.54	5156.79
431.75	5142.45
431.96	5164.98
432.17	5113.78
432.38	5119.92
432.59	5328.81
432.80	5191.60
433.01	5091.25
433.22	5232.56
433.43	5210.03
433.64	5201.84
433.85	5025.72
434.06	5246.90
434.27	5283.76
434.49	5337.01
434.70	5447.60
434.91	5425.07
435.12	5420.97
435.33	5349.29
435.54	5242.80
435.75	5207.98
435.96	5343.15
436.17	5334.96
436.38	5560.24
436.59	5586.86
436.80	5406.64
437.01	5828.52
437.22	5652.39
437.43	5633.96
437.64	5654.44
437.85	5597.10
438.06	5762.98
438.27	5572.52
438.48	5672.87
438.69	5775.27
438.90	5756.84
439.11	5656.49
439.32	5822.38
439.53	5681.07
439.74	5808.04
439.95	5939.11
440.16	5703.59
440.37	5910.44
440.57	5803.94
440.78	5783.46
440.99	5805.99
441.20	5975.97
441.41	5871.53
441.62	6025.12
441.83	5859.24
442.04	6012.84
442.25	6148.00
442.46	5963.68
442.67	6158.24
442.88	6465.44
443.09	5955.49
443.30	6021.03
443.51	6031.27
443.72	6389.66
443.93	6051.75
444.14	6426.53
444.35	6084.52
444.56	6266.78
444.77	6145.95
444.98	6303.65
445.19	6213.54
445.40	6291.36
445.61	6381.47
445.81	6438.81
446.02	6533.02
446.23	6469.53
446.44	6252.45
446.65	6559.64
446.86	6414.24
447.07	6600.60
447.28	6614.94
447.49	6811.54
447.70	6393.76
447.91	6510.49
448.12	6633.37
448.33	6846.36
448.54	6639.51
448.74	6580.12
448.95	6834.07
449.16	6649.75
449.37	7028.63
449.58	6844.31
449.79	7081.88
450.00	6797.21
450.21	6774.68
450.42	6967.19
450.63	6881.18
450.84	6848.41
451.05	6952.85
451.25	6836.12
451.46	6897.56
451.67	7106.45
451.88	7116.69
452.09	7036.82
452.30	6995.86
452.51	6987.67
452.72	7225.23
452.93	7380.88
453.13	6965.14
453.34	7094.16
453.55	7255.95
453.76	7475.09
453.97	7528.33
454.18	7470.99
454.39	7387.02
454.60	7442.32
454.81	7532.43
455.01	7628.68
455.22	7272.34
455.43	7561.10
455.64	7935.88
455.85	7806.86
456.06	8066.95
456.27	7769.99
456.48	7792.52
456.68	7759.75
456.89	7755.66
457.10	8085.38
457.31	7878.54
457.52	7798.66
457.73	7950.21
457.94	8269.70
458.14	7853.96
458.35	8353.66
458.56	8152.96
458.77	8245.12
458.98	8320.90
459.19	8300.42
459.39	8267.65
459.60	8363.90
459.81	8353.66
460.02	8443.78
460.23	8654.72
460.44	8556.41
460.65	8595.32
460.85	8701.82
461.06	8697.72
461.27	8507.26
461.48	8998.77
461.69	8931.19
461.89	8425.34
462.10	8906.62
462.31	8443.78
462.52	8791.93
462.73	8923.00
462.94	8998.77
463.14	8845.18
463.35	8836.99
463.56	9564.01
463.77	9277.30
463.98	9135.99
464.18	9142.13
464.39	9437.04
464.60	9566.06
464.81	9428.85
465.02	9363.31
465.23	9699.18
465.43	9389.94
465.64	9693.04
465.85	9660.27
466.06	9570.16
466.27	9901.93
466.47	9922.41
466.68	9772.91
466.89	9957.22
467.10	10053.48
467.30	9809.77
467.51	10018.66
467.72	10221.41
467.93	10125.16
468.14	10293.09
468.34	10354.53
468.55	10479.46
468.76	10432.35
468.97	10227.56
469.17	10565.47
469.38	10446.69
469.59	10717.02
469.80	10655.58
470.01	10585.95
470.21	10555.23
470.42	10940.25
470.63	10968.92
470.84	10905.43
471.04	11063.13
471.25	10964.82
471.46	10942.30
471.67	11245.40
471.87	11364.18
472.08	11120.47
472.29	11530.06
472.50	11102.04
472.70	11472.72
472.91	11370.32
473.12	11650.89
473.33	11839.31
473.53	11833.16
473.74	11917.13
473.95	11874.12
474.16	12134.21
474.36	12234.57
474.57	12345.16
474.78	12420.93
474.99	12394.31
475.19	12375.88
475.40	12576.58
475.61	12523.33
475.81	12826.43
476.02	12869.44
476.23	12808.00
476.44	13010.75
476.64	13102.90
476.85	13281.08
477.06	13233.97
477.27	13475.63
477.47	13487.92
477.68	13629.23
477.89	13575.98
478.09	13514.55
478.30	13743.92
478.51	13688.62
478.71	13819.69
478.92	14272.29
479.13	14303.01
479.34	14317.35
479.54	14370.60
479.75	14378.79
479.96	14122.79
480.16	14493.47
480.37	14497.57
480.58	14833.44
480.78	15140.63
480.99	14982.94
481.20	15097.63
481.41	15279.89
481.61	15329.05
481.82	15496.98
482.03	15372.05
482.23	15587.09
482.44	15421.20
482.65	15857.42
482.85	15978.25
483.06	15820.56
483.27	16156.43
483.47	16178.95
483.68	16273.16
483.89	16269.06
484.09	16189.19
484.30	16404.23
484.51	16404.23
484.71	16549.64
484.92	16719.62
485.13	16977.66
485.33	16881.41
485.54	17028.86
485.75	17204.99
485.95	16963.33
486.16	17325.82
486.37	17489.65
486.57	17221.37
486.78	17598.20
486.98	17555.19
487.19	17452.79
487.40	17833.71
487.60	17807.09
487.81	18089.71
488.02	18001.65
488.22	18247.40
488.43	18241.26
488.64	18339.56
488.84	18450.15
489.05	18626.28
489.25	18294.50
489.46	19148.51
489.67	18628.32
489.87	19054.30
490.08	19062.49
490.29	18953.95
490.49	19232.47
490.70	19152.60
490.90	19562.20
491.11	19189.47
491.32	19490.52
491.52	19451.61
491.73	19902.16
491.94	19883.73
492.14	19570.39
492.35	20231.88
492.55	20141.77
492.76	20139.72
492.97	20192.97
493.17	20154.06
493.38	20315.85
493.58	20385.48
493.79	20829.89
494.00	20692.68
494.20	21143.23
494.41	21094.08
494.61	20874.95
494.82	21008.06
495.02	21071.55
495.23	21331.64
495.44	21415.61
495.64	21442.23
495.85	21182.14
496.05	21888.69
496.26	21528.25
496.47	21731.00
496.67	21782.20
496.88	22081.20
497.08	21896.88
497.29	22095.53
497.49	22038.19
497.70	22273.71
497.91	22179.50
498.11	22601.38
498.32	22441.64
498.52	22857.38
498.73	22595.24
498.93	22312.62
499.14	22902.43
499.34	23002.78
499.55	23146.14
499.76	22826.66
499.96	23031.46
500.17	22818.47
500.37	23113.38
500.58	23195.29
500.78	23350.94
500.99	23142.05
501.19	23531.16
501.40	23707.29
501.60	23396.00
501.81	23701.14
502.02	23396.00
502.22	23660.18
502.43	24014.48
502.63	23920.28
502.84	24215.18
503.04	23920.28
503.25	23989.91
503.45	23813.78
503.66	24360.59
503.86	24184.46
504.07	24499.85
504.27	24266.38
504.48	24538.76
504.68	24630.92
504.89	24538.76
505.09	24864.39
505.30	24614.54
505.50	24641.16
505.71	24917.64
505.91	25060.99
506.12	24839.81
506.32	24790.66
506.53	25218.69
506.73	25290.37
506.94	25134.72
507.14	25179.78
507.35	25259.65
507.55	25282.17
507.76	25327.23
507.96	25306.75
508.17	25435.77
508.37	25659.00
508.58	25462.40
508.78	25476.73
508.99	25953.91
509.19	25507.45
509.40	25816.69
509.60	25988.72
509.81	25790.07
510.01	25775.73
510.22	25874.04
510.42	25931.38
510.63	26220.14
510.83	26072.69
511.04	26033.78
511.24	26199.66
511.44	26082.93
511.65	26297.97
511.85	26238.58
512.06	26453.61
512.26	26887.78
512.47	26592.87
512.67	26410.60
512.88	26658.41
513.08	26322.54
513.29	26682.98
513.49	26857.06
513.69	26580.59
513.90	26689.13
514.10	26930.79
514.31	27102.82
514.51	26945.12
514.72	26699.37
514.92	26941.03
515.13	26945.12
515.33	27418.21
515.53	27190.88
515.74	27184.74
515.94	27604.57
516.15	27522.65
516.35	27221.60
516.56	27602.52
516.76	27235.94
516.96	27600.47
517.17	27567.71
517.37	27629.15
517.58	27563.61
517.78	27792.98
517.99	27641.43
518.19	27930.20
518.39	28048.98
518.60	28077.65
518.80	27993.68
519.01	28081.75
519.21	28134.99
519.41	28202.58
519.62	28137.04
519.82	28292.69
520.03	28628.56
520.23	28337.74
520.43	28417.61
520.64	28776.01
520.84	28603.98
521.05	28563.02
521.25	28868.17
521.45	29107.78
521.66	29017.67
521.86	28931.65
522.07	29099.59
522.27	28794.44
522.47	29115.97
522.68	29206.08
522.88	29664.83
523.08	29634.11
523.29	29566.52
523.49	29621.82
523.70	29597.24
523.90	29716.03
524.10	29752.89
524.31	29906.49
524.51	29781.56
524.71	30266.93
524.92	30293.55
525.12	30254.64
525.33	30467.63
525.53	30324.27
525.73	30617.13
525.94	30662.19
526.14	30567.98
526.34	30354.99
526.55	30610.99
526.75	30662.19
526.95	30793.26
527.16	30946.86
527.36	31002.15
527.56	31370.79
527.77	31340.07
527.97	31272.48
528.17	31366.69
528.38	31569.44
528.58	31706.65
528.78	31768.09
528.99	31604.25
529.19	32323.09
529.39	31753.76
529.60	32183.83
529.80	32235.03
530.00	31733.28
530.21	32183.83
530.41	32540.18
530.61	32407.06
530.82	32503.31
531.02	32413.20
531.22	32892.43
531.43	32771.60
531.63	33109.51
531.83	33445.38
532.04	33494.53
532.24	33058.31
532.44	33441.28
532.64	33539.58
532.85	33551.87
533.05	33560.06
533.25	33777.15
533.46	33775.10
533.66	34254.33
533.86	34319.86
534.07	34362.87
534.27	34254.33
534.47	34414.07
534.67	34371.06
534.88	34350.58
535.08	34438.64
535.28	34811.37
535.49	35087.85
535.69	35001.83
535.89	34926.06
536.09	35290.60
536.30	35491.30
536.50	35601.89
536.70	35579.36
536.91	35364.32
537.11	35976.67
537.31	36193.75
537.51	35782.11
537.72	36232.66
537.92	36103.64
538.12	36353.49
538.32	35974.62
538.53	36404.69
538.73	36308.44
538.93	36638.16
539.13	36511.19
539.34	36765.14
539.54	36689.36
539.74	36836.81
539.94	36933.07
540.15	37191.11
540.35	37195.21
540.55	36787.66
540.75	37596.61
540.96	37236.17
541.16	37289.42
541.36	37483.97
541.56	37385.67
541.77	37631.43
541.97	37633.47
542.17	37928.38
542.37	37989.82
542.58	37967.29
542.78	38073.79
542.98	38167.99
543.18	38270.39
543.38	38747.57
543.59	38659.51
543.79	38553.01
543.99	38467.00
544.19	38704.56
544.40	38473.14
544.60	38788.53
544.80	38995.37
545.00	38899.12
545.20	38933.93
545.41	38958.51
545.61	39151.02
545.81	39308.71
546.01	39245.23
546.21	39273.90
546.42	39364.01
546.62	39585.19
546.82	39384.49
547.02	39478.69
547.22	39722.40
547.43	39730.59
547.63	39822.75
547.83	39916.96
548.03	39515.56
548.23	40156.57
548.44	39976.35
548.64	39851.42
548.84	40312.22
549.04	39832.99
549.24	40195.48
549.45	40689.04
549.65	39998.88
549.85	40281.50
550.05	40465.81
550.25	40332.70
550.45	40949.14
550.66	40947.09
550.86	40588.69
551.06	40707.47
551.26	40914.32
551.46	40938.90
551.66	41014.67
551.87	40551.83
552.07	41174.41
552.27	41086.35
552.47	41239.95
552.67	41227.66
552.87	40830.35
553.07	41272.71
553.28	41289.10
553.48	41676.16
553.68	41305.48
553.88	41641.35
554.08	41317.77
554.28	41432.46
554.48	41559.43
554.69	41702.79
554.89	41559.43
555.09	41299.34
555.29	41379.21
555.49	41663.88
555.69	42001.79
555.89	42028.41
556.10	41788.80
556.30	41825.67
556.50	41926.02
556.70	41883.01
556.90	42040.70
557.10	42372.47
557.30	41612.68
557.50	42098.05
557.70	42440.06
557.91	42110.33
558.11	42104.19
558.31	42489.21
558.51	42300.79
558.71	42317.18
558.91	42116.48
559.11	42108.29
559.31	42558.84
559.51	42481.02
559.72	42747.25
559.92	42050.94
560.12	42225.02
560.32	42974.58
560.52	42261.88
560.72	42685.81
560.92	42554.74
561.12	42284.41
561.32	42737.01
561.52	42700.15
561.72	42722.68
561.93	42769.78
562.13	42829.17
562.33	42749.30
562.53	43292.01
562.73	42982.77
562.93	42866.03
563.13	42718.58
563.33	43357.55
563.53	43421.03
563.73	43013.49
563.93	43144.56
564.13	43375.98
564.33	43019.63
564.53	42986.86
564.74	42960.24
564.94	42954.10
565.14	43568.49
565.34	42984.82
565.54	43226.48
565.74	42894.71
565.94	43806.05
566.14	43466.09
566.34	43052.40
566.54	43722.08
566.74	43066.73
566.94	43730.28
567.14	43904.35
567.34	43201.90
567.54	43619.69
567.74	43457.90
567.94	43308.40
568.14	43681.13
568.34	44004.70
568.54	43548.01
568.74	43765.09
568.94	43558.25
569.14	43851.11
569.34	43781.48
569.54	43599.21
569.75	43808.10
569.95	43644.26
570.15	44291.42
570.35	44107.10
570.55	44160.35
570.75	43916.64
570.95	44123.49
571.15	43990.37
571.35	44242.27
571.55	44258.65
571.75	44283.23
571.95	44520.79
572.15	44080.48
572.35	44289.37
572.55	44395.87
572.75	44209.50
572.95	44234.08
573.15	44500.31
573.35	44512.60
573.55	44320.09
573.75	44414.30
573.95	44316.00
574.15	44354.91
574.35	44557.66
574.55	44430.68
574.75	44725.59
574.95	44834.13
575.15	44719.45
575.34	44696.92
575.54	45057.36
575.74	44914.00
575.94	44735.83
576.14	44871.00
576.34	45147.47
576.54	45049.17
576.74	45286.73
576.94	44717.40
577.14	45385.04
577.34	45159.76
577.54	44944.72
577.74	45604.17
577.94	45305.16
578.14	45593.93
578.34	45956.42
578.54	44971.35
578.74	45163.85
578.94	45774.15
579.14	45331.79
579.34	45466.95
579.54	45643.08
579.74	46085.44
579.94	45681.99
580.13	45749.57
580.33	45925.70
580.53	46249.28
580.73	46122.30
580.93	45708.61
581.13	46163.26
581.33	46636.34
581.53	46212.41
581.73	46193.98
581.93	46603.58
582.13	46445.88
582.33	46593.34
582.53	46275.90
582.73	46742.84
582.92	46433.60
583.12	46939.44
583.32	46402.88
583.52	46280.00
583.72	47066.42
583.92	46728.50
584.12	46703.93
584.32	47578.41
584.52	47516.97
584.72	46746.93
584.92	47269.17
585.11	47582.51
585.31	46871.86
585.51	47535.40
585.71	46806.33
585.91	47510.83
586.11	47355.18
586.31	47430.96
586.51	47629.61
586.71	47510.83
586.91	48018.72
587.10	47748.39
587.30	47992.10
587.50	47928.61
587.70	47936.80
587.90	48184.61
588.10	48217.38
588.30	47828.26
588.50	48241.95
