SpectraSuite Data File
++++++++++++++++++++++++++++++++++++
Date: Fri Jun 02 14:49:28 CEST 2017
User: INFO_000
Dark Spectrum Present: No
Reference Spectrum Present: No
Number of Sampled Component Spectra: 1
Spectrometers: USB4H00879
Integration Time (usec): 80000 (USB4H00879)
Spectra Averaged: 1 (USB4H00879)
Boxcar Smoothing: 0 (USB4H00879)
Correct for Electrical Dark: No (USB4H00879)
Strobe/Lamp Enabled: No (USB4H00879)
Correct for Detector Non-linearity: No (USB4H00879)
Correct for Stray Light: No (USB4H00879)
Number of Pixels in Processed Spectrum: 3648
>>>>>Begin Processed Spectral Data<<<<<
345.13	1349.61
345.34	1349.61
345.56	1349.61
345.78	1279.98
345.99	1312.75
346.21	1671.14
346.42	1708.01
346.64	1683.43
346.86	1867.75
347.07	1585.13
347.29	1640.42
347.50	1581.03
347.72	1660.90
347.94	1748.97
348.15	1525.74
348.37	1650.66
348.59	1667.05
348.80	1695.72
349.02	1867.75
349.23	1943.52
349.45	1834.98
349.67	1925.09
349.88	1845.22
350.10	1902.56
350.31	1800.16
350.53	1910.75
350.75	2015.20
350.96	1738.73
351.18	1830.88
351.39	1820.64
351.61	1877.99
351.82	1867.75
352.04	1927.14
352.26	1820.64
352.47	1949.67
352.69	1875.94
352.90	1757.16
353.12	1826.79
353.34	1880.04
353.55	1976.29
353.77	1877.99
353.98	1818.60
354.20	1906.66
354.41	1896.42
354.63	1884.13
354.85	1951.71
355.06	1845.22
355.28	1779.68
355.49	1898.47
355.71	1888.23
355.92	1867.75
356.14	1925.09
356.35	1896.42
356.57	1908.71
356.79	1947.62
357.00	1845.22
357.22	1892.32
357.43	1894.37
357.65	1918.95
357.86	1880.04
358.08	1839.08
358.29	2021.35
358.51	2064.35
358.72	1959.91
358.94	1935.33
359.16	1884.13
359.37	1949.67
359.59	1920.99
359.80	1988.58
360.02	1964.00
360.23	1904.61
360.45	1966.05
360.66	1861.60
360.88	1826.79
361.09	1941.47
361.31	2015.20
361.52	1892.32
361.74	2086.88
361.95	2131.94
362.17	1939.43
362.38	2007.01
362.60	2013.15
362.81	2004.96
363.03	1947.62
363.24	2011.11
363.46	2019.30
363.67	2023.39
363.89	2017.25
364.10	1992.67
364.32	1949.67
364.53	2000.87
364.75	1908.71
364.96	2070.50
365.18	2009.06
365.39	1945.57
365.61	1935.33
365.82	2070.50
366.04	1970.15
366.25	1961.95
366.47	2052.06
366.68	2072.54
366.90	1982.43
367.11	2058.21
367.33	1976.29
367.54	2109.41
367.76	1990.63
367.97	2119.65
368.19	2017.25
368.40	2066.40
368.62	1961.95
368.83	2015.20
369.05	2068.45
369.26	2011.11
369.48	1904.61
369.69	1980.39
369.91	2009.06
370.12	2072.54
370.33	2076.64
370.55	1957.86
370.76	2023.39
370.98	2086.88
371.19	2011.11
371.41	2041.82
371.62	2066.40
371.84	1945.57
372.05	2127.84
372.27	2076.64
372.48	2054.11
372.69	2113.50
372.91	2189.28
373.12	2287.58
373.34	2136.03
373.55	2230.24
373.77	2168.80
373.98	2125.79
374.20	2109.41
374.41	2263.01
374.62	2140.13
374.84	2205.66
375.05	2240.48
375.27	2217.95
375.48	2183.13
375.70	2133.98
375.91	2179.04
376.12	2277.34
376.34	2086.88
376.55	2197.47
376.77	2271.20
376.98	2166.75
377.19	2095.07
377.41	2164.70
377.62	2168.80
377.84	2220.00
378.05	2207.71
378.27	2191.33
378.48	2330.59
378.69	2285.53
378.91	2285.53
379.12	2254.81
379.34	2201.57
379.55	2351.07
379.76	2246.62
379.98	2226.14
380.19	2301.92
380.41	2238.43
380.62	2346.97
380.83	2283.49
381.05	2181.09
381.26	2355.16
381.47	2265.05
381.69	2275.29
381.90	2437.08
382.12	2322.40
382.33	2320.35
382.54	2281.44
382.76	2281.44
382.97	2289.63
383.19	2248.67
383.40	2404.32
383.61	2303.96
383.83	2224.09
384.04	2232.29
384.25	2406.36
384.47	2371.55
384.68	2383.84
384.89	2293.72
385.11	2402.27
385.32	2367.45
385.54	2265.05
385.75	2310.11
385.96	2527.19
386.18	2441.18
386.39	2308.06
386.60	2363.36
386.82	2369.50
387.03	2408.41
387.24	2531.29
387.46	2422.75
387.67	2465.75
387.88	2453.47
388.10	2459.61
388.31	2473.95
388.52	2541.53
388.74	2447.32
388.95	2512.86
389.16	2527.19
389.38	2437.08
389.59	2631.64
389.80	2582.49
390.02	2605.02
390.23	2557.91
390.44	2473.95
390.66	2502.62
390.87	2539.48
391.08	2588.63
391.30	2699.22
391.51	2578.39
391.72	2652.12
391.94	2627.54
392.15	2584.54
392.36	2658.26
392.58	2502.62
392.79	2744.28
393.00	2703.32
393.22	2670.55
393.43	2738.13
393.64	2861.01
393.85	2693.08
394.07	2639.83
394.28	2777.05
394.49	2691.03
394.71	2852.82
394.92	2822.10
395.13	2674.65
395.35	2676.70
395.56	2738.13
395.77	2785.24
395.98	2824.15
396.20	2867.16
396.41	2770.90
396.62	2895.83
396.84	2811.86
397.05	2734.04
397.26	2791.38
397.47	2949.08
397.69	2820.05
397.90	3020.75
398.11	2922.45
398.32	2871.25
398.54	2828.24
398.75	2856.92
398.96	2924.50
399.18	2953.17
399.39	2875.35
399.60	2994.13
399.81	2953.17
400.03	3102.67
400.24	3266.51
400.45	2834.39
400.66	3051.47
400.88	2908.12
401.09	3071.95
401.30	3090.38
401.51	3123.15
401.73	3098.58
401.94	3119.06
402.15	3086.29
402.36	3067.86
402.58	3108.82
402.79	3063.76
403.00	3071.95
403.21	3166.16
403.43	3225.55
403.64	3313.61
403.85	3127.25
404.06	3229.65
404.27	3137.49
404.49	3231.69
404.70	3170.26
404.91	3305.42
405.12	3272.65
405.34	3254.22
405.55	3407.82
405.76	3102.67
405.97	3157.97
406.19	3342.28
406.40	3129.30
406.61	3289.04
406.82	3342.28
407.03	3235.79
407.25	3252.17
407.46	3344.33
407.67	3317.71
407.88	3368.91
408.09	3315.66
408.31	3403.72
408.52	3454.92
408.73	3360.72
408.94	3528.65
409.15	3469.26
409.37	3452.88
409.58	3446.73
409.79	3604.42
410.00	3469.26
410.21	3411.92
410.43	3420.11
410.64	3377.10
410.85	3522.51
411.06	3510.22
411.27	3565.51
411.48	3459.02
411.70	3485.64
411.91	3526.60
412.12	3598.28
412.33	3565.51
412.54	3594.19
412.76	3686.34
412.97	3712.97
413.18	3456.97
413.39	3583.95
413.60	3641.29
413.81	3622.86
414.03	3614.66
414.24	3684.30
414.45	3739.59
414.66	3657.67
414.87	3612.62
415.08	3737.54
415.30	3678.15
415.51	3712.97
415.72	3762.12
415.93	3659.72
416.14	3772.36
416.35	3739.59
416.56	3753.93
416.78	3700.68
416.99	3827.65
417.20	3753.93
417.41	3841.99
417.62	3895.24
417.83	3952.58
418.04	3723.21
418.26	3928.00
418.47	3868.61
418.68	3901.38
418.89	3954.63
419.10	4128.70
419.31	3928.00
419.52	3971.01
419.73	3983.30
419.95	4081.60
420.16	3934.15
420.37	4067.27
420.58	4065.22
420.79	3911.62
421.00	4075.46
421.21	4089.79
421.42	3983.30
421.63	4075.46
421.85	4040.64
422.06	4188.10
422.27	4149.18
422.48	4145.09
422.69	4214.72
422.90	4222.91
423.11	4184.00
423.32	4190.14
423.53	4325.31
423.75	4272.06
423.96	4405.18
424.17	4366.27
424.38	4440.00
424.59	4284.35
424.80	4507.58
425.01	4362.17
425.22	4411.32
425.43	4349.89
425.64	4612.03
425.85	4550.59
426.06	4401.08
426.28	4462.52
426.49	4403.13
426.70	4497.34
426.91	4487.10
427.12	4581.31
427.33	4593.59
427.54	4493.24
427.75	4655.03
427.96	4714.42
428.17	4724.66
428.38	4704.18
428.59	4833.21
428.80	4685.75
429.01	4968.37
429.23	4782.01
429.44	4986.80
429.65	4911.03
429.86	4933.56
430.07	4859.83
430.28	4698.04
430.49	4992.95
430.70	5183.41
430.91	5005.24
431.12	5085.11
431.33	5103.54
431.54	5103.54
431.75	5164.98
431.96	5103.54
432.17	5150.64
432.38	5132.21
432.59	5367.73
432.80	5201.84
433.01	5177.26
433.22	5384.11
433.43	5341.10
433.64	5298.10
433.85	5138.35
434.06	5345.20
434.27	5238.70
434.49	5414.83
434.70	5314.48
434.91	5314.48
435.12	5382.06
435.33	5468.08
435.54	5318.57
435.75	5269.42
435.96	5453.74
436.17	5361.58
436.38	5533.61
436.59	5537.71
436.80	5482.41
437.01	5810.09
437.22	5762.98
437.43	5617.58
437.64	5468.08
437.85	5703.59
438.06	5873.57
438.27	5676.97
438.48	5705.64
438.69	5812.14
438.90	5863.33
439.11	5662.63
439.32	5943.21
439.53	5773.22
439.74	5863.33
439.95	5937.06
440.16	5713.83
440.37	5939.11
440.57	5865.38
440.78	5922.73
440.99	5865.38
441.20	5926.82
441.41	5834.66
441.62	6088.61
441.83	5883.81
442.04	5937.06
442.25	5892.01
442.46	6010.79
442.67	6107.04
442.88	6520.73
443.09	6080.42
443.30	6094.76
443.51	6088.61
443.72	6311.84
443.93	5994.40
444.14	6535.07
444.35	6199.20
444.56	6389.66
444.77	6193.06
444.98	6315.94
445.19	6324.13
445.40	6305.70
445.61	6287.26
445.81	6410.14
446.02	6487.96
446.23	6492.06
446.44	6336.42
446.65	6336.42
446.86	6641.56
447.07	6481.82
447.28	6621.08
447.49	6653.85
447.70	6481.82
447.91	6727.58
448.12	6580.12
448.33	6676.38
448.54	6543.26
448.74	6580.12
448.95	6703.00
449.16	6659.99
449.37	6807.45
449.58	6727.58
449.79	7016.34
450.00	6723.48
450.21	6778.78
450.42	6965.14
450.63	6819.74
450.84	6928.28
451.05	7040.92
451.25	6989.72
451.46	6909.85
451.67	6997.91
451.88	7159.70
452.09	7040.92
452.30	6942.61
452.51	7204.75
452.72	7260.05
452.93	7505.81
453.13	7020.44
453.34	7118.74
453.55	7198.61
453.76	7274.38
453.97	7458.70
454.18	7276.43
454.39	7413.65
454.60	7380.88
454.81	7382.93
455.01	7528.33
455.22	7282.58
455.43	7481.23
455.64	7849.86
455.85	7667.60
456.06	7841.67
456.27	7671.69
456.48	7540.62
456.68	7774.09
456.89	7825.29
457.10	7980.93
457.31	7808.90
457.52	7892.87
457.73	7856.01
457.94	8132.48
458.14	7817.10
458.35	8099.72
458.56	7939.97
458.77	8202.11
458.98	8142.72
459.19	8089.48
459.39	8132.48
459.60	8292.23
459.81	8206.21
460.02	8368.00
460.23	8298.37
460.44	8681.34
460.65	8494.97
460.85	8595.32
461.06	8593.28
461.27	8265.60
461.48	8689.53
461.69	8834.94
461.89	8628.09
462.10	8761.21
462.31	8531.84
462.52	8730.49
462.73	8767.35
462.94	8902.52
463.14	9013.11
463.35	8818.55
463.56	9293.68
463.77	9246.58
463.98	8972.15
464.18	9174.90
464.39	9064.31
464.60	9516.91
464.81	9299.83
465.02	9381.74
465.23	9478.00
465.43	9508.72
465.64	9568.11
465.85	9709.42
466.06	9455.47
466.27	9889.64
466.47	9746.28
466.68	9873.26
466.89	9635.69
467.10	10004.33
467.30	9883.50
467.51	10180.45
467.72	10391.39
467.93	10002.28
468.14	10133.35
468.34	10309.47
468.55	10553.18
468.76	10383.20
468.97	10362.72
469.17	10497.89
469.38	10501.98
469.59	10897.24
469.80	10530.66
470.01	10790.75
470.21	10764.12
470.42	10915.67
470.63	11073.37
470.84	11038.55
471.04	11235.16
471.25	11181.91
471.46	11343.70
471.67	11394.90
471.87	11456.34
472.08	11489.10
472.29	11532.11
472.50	11464.53
472.70	11624.27
472.91	11792.20
473.12	11880.27
473.33	12128.07
473.53	12044.10
473.74	12136.26
473.95	12179.27
474.16	12058.44
474.36	12148.55
474.57	12414.79
474.78	12873.53
474.99	12547.90
475.19	12564.29
475.40	12842.81
475.61	12871.48
475.81	13082.42
476.02	13229.88
476.23	13094.71
476.44	13092.66
476.64	13365.04
476.85	13451.06
477.06	13309.75
477.27	13567.79
477.47	13750.06
477.68	13614.90
477.89	13907.76
478.09	13866.80
478.30	14073.64
478.51	13995.82
478.71	14155.56
478.92	14169.90
479.13	14317.35
479.34	14274.34
479.54	14509.86
479.75	14645.02
479.96	14587.68
480.16	14593.83
480.37	14919.45
480.58	14829.34
480.78	14841.63
480.99	15232.79
481.20	15335.19
481.41	15124.25
481.61	15419.16
481.82	15437.59
482.03	15382.29
482.23	15259.42
482.44	15613.71
482.65	16015.12
482.85	16365.32
483.06	15922.96
483.27	16090.89
483.47	16213.77
483.68	16183.05
483.89	16473.86
484.09	16543.49
484.30	16441.09
484.51	16750.34
484.71	16860.93
484.92	16721.66
485.13	16895.74
485.33	16846.59
485.54	16893.69
485.75	17000.19
485.95	17299.19
486.16	17360.63
486.37	17381.11
486.57	17583.86
486.78	17286.90
486.98	17514.23
487.19	17848.05
487.40	17745.65
487.60	17823.47
487.81	18036.46
488.02	17854.19
488.22	18073.32
488.43	18177.77
488.64	18345.70
488.84	18319.08
489.05	18401.00
489.25	18527.97
489.46	18798.31
489.67	18554.60
489.87	18974.43
490.08	18820.83
490.29	19164.89
490.49	19508.95
490.70	19082.97
490.90	19246.81
491.11	19353.30
491.32	19640.02
491.52	19365.59
491.73	19494.61
491.94	19644.12
492.14	19691.22
492.35	19883.73
492.55	20006.61
492.76	20039.37
492.97	20111.05
493.17	20080.33
493.38	20145.87
493.58	20238.03
493.79	20485.83
494.00	20422.34
494.20	20645.57
494.41	20508.36
494.61	20731.59
494.82	20481.74
495.02	20825.79
495.23	20960.96
495.44	20971.20
495.64	21159.61
495.85	21051.07
496.05	21208.76
496.26	21112.51
496.47	21663.41
496.67	21116.61
496.88	21657.27
497.08	21337.79
497.29	21915.31
497.49	21372.60
497.70	21847.73
497.91	21986.99
498.11	22222.51
498.32	22343.34
498.52	21909.17
498.73	22310.57
498.93	22152.88
499.14	22433.45
499.34	22548.14
499.55	22916.77
499.76	22433.45
499.96	22484.65
500.17	22900.39
500.37	22881.95
500.58	22732.45
500.78	22783.65
500.99	22994.59
501.19	23361.18
501.40	23328.41
501.60	22972.07
501.81	23094.94
502.02	23154.33
502.22	23066.27
502.43	23627.42
502.63	23625.37
502.84	23701.14
503.04	23584.41
503.25	23867.03
503.45	23744.15
503.66	24000.15
503.86	23596.70
504.07	24346.25
504.27	23660.18
504.48	24057.49
504.68	24227.47
504.89	24551.05
505.09	24376.97
505.30	24137.36
505.50	24444.56
505.71	24385.16
505.91	24526.47
506.12	24602.25
506.32	24761.99
506.53	24860.29
506.73	24858.24
506.94	25036.42
507.14	24770.18
507.35	25052.80
507.55	25104.00
507.76	24813.19
507.96	25044.61
508.17	25208.45
508.37	24893.06
508.58	25413.24
508.78	25366.14
508.99	25454.20
509.19	25634.42
509.40	25378.43
509.60	25341.57
509.81	25562.75
510.01	25880.18
510.22	25626.23
510.42	25984.63
510.63	25687.67
510.83	25976.44
511.04	25906.80
511.24	25880.18
511.44	26097.27
511.65	25925.24
511.85	26175.09
512.06	26361.45
512.26	26736.23
512.47	26359.41
512.67	26523.24
512.88	26492.52
513.08	26275.44
513.29	26867.30
513.49	26834.53
513.69	26990.18
513.90	26883.69
514.10	26934.88
514.31	26910.31
514.51	26947.17
514.72	27020.90
514.92	27229.79
515.13	27145.83
515.33	27192.93
515.53	27299.42
515.74	27280.99
515.94	27199.07
516.15	27358.81
516.35	27309.66
516.56	27901.53
516.76	27514.46
516.96	27704.92
517.17	28028.50
517.37	27526.75
517.58	27919.96
517.78	27958.87
517.99	27575.90
518.19	28421.71
518.39	28102.23
518.60	28438.09
518.80	28524.11
519.01	28560.97
519.21	28638.80
519.41	28900.94
519.62	28556.88
519.82	28767.82
520.03	28665.42
520.23	28827.21
520.43	28782.15
520.64	29230.66
520.84	29183.55
521.05	28960.33
521.25	29273.67
521.45	29408.83
521.66	29384.26
521.86	29468.22
522.07	29640.25
522.27	29556.28
522.47	29883.96
522.68	29843.00
522.88	29857.34
523.08	30223.92
523.29	30137.91
523.49	30037.56
523.70	30297.65
523.90	30334.51
524.10	30469.68
524.31	30326.32
524.51	30221.87
524.71	30909.99
524.92	30709.29
525.12	30672.43
525.33	30928.42
525.53	31039.01
525.73	31032.87
525.94	31157.80
526.14	31305.25
526.34	30938.66
526.55	31170.08
526.75	31286.82
526.95	31467.04
527.16	31718.94
527.36	31530.53
527.56	31577.63
527.77	31936.02
527.97	32011.80
528.17	32183.83
528.38	32112.15
528.58	32454.16
528.78	32364.05
528.99	32448.02
529.19	32515.60
529.39	32572.94
529.60	32669.20
529.80	32749.07
530.00	32589.33
530.21	33263.11
530.41	32921.10
530.61	32857.61
530.82	33402.37
531.02	32814.60
531.22	33449.47
531.43	33209.86
531.63	33578.50
531.83	33783.29
532.04	33863.16
532.24	33287.68
532.44	34289.14
532.64	34108.92
532.85	34223.61
533.05	33713.66
533.25	34420.21
533.46	34307.57
533.66	34493.94
533.86	34065.91
534.07	34674.16
534.27	34670.06
534.47	34891.24
534.67	34739.69
534.88	34915.82
535.08	34739.69
535.28	35175.91
535.49	35231.21
535.69	35612.13
535.89	35349.99
536.09	35550.69
536.30	35648.99
536.50	35511.78
536.70	35771.87
536.91	35511.78
537.11	35866.08
537.31	35888.60
537.51	36038.11
537.72	36298.20
537.92	36312.53
538.12	36976.08
538.32	36279.77
538.53	36685.26
538.73	36158.94
538.93	36652.50
539.13	36640.21
539.34	36967.88
539.54	36703.70
539.74	37170.63
539.94	36580.82
540.15	36666.83
540.35	37506.50
540.55	36830.67
540.75	37062.09
540.96	37184.97
541.16	37137.87
541.36	37438.92
541.56	37283.27
541.77	37455.30
541.97	37727.68
542.17	37699.01
542.37	37537.22
542.58	37778.88
542.78	37463.49
542.98	37604.80
543.18	37926.33
543.38	38233.53
543.59	37686.72
543.79	38131.13
543.99	37877.18
544.19	38215.10
544.40	37907.90
544.60	38499.76
544.80	38327.74
545.00	38188.47
545.20	38610.35
545.41	38772.14
545.61	38757.81
545.81	38854.06
546.01	38837.68
546.21	38751.66
546.42	38606.26
546.62	39220.65
546.82	38485.43
547.02	38925.74
547.22	39155.11
547.43	39099.82
547.63	39177.64
547.83	38972.85
548.03	38757.81
548.23	39533.99
548.44	39282.09
548.64	39667.11
548.84	39495.08
549.04	39441.83
549.24	39493.03
549.45	39769.51
549.65	39523.75
549.85	39697.83
550.05	39859.62
550.25	39587.24
550.45	40285.59
550.66	39693.73
550.86	39648.68
551.06	40224.15
551.26	39929.25
551.46	40154.52
551.66	39937.44
551.87	40086.94
552.07	39871.90
552.27	40076.70
552.47	40248.73
552.67	40246.68
552.87	40271.26
553.07	40492.44
553.28	40320.41
553.48	40351.13
553.68	40211.87
553.88	40773.01
554.08	40613.27
554.28	40725.91
554.48	40441.24
554.69	40484.25
554.89	40762.77
555.09	41065.87
555.29	40752.53
555.49	40793.49
555.69	40764.82
555.89	41123.21
556.10	41342.35
556.30	40779.15
556.50	41123.21
556.70	41502.09
556.90	41194.89
557.10	40992.14
557.30	41018.77
557.50	41287.05
557.70	41135.50
557.91	41672.07
558.11	41334.15
558.31	41387.40
558.51	41461.13
558.71	41407.88
558.91	41493.89
559.11	41340.30
559.31	41729.41
559.51	41504.13
559.72	41702.79
559.92	41612.68
560.12	41340.30
560.32	41772.42
560.52	41571.72
560.72	41901.44
560.92	41874.82
561.12	42139.00
561.32	42739.06
561.52	41710.98
561.72	42382.71
561.93	41983.36
562.13	42288.51
562.33	42014.08
562.53	42417.53
562.73	42016.13
562.93	42132.86
563.13	42542.45
563.33	42462.58
563.53	42311.03
563.73	41790.85
563.93	42403.19
564.13	42696.05
564.33	42483.06
564.53	42575.22
564.74	42775.92
564.94	42337.66
565.14	42773.88
565.34	42235.26
565.54	42554.74
565.74	42900.85
565.94	43349.35
566.14	42853.75
566.34	42534.26
566.54	43128.17
566.74	42663.28
566.94	43107.69
567.14	43345.26
567.34	43062.64
567.54	43332.97
567.74	42882.42
567.94	43091.31
568.14	43302.25
568.34	43138.41
568.54	43914.59
568.74	43507.05
568.94	43642.21
569.14	43912.55
569.34	43457.90
569.54	43650.41
569.75	43593.06
569.95	43574.63
570.15	43830.63
570.35	44100.96
570.55	43824.48
570.75	44447.07
570.95	43955.55
571.15	43980.13
571.35	44049.76
571.55	44346.72
571.75	44344.67
571.95	44100.96
572.15	44002.66
572.35	44428.63
572.55	44227.93
572.75	44377.43
572.95	44750.17
573.15	44653.91
573.35	44840.28
573.55	44328.28
573.75	44832.08
573.95	44924.24
574.15	44576.09
574.35	45006.16
574.55	44770.64
574.75	44799.32
574.95	44977.49
575.15	44903.76
575.34	44866.90
575.54	45352.27
575.74	45159.76
575.94	45258.06
576.14	45253.97
576.34	45456.71
576.54	45847.88
576.74	45770.05
576.94	45655.37
577.14	46306.62
577.34	46097.73
577.54	46136.64
577.74	45722.95
577.94	45929.80
578.14	45999.43
578.34	46226.75
578.54	45454.67
578.74	46363.96
578.94	46433.60
579.14	46232.89
579.34	45946.18
579.54	46380.35
579.74	46773.56
579.94	46513.47
580.13	46589.24
580.33	46597.43
580.53	47043.89
580.73	46787.89
580.93	47025.46
581.13	47039.79
581.33	47299.89
581.53	47281.45
581.73	47111.47
581.93	47426.86
582.13	47338.80
582.33	47191.34
582.53	47041.84
582.73	47744.30
582.92	47408.43
583.12	47539.50
583.32	47289.65
583.52	47549.74
583.72	47785.25
583.92	47613.23
584.12	47795.49
584.32	48342.30
584.52	47707.43
584.72	48442.65
584.92	48413.98
585.11	48377.12
585.31	48291.10
585.51	48317.73
585.71	48082.21
585.91	48561.44
586.11	48364.83
586.31	48266.53
586.51	48667.93
586.71	48526.62
586.91	49184.02
587.10	49083.67
587.30	48956.69
587.50	48825.62
587.70	49014.04
587.90	48749.85
588.10	48846.10
588.30	49141.01
588.50	49089.81
