SpectraSuite Data File
++++++++++++++++++++++++++++++++++++
Date: Fri Jun 02 14:49:27 CEST 2017
User: INFO_000
Dark Spectrum Present: No
Reference Spectrum Present: No
Number of Sampled Component Spectra: 1
Spectrometers: USB4H00879
Integration Time (usec): 80000 (USB4H00879)
Spectra Averaged: 1 (USB4H00879)
Boxcar Smoothing: 0 (USB4H00879)
Correct for Electrical Dark: No (USB4H00879)
Strobe/Lamp Enabled: No (USB4H00879)
Correct for Detector Non-linearity: No (USB4H00879)
Correct for Stray Light: No (USB4H00879)
Number of Pixels in Processed Spectrum: 3648
>>>>>Begin Processed Spectral Data<<<<<
345.13	1351.66
345.34	1351.66
345.56	1351.66
345.78	1206.25
345.99	1363.95
346.21	1703.91
346.42	1708.01
346.64	1675.24
346.86	1822.69
347.07	1695.72
347.29	1724.39
347.50	1603.56
347.72	1679.33
347.94	1806.31
348.15	1589.22
348.37	1564.65
348.59	1642.47
348.80	1667.05
349.02	1773.54
349.23	1869.80
349.45	1775.59
349.67	1943.52
349.88	1832.93
350.10	1959.91
350.31	1851.36
350.53	1882.08
350.75	1906.66
350.96	1781.73
351.18	1873.89
351.39	1820.64
351.61	1783.78
351.82	1880.04
352.04	1939.43
352.26	1822.69
352.47	1824.74
352.69	1945.57
352.90	1726.44
353.12	1824.74
353.34	1800.16
353.55	1978.34
353.77	2000.87
353.98	1814.50
354.20	1812.45
354.41	1943.52
354.63	1966.05
354.85	2019.30
355.06	1873.89
355.28	1812.45
355.49	1920.99
355.71	1855.46
355.92	1900.52
356.14	1873.89
356.35	1882.08
356.57	1867.75
356.79	1875.94
357.00	1839.08
357.22	1910.75
357.43	1961.95
357.65	1968.10
357.86	1906.66
358.08	1863.65
358.29	1925.09
358.51	1990.63
358.72	1910.75
358.94	1900.52
359.16	1939.43
359.37	1974.24
359.59	1894.37
359.80	1972.19
360.02	1978.34
360.23	2004.96
360.45	2039.78
360.66	1892.32
360.88	1871.84
361.09	1918.95
361.31	2015.20
361.52	1941.47
361.74	2009.06
361.95	2125.79
362.17	1947.62
362.38	2033.63
362.60	2023.39
362.81	1937.38
363.03	1982.43
363.24	1986.53
363.46	2072.54
363.67	2004.96
363.89	1865.70
364.10	1970.15
364.32	1994.72
364.53	2107.36
364.75	1927.14
364.96	1947.62
365.18	1974.24
365.39	1972.19
365.61	2121.70
365.82	2127.84
366.04	1964.00
366.25	1912.80
366.47	2007.01
366.68	2043.87
366.90	2025.44
367.11	2101.22
367.33	2189.28
367.54	2099.17
367.76	2060.26
367.97	2123.74
368.19	2021.35
368.40	2052.06
368.62	2052.06
368.83	1912.80
369.05	2009.06
369.26	1966.05
369.48	2041.82
369.69	1920.99
369.91	2045.92
370.12	1959.91
370.33	2117.60
370.55	1935.33
370.76	1988.58
370.98	2109.41
371.19	2125.79
371.41	2078.69
371.62	2023.39
371.84	2068.45
372.05	2070.50
372.27	2080.74
372.48	1980.39
372.69	2084.83
372.91	2109.41
373.12	2185.18
373.34	2058.21
373.55	2107.36
373.77	2170.85
373.98	2090.98
374.20	2189.28
374.41	2258.91
374.62	2056.16
374.84	2172.89
375.05	2211.81
375.27	2211.81
375.48	2172.89
375.70	2226.14
375.91	2158.56
376.12	2389.98
376.34	2138.08
376.55	2193.37
376.77	2123.74
376.98	2041.82
377.19	2136.03
377.41	2097.12
377.62	2240.48
377.84	2174.94
378.05	2320.35
378.27	2131.94
378.48	2297.82
378.69	2279.39
378.91	2310.11
379.12	2179.04
379.34	2263.01
379.55	2258.91
379.76	2168.80
379.98	2287.58
380.19	2310.11
380.41	2330.59
380.62	2377.69
380.83	2191.33
381.05	2174.94
381.26	2361.31
381.47	2187.23
381.69	2277.34
381.90	2371.55
382.12	2289.63
382.33	2213.85
382.54	2226.14
382.76	2310.11
382.97	2271.20
383.19	2279.39
383.40	2363.36
383.61	2430.94
383.83	2220.00
384.04	2234.33
384.25	2326.49
384.47	2394.08
384.68	2351.07
384.89	2236.38
385.11	2256.86
385.32	2342.88
385.54	2353.12
385.75	2369.50
385.96	2359.26
386.18	2344.92
386.39	2404.32
386.60	2332.64
386.82	2361.31
387.03	2439.13
387.24	2508.76
387.46	2475.99
387.67	2465.75
387.88	2514.91
388.10	2506.71
388.31	2484.19
388.52	2566.10
388.74	2445.27
388.95	2533.34
389.16	2559.96
389.38	2504.67
389.59	2414.56
389.80	2586.58
390.02	2510.81
390.23	2629.59
390.44	2516.95
390.66	2551.77
390.87	2498.52
391.08	2656.22
391.30	2629.59
391.51	2578.39
391.72	2746.33
391.94	2590.68
392.15	2631.64
392.36	2555.86
392.58	2555.86
392.79	2613.21
393.00	2629.59
393.22	2731.99
393.43	2699.22
393.64	2756.57
393.85	2725.85
394.07	2725.85
394.28	2680.79
394.49	2650.07
394.71	2791.38
394.92	2803.67
395.13	2682.84
395.35	2643.93
395.56	2752.47
395.77	2869.20
395.98	2715.61
396.20	2815.96
396.41	2834.39
396.62	2799.57
396.84	2772.95
397.05	2910.16
397.26	2887.64
397.47	2961.36
397.69	2852.82
397.90	3018.71
398.11	2934.74
398.32	2850.77
398.54	2777.05
398.75	2971.60
398.96	2928.60
399.18	3063.76
399.39	2949.08
399.60	2963.41
399.81	2908.12
400.03	2863.06
400.24	3272.65
400.45	2908.12
400.66	3080.14
400.88	3008.47
401.09	3108.82
401.30	3108.82
401.51	3143.63
401.73	3166.16
401.94	3104.72
402.15	3102.67
402.36	3155.92
402.58	3170.26
402.79	3180.50
403.00	2992.08
403.21	3155.92
403.43	3190.74
403.64	3295.18
403.85	3033.04
404.06	3233.74
404.27	3125.20
404.49	3157.97
404.70	3162.06
404.91	3280.85
405.12	3260.37
405.34	3284.94
405.55	3307.47
405.76	3229.65
405.97	3323.85
406.19	3270.61
406.40	3160.02
406.61	3272.65
406.82	3426.25
407.03	3289.04
407.25	3276.75
407.46	3334.09
407.67	3442.64
407.88	3510.22
408.09	3352.52
408.31	3252.17
408.52	3440.59
408.73	3286.99
408.94	3262.41
409.15	3295.18
409.37	3489.74
409.58	3502.03
409.79	3448.78
410.00	3479.50
410.21	3399.63
410.43	3438.54
410.64	3395.53
410.85	3483.59
411.06	3489.74
411.27	3479.50
411.48	3524.55
411.70	3459.02
411.91	3577.80
412.12	3592.14
412.33	3553.23
412.54	3536.84
412.76	3604.42
412.97	3588.04
413.18	3524.55
413.39	3719.11
413.60	3633.10
413.81	3590.09
414.03	3559.37
414.24	3692.49
414.45	3719.11
414.66	3502.03
414.87	3665.86
415.08	3653.58
415.30	3665.86
415.51	3753.93
415.72	3573.71
415.93	3633.10
416.14	3747.78
416.35	3772.36
416.56	3870.66
416.78	3809.22
416.99	3782.60
417.20	3708.87
417.41	3846.09
417.62	3919.81
417.83	3932.10
418.04	3938.24
418.26	3979.20
418.47	3837.89
418.68	3909.57
418.89	3940.29
419.10	4032.45
419.31	3971.01
419.52	4093.89
419.73	4075.46
419.95	3997.64
420.16	3903.43
420.37	3940.29
420.58	3991.49
420.79	3841.99
421.00	3936.20
421.21	4181.95
421.42	4016.07
421.63	4130.75
421.85	3925.96
422.06	4102.08
422.27	4009.92
422.48	4130.75
422.69	4163.52
422.90	4179.90
423.11	4304.83
423.32	4257.73
423.53	4382.65
423.75	4347.84
423.96	4470.72
424.17	4325.31
424.38	4442.04
424.59	4253.63
424.80	4382.65
425.01	4421.56
425.22	4440.00
425.43	4386.75
425.64	4646.84
425.85	4646.84
426.06	4593.59
426.28	4493.24
426.49	4581.31
426.70	4468.67
426.91	4616.12
427.12	4687.80
427.33	4503.48
427.54	4548.54
427.75	4804.53
427.96	4829.11
428.17	4648.89
428.38	4759.48
428.59	4751.29
428.80	4693.94
429.01	4786.10
429.23	4724.66
429.44	4964.28
429.65	4900.79
429.86	4931.51
430.07	4794.29
430.28	4945.84
430.49	5070.77
430.70	5148.59
430.91	5136.31
431.12	5019.57
431.33	5103.54
431.54	5078.96
431.75	5115.83
431.96	5042.10
432.17	5130.16
432.38	5187.50
432.59	5382.06
432.80	5232.56
433.01	5308.34
433.22	5330.86
433.43	5177.26
433.64	5169.07
433.85	5093.30
434.06	5326.77
434.27	5226.42
434.49	5416.88
434.70	5414.83
434.91	5361.58
435.12	5373.87
435.33	5328.81
435.54	5496.75
435.75	5250.99
435.96	5392.30
436.17	5367.73
436.38	5408.69
436.59	5552.04
436.80	5511.08
437.01	5619.63
437.22	5685.16
437.43	5629.87
437.64	5345.20
437.85	5767.08
438.06	5701.54
438.27	5656.49
438.48	5625.77
438.69	5779.37
438.90	5793.70
439.11	5640.11
439.32	5875.62
439.53	5812.14
439.74	5881.77
439.95	5814.18
440.16	5855.14
440.37	5775.27
440.57	5767.08
440.78	5771.18
440.99	5965.73
441.20	5902.25
441.41	5781.42
441.62	5971.88
441.83	5722.02
442.04	6084.52
442.25	5994.40
442.46	6090.66
442.67	6399.90
442.88	6305.70
443.09	5918.63
443.30	6070.18
443.51	6088.61
443.72	6412.19
443.93	6127.52
444.14	6317.98
444.35	6090.66
444.56	6205.35
444.77	6307.74
444.98	6340.51
445.19	6377.37
445.40	6254.50
445.61	6133.67
445.81	6479.77
446.02	6397.85
446.23	6285.22
446.44	6283.17
446.65	6559.64
446.86	6545.31
447.07	6582.17
447.28	6659.99
447.49	6524.83
447.70	6373.28
447.91	6606.75
448.12	6430.62
448.33	6803.35
448.54	6631.32
448.74	6471.58
448.95	6623.13
449.16	6608.80
449.37	6866.84
449.58	6598.56
449.79	6924.18
450.00	6850.46
450.21	6860.70
450.42	7040.92
450.63	6889.37
450.84	6836.12
451.05	6854.55
451.25	6911.89
451.46	6739.87
451.67	7102.36
451.88	7067.54
452.09	6995.86
452.30	7014.29
452.51	7143.32
452.72	7245.71
452.93	7475.09
453.13	7079.83
453.34	7083.92
453.55	7122.84
453.76	7100.31
453.97	7518.09
454.18	7169.94
454.39	7403.41
454.60	7276.43
454.81	7368.59
455.01	7563.15
455.22	7350.16
455.43	7520.14
455.64	7761.80
455.85	7858.06
456.06	7759.75
456.27	7735.18
456.48	7673.74
456.68	7792.52
456.89	7847.82
457.10	7962.50
457.31	8052.61
457.52	7933.83
457.73	7810.95
457.94	8124.29
458.14	7794.57
458.35	8368.00
458.56	8204.16
458.77	8177.54
458.98	8191.88
459.19	8161.16
459.39	8290.18
459.60	8402.82
459.81	8380.29
460.02	8476.54
460.23	8421.25
460.44	8605.56
460.65	8439.68
460.85	8658.81
461.06	8646.52
461.27	8423.30
461.48	8699.77
461.69	8785.79
461.89	8566.65
462.10	8789.88
462.31	8667.00
462.52	8900.47
462.73	8931.19
462.94	9187.19
463.14	9039.73
463.35	9025.40
463.56	9584.49
463.77	9197.43
463.98	9047.93
464.18	9248.63
464.39	9402.22
464.60	9355.12
464.81	9568.11
465.02	9471.86
465.23	9592.69
465.43	9547.63
465.64	9824.11
465.85	9621.36
466.06	9492.34
466.27	10006.38
466.47	9826.15
466.68	9973.61
466.89	9932.65
467.10	9955.18
467.30	9928.55
467.51	10080.10
467.72	10360.67
467.93	10184.55
468.14	10135.40
468.34	10415.97
468.55	10473.31
468.76	10413.92
468.97	10407.78
469.17	10606.43
469.38	10723.16
469.59	10739.55
469.80	10645.34
470.01	10710.88
470.21	10962.78
470.42	11116.37
470.63	11239.25
470.84	10977.11
471.04	11233.11
471.25	11046.74
471.46	11224.92
471.67	11525.97
471.87	11398.99
472.08	11513.68
472.29	11509.58
472.50	11364.18
472.70	11513.68
472.91	11753.29
473.12	11992.90
473.33	11757.39
473.53	11917.13
473.74	11945.80
473.95	12093.26
474.16	12199.75
474.36	12371.78
474.57	12302.15
474.78	12498.75
474.99	12291.91
475.19	12437.31
475.40	12656.45
475.61	13049.66
475.81	13086.52
476.02	13137.72
476.23	12998.46
476.44	13184.82
476.64	13190.97
476.85	13283.13
477.06	13541.17
477.27	13389.62
477.47	13748.01
477.68	13743.92
477.89	13702.96
478.09	13739.82
478.30	13934.38
478.51	13776.69
478.71	13881.13
478.92	14085.93
479.13	14456.61
479.34	14272.29
479.54	14333.73
479.75	14468.90
479.96	14423.84
480.16	14673.70
480.37	14581.54
480.58	14962.46
480.78	15191.83
480.99	14980.89
481.20	15290.13
481.41	15279.89
481.61	15304.47
481.82	15351.57
482.03	15640.34
482.23	15322.90
482.44	15707.92
482.65	15916.81
482.85	15626.00
483.06	15875.85
483.27	16043.79
483.47	16021.26
483.68	16047.88
483.89	16129.80
484.09	16224.01
484.30	16426.76
484.51	16649.99
484.71	16367.37
484.92	16584.45
485.13	16846.59
485.33	16725.76
485.54	16848.64
485.75	17155.83
485.95	17069.82
486.16	17069.82
486.37	17323.77
486.57	17305.34
486.78	17276.66
486.98	17522.42
487.19	17643.25
487.40	17735.41
487.60	17526.52
487.81	18296.55
488.02	17981.17
488.22	17725.17
488.43	18306.79
488.64	18083.56
488.84	18267.88
489.05	18439.91
489.25	18274.03
489.46	18632.42
489.67	18581.22
489.87	18829.02
490.08	19082.97
490.29	18642.66
490.49	19388.12
490.70	19230.43
490.90	19214.04
491.11	19177.18
491.32	19353.30
491.52	19291.87
491.73	19531.48
491.94	19543.77
492.14	19500.76
492.35	19738.32
492.55	19584.73
492.76	19945.17
492.97	20123.34
493.17	19920.59
493.38	20131.53
493.58	20451.02
493.79	20119.24
494.00	20278.99
494.20	20621.00
494.41	20573.89
494.61	20682.44
494.82	20664.00
495.02	20709.06
495.23	20872.90
495.44	20668.10
495.64	21331.64
495.85	21040.83
496.05	21089.98
496.26	21556.92
496.47	21567.16
496.67	21176.00
496.88	21827.25
497.08	21567.16
497.29	22013.62
497.49	21624.50
497.70	21862.07
497.91	21886.64
498.11	21927.60
498.32	22056.62
498.52	22128.30
498.73	22533.80
498.93	22329.00
499.14	22580.90
499.34	22572.71
499.55	22767.27
499.76	22531.75
499.96	22863.52
500.17	22683.30
500.37	22945.44
500.58	23008.93
500.78	22980.26
500.99	23092.90
501.19	23033.50
501.40	23152.29
501.60	23344.80
501.81	23531.16
502.02	23627.42
502.22	22972.07
502.43	23502.49
502.63	23586.46
502.84	23948.95
503.04	23955.09
503.25	23787.16
503.45	23938.71
503.66	24125.07
503.86	23881.36
504.07	24286.86
504.27	24094.35
504.48	24501.90
504.68	24293.01
504.89	24721.03
505.09	24774.28
505.30	24604.30
505.50	24747.65
505.71	24741.51
505.91	24870.53
506.12	24753.80
506.32	25046.66
506.53	24612.49
506.73	24940.16
506.94	25214.59
507.14	25147.01
507.35	25138.82
507.55	25310.85
507.76	25601.66
507.96	25423.48
508.17	25597.56
508.37	25728.63
508.58	25624.18
508.78	25767.54
508.99	25820.79
509.19	25984.63
509.40	25833.08
509.60	25859.70
509.81	26144.37
510.01	25951.86
510.22	26322.54
510.42	26007.16
510.63	26324.59
510.83	26216.05
511.04	26220.14
511.24	26515.05
511.44	26521.20
511.65	26482.28
511.85	26383.98
512.06	26646.12
512.26	26633.83
512.47	26973.80
512.67	26594.92
512.88	27061.86
513.08	26607.21
513.29	26953.32
513.49	27188.83
513.69	26883.69
513.90	27115.11
514.10	27010.66
514.31	27346.53
514.51	27194.98
514.72	27362.91
514.92	27364.96
515.13	27479.64
515.33	27356.77
515.53	27426.40
515.74	27358.81
515.94	27328.10
516.15	27962.97
516.35	27596.38
516.56	27780.70
516.76	27637.34
516.96	27971.16
517.17	27852.38
517.37	27987.54
517.58	27776.60
517.78	27973.21
517.99	28192.34
518.19	28511.82
518.39	28393.04
518.60	28737.10
518.80	28194.39
519.01	28925.51
519.21	28673.61
519.41	28685.90
519.62	28454.48
519.82	28767.82
520.03	28778.06
520.23	29034.05
520.43	28646.99
520.64	29283.91
520.84	29054.53
521.05	29394.50
521.25	29077.06
521.45	28784.20
521.66	29638.20
521.86	29527.61
522.07	29476.41
522.27	29388.35
522.47	29685.31
522.68	29576.76
522.88	29474.37
523.08	30006.84
523.29	29568.57
523.49	29910.58
523.70	29859.38
523.90	30047.80
524.10	29828.66
524.31	30471.73
524.51	29890.10
524.71	30873.13
524.92	30287.41
525.12	30641.71
525.33	30459.44
525.53	30633.52
525.73	30686.76
525.94	30656.04
526.14	31192.61
526.34	30948.90
526.55	31036.97
526.75	31084.07
526.95	31557.15
527.16	30924.33
527.36	31397.41
527.56	31266.34
527.77	31720.99
527.97	31485.47
528.17	31741.47
528.38	31880.73
528.58	31823.39
528.78	32165.40
528.99	31733.28
529.19	32445.97
529.39	31989.27
529.60	32126.49
529.80	32126.49
530.00	32210.45
530.21	32366.10
530.41	32912.91
530.61	32484.88
530.82	32259.60
531.02	32609.81
531.22	32855.56
531.43	32613.90
531.63	33218.05
531.83	33617.41
532.04	33527.30
532.24	33261.06
532.44	33771.00
532.64	33609.22
532.85	33431.04
533.05	33572.35
533.25	33775.10
533.46	34059.77
533.66	34033.14
533.86	33926.65
534.07	34133.50
534.27	33926.65
534.47	34782.70
534.67	34285.04
534.88	34444.79
535.08	34465.27
535.28	34805.23
535.49	34985.45
535.69	34967.02
535.89	35151.34
536.09	35048.94
536.30	35057.13
536.50	35491.30
536.70	35210.73
536.91	34928.11
537.11	35251.69
537.31	35208.68
537.51	35517.92
537.72	35710.43
537.92	35694.05
538.12	36316.63
538.32	36189.66
538.53	36451.80
538.73	35530.21
538.93	35755.49
539.13	36412.88
539.34	36263.38
539.54	36406.74
539.74	37004.75
539.94	36369.88
540.15	36797.90
540.35	36431.32
540.55	36660.69
540.75	36537.81
540.96	36959.69
541.16	36740.56
541.36	36928.97
541.56	36793.81
541.77	37381.57
541.97	37184.97
542.17	37533.12
542.37	37101.00
542.58	37334.47
542.78	37617.09
542.98	37699.01
543.18	37635.52
543.38	38090.17
543.59	37823.93
543.79	37432.77
543.99	37580.23
544.19	38135.23
544.40	38178.23
544.60	38413.75
544.80	38118.84
545.00	38307.26
545.20	38475.19
545.41	38471.09
545.61	38290.87
545.81	38626.74
546.01	38909.36
546.21	38700.47
546.42	38460.85
546.62	39165.35
546.82	38585.78
547.02	38710.71
547.22	39071.15
547.43	39058.86
547.63	38983.09
547.83	39374.25
548.03	39189.93
548.23	39261.61
548.44	39206.31
548.64	39499.17
548.84	39370.15
549.04	39605.67
549.24	39806.37
549.45	39763.36
549.65	39734.69
549.85	39759.27
550.05	39941.53
550.25	39368.10
550.45	40332.70
550.66	39923.10
550.86	39982.49
551.06	40056.22
551.26	40039.84
551.46	40254.87
551.66	40023.45
551.87	40183.19
552.07	40412.57
552.27	40410.52
552.47	40486.29
552.67	40451.48
552.87	40613.27
553.07	40385.94
553.28	40727.95
553.48	40953.23
553.68	40572.31
553.88	41110.92
554.08	40768.91
554.28	41053.58
554.48	40852.88
554.69	41317.77
554.89	41198.99
555.09	41225.61
555.29	40973.71
555.49	41106.83
555.69	41055.63
555.89	41403.78
556.10	41336.20
556.30	41559.43
556.50	41641.35
556.70	41805.19
556.90	41860.48
557.10	41784.71
557.30	41434.50
557.50	41721.22
557.70	41979.26
557.91	42278.27
558.11	41766.27
558.31	42071.42
558.51	41618.82
558.71	42161.53
558.91	42368.38
559.11	41874.82
559.31	42155.39
559.51	41989.50
559.72	42237.31
559.92	42372.47
560.12	41995.65
560.32	42331.51
560.52	42163.58
560.72	42448.25
560.92	42792.31
561.12	42605.94
561.32	42915.19
561.52	42315.13
561.72	43083.12
561.93	42661.24
562.13	42831.22
562.33	42870.13
562.53	43240.81
562.73	42720.63
562.93	42542.45
563.13	42931.57
563.33	42843.51
563.53	43189.61
563.73	43001.20
563.93	43283.82
564.13	43351.40
564.33	43296.11
564.53	43150.70
564.74	43140.46
564.94	43072.88
565.14	43287.92
565.34	43300.20
565.54	43509.10
565.74	43324.78
565.94	43736.42
566.14	43470.18
566.34	43679.08
566.54	43980.13
566.74	43332.97
566.94	43654.50
567.14	43844.96
567.34	43615.59
567.54	44080.48
567.74	43758.95
567.94	43771.24
568.14	43816.29
568.34	44217.69
568.54	43828.58
568.74	44227.93
568.94	44016.99
569.14	44367.20
569.34	44000.61
569.54	44543.32
569.75	44115.29
569.95	44152.16
570.15	44922.19
570.35	44457.31
570.55	44295.52
570.75	44385.63
570.95	44561.75
571.15	44744.02
571.35	44422.49
571.55	44756.31
571.75	44406.11
571.95	44533.08
572.15	44520.79
572.35	44784.98
572.55	44277.08
572.75	44809.56
572.95	45227.34
573.15	45045.07
573.35	44873.04
573.55	44422.49
573.75	44852.56
573.95	45718.85
574.15	45040.98
574.35	45143.38
574.55	44967.25
574.75	45266.25
574.95	45585.74
575.15	45241.68
575.34	45012.31
575.54	45831.49
575.74	45630.79
575.94	45399.37
576.14	45452.62
576.34	45923.65
576.54	46050.63
576.74	45962.56
576.94	45550.92
577.14	45811.01
577.34	46259.52
577.54	45536.59
577.74	45688.13
577.94	45968.71
578.14	45851.97
578.34	46351.68
578.54	45790.53
578.74	46275.90
578.94	46425.40
579.14	46421.31
579.34	46378.30
579.54	46183.74
579.74	46896.44
579.94	46624.06
580.13	46564.67
580.33	46382.40
580.53	46748.98
580.73	47097.14
580.93	46781.75
581.13	46316.86
581.33	46699.83
581.53	47168.82
581.73	47017.27
581.93	47093.04
582.13	46908.72
582.33	46998.83
582.53	46806.33
582.73	47576.36
582.92	47482.16
583.12	47187.25
583.32	47369.52
583.52	47297.84
583.72	47488.30
583.92	47373.61
584.12	47717.67
584.32	47537.45
584.52	47564.07
584.72	47596.84
584.92	47541.55
585.11	48405.79
585.31	47531.31
585.51	47863.08
585.71	47643.94
585.91	48174.37
586.11	47781.16
586.31	48059.68
586.51	47732.01
586.71	47830.31
586.91	48606.49
587.10	48330.01
587.30	48342.30
587.50	48100.64
587.70	48305.44
587.90	48561.44
588.10	48383.26
588.30	48065.83
588.50	48436.51
