SpectraSuite Data File
++++++++++++++++++++++++++++++++++++
Date: Fri Jun 02 14:49:24 CEST 2017
User: INFO_000
Dark Spectrum Present: No
Reference Spectrum Present: No
Number of Sampled Component Spectra: 1
Spectrometers: USB4H00879
Integration Time (usec): 80000 (USB4H00879)
Spectra Averaged: 1 (USB4H00879)
Boxcar Smoothing: 0 (USB4H00879)
Correct for Electrical Dark: No (USB4H00879)
Strobe/Lamp Enabled: No (USB4H00879)
Correct for Detector Non-linearity: No (USB4H00879)
Correct for Stray Light: No (USB4H00879)
Number of Pixels in Processed Spectrum: 3648
>>>>>Begin Processed Spectral Data<<<<<
345.13	1273.84
345.34	1273.84
345.56	1273.84
345.78	1325.04
345.99	1277.93
346.21	1675.24
346.42	1736.68
346.64	1642.47
346.86	1781.73
347.07	1626.09
347.29	1667.05
347.50	1650.66
347.72	1685.48
347.94	1746.92
348.15	1544.17
348.37	1656.81
348.59	1701.86
348.80	1646.57
349.02	1789.92
349.23	1873.89
349.45	1761.25
349.67	1830.88
349.88	1824.74
350.10	1892.32
350.31	1798.12
350.53	1763.30
350.75	1888.23
350.96	1779.68
351.18	1818.60
351.39	1832.93
351.61	1845.22
351.82	1804.26
352.04	1812.45
352.26	1832.93
352.47	1798.12
352.69	1875.94
352.90	1738.73
353.12	1742.82
353.34	1843.17
353.55	1892.32
353.77	1759.21
353.98	1855.46
354.20	1708.01
354.41	1880.04
354.63	1851.36
354.85	1916.90
355.06	1875.94
355.28	1673.19
355.49	1761.25
355.71	1808.36
355.92	1869.80
356.14	1857.51
356.35	1796.07
356.57	1820.64
356.79	1753.06
357.00	1814.50
357.22	1853.41
357.43	1757.16
357.65	1861.60
357.86	1779.68
358.08	1822.69
358.29	1916.90
358.51	1920.99
358.72	1908.71
358.94	1906.66
359.16	1820.64
359.37	1841.12
359.59	1892.32
359.80	1970.15
360.02	1945.57
360.23	1896.42
360.45	1980.39
360.66	1886.18
360.88	1796.07
361.09	1871.84
361.31	1929.19
361.52	1929.19
361.74	2023.39
361.95	1974.24
362.17	1937.38
362.38	1968.10
362.60	2007.01
362.81	2029.54
363.03	1896.42
363.24	2000.87
363.46	1970.15
363.67	1957.86
363.89	1908.71
364.10	1943.52
364.32	1974.24
364.53	2035.68
364.75	1873.89
364.96	1916.90
365.18	1996.77
365.39	1982.43
365.61	1918.95
365.82	2004.96
366.04	1927.14
366.25	1859.56
366.47	1996.77
366.68	2004.96
366.90	1853.41
367.11	2054.11
367.33	2023.39
367.54	2002.91
367.76	2111.46
367.97	2086.88
368.19	2025.44
368.40	2088.93
368.62	1937.38
368.83	1896.42
369.05	1945.57
369.26	1923.04
369.48	1968.10
369.69	2002.91
369.91	1978.34
370.12	2015.20
370.33	2060.26
370.55	1820.64
370.76	1996.77
370.98	2062.30
371.19	1982.43
371.41	1990.63
371.62	2031.58
371.84	1976.29
372.05	2115.55
372.27	2002.91
372.48	2039.78
372.69	2021.35
372.91	2109.41
373.12	2107.36
373.34	1992.67
373.55	2035.68
373.77	2064.35
373.98	2041.82
374.20	2158.56
374.41	2256.86
374.62	2125.79
374.84	2148.32
375.05	2179.04
375.27	2179.04
375.48	2097.12
375.70	2115.55
375.91	2060.26
376.12	2205.66
376.34	2224.09
376.55	2148.32
376.77	2205.66
376.98	2109.41
377.19	2129.89
377.41	2138.08
377.62	2191.33
377.84	2199.52
378.05	2303.96
378.27	2113.50
378.48	2246.62
378.69	2289.63
378.91	2236.38
379.12	2232.29
379.34	2250.72
379.55	2258.91
379.76	2312.16
379.98	2127.84
380.19	2303.96
380.41	2269.15
380.62	2344.92
380.83	2201.57
381.05	2279.39
381.26	2351.07
381.47	2129.89
381.69	2228.19
381.90	2330.59
382.12	2275.29
382.33	2265.05
382.54	2234.33
382.76	2289.63
382.97	2363.36
383.19	2269.15
383.40	2516.95
383.61	2330.59
383.83	2185.18
384.04	2293.72
384.25	2377.69
384.47	2367.45
384.68	2355.16
384.89	2355.16
385.11	2369.50
385.32	2373.60
385.54	2369.50
385.75	2359.26
385.96	2432.99
386.18	2342.88
386.39	2451.42
386.60	2226.14
386.82	2439.13
387.03	2428.89
387.24	2420.70
387.46	2432.99
387.67	2508.76
387.88	2578.39
388.10	2510.81
388.31	2510.81
388.52	2488.28
388.74	2455.51
388.95	2453.47
389.16	2541.53
389.38	2615.26
389.59	2555.86
389.80	2633.69
390.02	2557.91
390.23	2586.58
390.44	2600.92
390.66	2598.87
390.87	2570.20
391.08	2645.98
391.30	2676.70
391.51	2617.30
391.72	2676.70
391.94	2559.96
392.15	2625.50
392.36	2564.06
392.58	2551.77
392.79	2662.36
393.00	2660.31
393.22	2740.18
393.43	2824.15
393.64	2668.50
393.85	2746.33
394.07	2629.59
394.28	2754.52
394.49	2744.28
394.71	2822.10
394.92	2828.24
395.13	2752.47
395.35	2746.33
395.56	2656.22
395.77	2748.37
395.98	2893.78
396.20	2836.44
396.41	2834.39
396.62	2879.44
396.84	2807.77
397.05	2811.86
397.26	2822.10
397.47	2944.98
397.69	2844.63
397.90	3069.91
398.11	2969.55
398.32	2846.68
398.54	2877.40
398.75	2795.48
398.96	2975.70
399.18	3133.39
399.39	2850.77
399.60	3133.39
399.81	2977.75
400.03	2848.72
400.24	3223.50
400.45	2930.64
400.66	2951.12
400.88	2985.94
401.09	3125.20
401.30	3028.95
401.51	3145.68
401.73	3205.07
401.94	3090.38
402.15	3086.29
402.36	3112.91
402.58	3106.77
402.79	3141.58
403.00	3149.78
403.21	3321.81
403.43	3168.21
403.64	3262.41
403.85	3129.30
404.06	3254.22
404.27	3033.04
404.49	3198.93
404.70	3100.62
404.91	3213.26
405.12	3252.17
405.34	3243.98
405.55	3395.53
405.76	3198.93
405.97	3323.85
406.19	3338.19
406.40	3190.74
406.61	3334.09
406.82	3364.81
407.03	3258.32
407.25	3276.75
407.46	3297.23
407.67	3436.49
407.88	3381.20
408.09	3379.15
408.31	3405.77
408.52	3471.31
408.73	3350.48
408.94	3198.93
409.15	3315.66
409.37	3387.34
409.58	3438.54
409.79	3407.82
410.00	3579.85
410.21	3323.85
410.43	3364.81
410.64	3436.49
410.85	3426.25
411.06	3436.49
411.27	3508.17
411.48	3643.34
411.70	3524.55
411.91	3629.00
412.12	3649.48
412.33	3567.56
412.54	3592.14
412.76	3592.14
412.97	3680.20
413.18	3538.89
413.39	3688.39
413.60	3647.43
413.81	3669.96
414.03	3657.67
414.24	3635.14
414.45	3755.97
414.66	3518.41
414.87	3710.92
415.08	3682.25
415.30	3622.86
415.51	3850.18
415.72	3645.38
415.93	3792.84
416.14	3729.35
416.35	3815.37
416.56	3758.02
416.78	3786.69
416.99	3911.62
417.20	3782.60
417.41	3954.63
417.62	3893.19
417.83	3977.16
418.04	3919.81
418.26	3829.70
418.47	3813.32
418.68	3934.15
418.89	3915.72
419.10	4085.70
419.31	4079.55
419.52	4071.36
419.73	3903.43
419.95	4028.35
420.16	3968.96
420.37	3964.87
420.58	4036.55
420.79	3878.85
421.00	3993.54
421.21	4030.40
421.42	4151.23
421.63	4120.51
421.85	4048.83
422.06	4059.07
422.27	4165.57
422.48	4186.05
422.69	4067.27
422.90	4143.04
423.11	4321.21
423.32	4325.31
423.53	4368.32
423.75	4216.77
423.96	4464.57
424.17	4382.65
424.38	4431.80
424.59	4433.85
424.80	4528.06
425.01	4440.00
425.22	4304.83
425.43	4349.89
425.64	4536.25
425.85	4646.84
426.06	4519.87
426.28	4515.77
426.49	4546.49
426.70	4480.96
426.91	4509.63
427.12	4667.32
427.33	4593.59
427.54	4509.63
427.75	4722.62
427.96	4812.73
428.17	4695.99
428.38	4716.47
428.59	4845.49
428.80	4708.28
429.01	4837.30
429.23	4730.81
429.44	4931.51
429.65	4898.74
429.86	5033.91
430.07	4847.54
430.28	4788.15
430.49	4970.42
430.70	5150.64
430.91	5126.07
431.12	4939.70
431.33	5089.20
431.54	5156.79
431.75	5056.43
431.96	5152.69
432.17	5119.92
432.38	5136.31
432.59	5269.42
432.80	5128.11
433.01	5187.50
433.22	5373.87
433.43	5308.34
433.64	5277.62
433.85	5232.56
434.06	5341.10
434.27	5281.71
434.49	5318.57
434.70	5406.64
434.91	5369.77
435.12	5482.41
435.33	5388.21
435.54	5484.46
435.75	5357.49
435.96	5367.73
436.17	5402.54
436.38	5590.95
436.59	5758.89
436.80	5484.46
437.01	5656.49
437.22	5754.79
437.43	5466.03
437.64	5470.12
437.85	5670.83
438.06	5762.98
438.27	5633.96
438.48	5615.53
438.69	5824.42
438.90	5746.60
439.11	5597.10
439.32	5814.18
439.53	5808.04
439.74	5767.08
439.95	5941.16
440.16	5867.43
440.37	5744.55
440.57	5746.60
440.78	5941.16
440.99	5906.34
441.20	5894.05
441.41	5734.31
441.62	5920.68
441.83	5859.24
442.04	5980.07
442.25	6096.80
442.46	6031.27
442.67	6088.61
442.88	6496.16
443.09	5971.88
443.30	6119.33
443.51	6285.22
443.72	6377.37
443.93	6008.74
444.14	6315.94
444.35	6119.33
444.56	6219.68
444.77	6289.31
444.98	6363.04
445.19	6422.43
445.40	6246.30
445.61	6299.55
445.81	6473.63
446.02	6420.38
446.23	6416.29
446.44	6240.16
446.65	6352.80
446.86	6467.49
447.07	6377.37
447.28	6705.05
447.49	6729.63
447.70	6451.10
447.91	6520.73
448.12	6676.38
448.33	6825.88
448.54	6621.08
448.74	6606.75
448.95	6760.34
449.16	6651.80
449.37	6926.23
449.58	6692.76
449.79	6963.09
450.00	6780.82
450.21	6875.03
450.42	6909.85
450.63	6973.33
450.84	6895.51
451.05	6840.22
451.25	7049.11
451.46	6829.98
451.67	7077.78
451.88	7120.79
452.09	7188.37
452.30	6967.19
452.51	7104.40
452.72	7139.22
452.93	7434.13
453.13	7047.06
453.34	7143.32
453.55	7206.80
453.76	7262.10
453.97	7669.64
454.18	7403.41
454.39	7475.09
454.60	7516.05
454.81	7421.84
455.01	7577.48
455.22	7354.26
455.43	7559.05
455.64	7651.21
455.85	7630.73
456.06	7866.25
456.27	7800.71
456.48	7667.60
456.68	7982.98
456.89	7823.24
457.10	7868.30
457.31	7749.51
457.52	7882.63
457.73	7845.77
457.94	8310.66
458.14	7810.95
458.35	8247.17
458.56	8107.91
458.77	8079.24
458.98	8286.08
459.19	8198.02
459.39	8351.62
459.60	8540.03
459.81	8210.31
460.02	8286.08
460.23	8386.43
460.44	8488.83
460.65	8484.73
460.85	8646.52
461.06	8664.96
461.27	8464.25
461.48	8744.83
461.69	8804.22
461.89	8523.65
462.10	8966.01
462.31	8701.82
462.52	8724.35
462.73	8816.51
462.94	9205.62
463.14	8904.57
463.35	8918.90
463.56	9449.33
463.77	9326.45
463.98	9207.67
464.18	9092.98
464.39	9330.55
464.60	9574.25
464.81	9453.42
465.02	9410.42
465.23	9545.58
465.43	9373.55
465.64	9891.69
465.85	9611.12
466.06	9717.61
466.27	10049.38
466.47	9881.45
466.68	9908.07
466.89	9797.48
467.10	10198.88
467.30	10041.19
467.51	10219.36
467.72	10305.38
467.93	10102.63
468.14	10184.55
468.34	10362.72
468.55	10295.14
468.76	10487.65
468.97	10243.94
469.17	10649.44
469.38	10655.58
469.59	10710.88
469.80	10420.06
470.01	10624.86
470.21	10807.13
470.42	11050.84
470.63	10934.11
470.84	11005.78
471.04	11265.88
471.25	11200.34
471.46	11175.77
471.67	11319.12
471.87	11497.30
472.08	11599.70
472.29	11605.84
472.50	11382.61
472.70	11573.07
472.91	11677.52
473.12	11865.93
473.33	11843.40
473.53	12054.34
473.74	11833.16
473.95	12209.99
474.16	12328.77
474.36	12502.85
474.57	12506.95
474.78	12519.23
474.99	12332.87
475.19	12576.58
475.40	12691.26
475.61	12941.11
475.81	12937.02
476.02	13100.86
476.23	12973.88
476.44	13186.87
476.64	13287.22
476.85	13496.11
477.06	13272.89
477.27	13709.10
477.47	13813.55
477.68	13750.06
477.89	13750.06
478.09	13633.33
478.30	13961.00
478.51	13813.55
478.71	14227.24
478.92	14366.50
479.13	14212.90
479.34	14333.73
479.54	14491.43
479.75	14405.41
479.96	14685.98
480.16	14694.18
480.37	14669.60
480.58	14970.65
480.78	15066.91
480.99	14962.46
481.20	15191.83
481.41	15095.58
481.61	15519.51
481.82	15642.39
482.03	15468.31
482.23	15652.63
482.44	15724.30
482.65	15732.50
482.85	15974.16
483.06	15824.65
483.27	16056.08
483.47	16172.81
483.68	16135.95
483.89	16353.03
484.09	16408.33
484.30	16320.26
484.51	16797.44
484.71	16359.17
484.92	16676.61
485.13	16877.31
485.33	16692.99
485.54	16969.47
485.75	17164.03
485.95	17172.22
486.16	17307.38
486.37	17399.54
486.57	17323.77
486.78	17579.76
486.98	17510.13
487.19	17719.03
487.40	17848.05
487.60	17749.75
487.81	18042.60
488.02	17811.18
488.22	17903.34
488.43	18194.15
488.64	18290.41
488.84	18439.91
489.05	18495.21
489.25	18050.80
489.46	18890.46
489.67	18853.60
489.87	18984.67
490.08	18927.33
490.29	19066.59
490.49	19371.74
490.70	19234.52
490.90	19338.97
491.11	19623.64
491.32	19412.70
491.52	19513.05
491.73	19633.88
491.94	19533.53
492.14	19705.56
492.35	19871.44
492.55	19912.40
492.76	19853.01
492.97	20147.92
493.17	20365.00
493.38	20358.86
493.58	20631.24
493.79	20504.26
494.00	20590.28
494.20	20805.31
494.41	20805.31
494.61	20766.40
494.82	20790.98
495.02	20747.97
495.23	21120.70
495.44	20946.62
495.64	21286.59
495.85	21327.55
496.05	21614.26
496.26	21778.10
496.47	21747.38
496.67	21487.29
496.88	21780.15
497.08	21669.56
497.29	22261.42
497.49	21882.55
497.70	22165.17
497.91	22159.02
498.11	22136.49
498.32	22412.97
498.52	22435.50
498.73	22777.51
498.93	22630.05
499.14	22406.83
499.34	22576.81
499.55	22933.15
499.76	22699.69
499.96	22849.19
500.17	22830.76
500.37	23176.86
500.58	23041.70
500.78	23029.41
500.99	22838.95
501.19	23234.21
501.40	23287.45
501.60	23158.43
501.81	23531.16
502.02	23430.81
502.22	23471.77
502.43	23637.66
502.63	24098.45
502.84	24000.15
503.04	24030.87
503.25	24041.11
503.45	24080.02
503.66	24305.29
503.86	24456.84
504.07	24557.19
504.27	24247.95
504.48	24780.42
504.68	24540.81
504.89	24870.53
505.09	24843.91
505.30	24694.41
505.50	24727.17
505.71	24829.57
505.91	24819.33
506.12	24819.33
506.32	24942.21
506.53	25040.51
506.73	25134.72
506.94	25411.20
507.14	25380.48
507.35	25302.65
507.55	25605.75
507.76	25478.78
507.96	25376.38
508.17	25646.71
508.37	25450.11
508.58	25529.98
508.78	25896.56
508.99	26029.68
509.19	25949.81
509.40	26011.25
509.60	26152.56
509.81	25859.70
510.01	26203.76
510.22	25917.04
510.42	26078.83
510.63	26349.17
510.83	26207.86
511.04	26369.65
511.24	26465.90
511.44	26463.85
511.65	26644.07
511.85	26408.56
512.06	26508.91
512.26	26609.26
512.47	27057.76
512.67	27029.09
512.88	26936.93
513.08	26431.08
513.29	26766.95
513.49	27180.64
513.69	26777.19
513.90	26963.56
514.10	27137.63
514.31	27139.68
514.51	27367.01
514.72	27027.04
514.92	27113.06
515.13	27250.27
515.33	27274.85
515.53	27414.11
515.74	27606.62
515.94	27403.87
516.15	27565.66
516.35	27295.33
516.56	27942.49
516.76	27512.41
516.96	27565.66
517.17	28098.13
517.37	27897.43
517.58	28139.09
517.78	28329.55
517.99	28188.24
518.19	28307.02
518.39	28315.22
518.60	28040.79
518.80	28358.22
519.01	28399.18
519.21	28481.10
519.41	28755.53
519.62	28479.05
519.82	28681.80
520.03	28888.65
520.23	28587.60
520.43	28689.99
520.64	29115.97
520.84	29214.27
521.05	29142.60
521.25	29343.30
521.45	29085.25
521.66	29443.65
521.86	29390.40
522.07	29029.96
522.27	29365.82
522.47	29396.54
522.68	29789.75
522.88	29419.07
523.08	30338.61
523.29	29642.30
523.49	29826.62
523.70	30043.70
523.90	30197.30
524.10	30191.16
524.31	30342.70
524.51	30129.72
524.71	30400.05
524.92	30424.62
525.12	30629.42
525.33	30715.44
525.53	30674.48
525.73	30811.69
525.94	30674.48
526.14	30789.16
526.34	31092.26
526.55	31010.34
526.75	30932.52
526.95	31438.37
527.16	31178.28
527.36	31249.96
527.56	31669.79
527.77	31714.84
527.97	31882.78
528.17	31821.34
528.38	31467.04
528.58	31784.48
528.78	31888.92
528.99	31940.12
529.19	32445.97
529.39	32292.37
529.60	32118.29
529.80	32052.76
530.00	32386.58
530.21	32775.69
530.41	32597.52
530.61	32531.98
530.82	32929.29
531.02	32755.21
531.22	33140.23
531.43	33109.51
531.63	32960.01
531.83	33377.79
532.04	33572.35
532.24	33142.28
532.44	33689.09
532.64	33748.48
532.85	33861.12
533.05	33754.62
533.25	33580.54
533.46	33975.80
533.66	34037.24
533.86	34285.04
534.07	34385.40
534.27	34330.10
534.47	34364.92
534.67	34543.09
534.88	34375.16
535.08	34526.71
535.28	34919.92
535.49	34905.58
535.69	35423.72
535.89	35309.03
536.09	35198.44
536.30	35587.55
536.50	35259.88
536.70	35784.16
536.91	35515.87
537.11	35479.01
537.31	35679.71
537.51	35501.54
537.72	36222.42
537.92	36335.06
538.12	36488.66
538.32	35849.69
538.53	36296.15
538.73	36191.70
538.93	36459.99
539.13	36201.94
539.34	36316.63
539.54	36693.46
539.74	36935.12
539.94	36867.53
540.15	36771.28
540.35	37172.68
540.55	36990.41
540.75	36840.91
540.96	37053.90
541.16	36939.21
541.36	37377.48
541.56	37105.10
541.77	37750.21
541.97	37375.43
542.17	37758.40
542.37	37680.58
542.58	37950.91
542.78	37852.61
542.98	37866.94
543.18	37920.19
543.38	38538.68
543.59	38241.72
543.79	37563.84
543.99	38454.71
544.19	38653.36
544.40	38360.50
544.60	38907.31
544.80	38481.33
545.00	38524.34
545.20	39024.04
545.41	38722.99
545.61	38741.42
545.81	39368.10
546.01	39194.03
546.21	39048.62
546.42	39062.96
546.62	39085.48
546.82	38921.65
547.02	39429.54
547.22	39515.56
547.43	39124.40
547.63	39497.13
547.83	39765.41
548.03	39101.87
548.23	39783.84
548.44	39746.98
548.64	39771.55
548.84	39781.79
549.04	39771.55
549.24	39982.49
549.45	40441.24
549.65	40048.03
549.85	40250.78
550.05	40385.94
550.25	40574.36
550.45	40424.86
550.66	40543.64
550.86	39998.88
551.06	40586.64
551.26	40527.25
551.46	40662.42
551.66	40744.34
551.87	40596.88
552.07	40648.08
552.27	40816.02
552.47	41080.21
552.67	41182.60
552.87	40818.07
553.07	41059.73
553.28	40721.81
553.48	41317.77
553.68	41090.44
553.88	41411.98
554.08	41194.89
554.28	41356.68
554.48	41352.58
554.69	41225.61
554.89	41323.91
555.09	41432.46
555.29	41235.85
555.49	41688.45
555.69	41588.10
555.89	41620.87
556.10	41532.81
556.30	41510.28
556.50	41801.09
556.70	41973.12
556.90	41981.31
557.10	42018.17
557.30	41653.64
557.50	42036.61
557.70	41876.86
557.91	42063.23
558.11	41864.58
558.31	42509.69
558.51	41811.33
558.71	42249.60
558.91	41930.11
559.11	42184.06
559.31	42454.39
559.51	42134.91
559.72	42128.77
559.92	42476.92
560.12	42050.94
560.32	42104.19
560.52	42071.42
560.72	42321.27
560.92	42562.93
561.12	42308.99
561.32	43134.32
561.52	42294.65
561.72	43275.63
561.93	42603.89
562.13	42708.34
562.33	43025.78
562.53	43183.47
562.73	42317.18
562.93	42433.91
563.13	42876.27
563.33	42978.67
563.53	43138.41
563.73	42782.07
563.93	43126.13
564.13	43578.73
564.33	43103.60
564.53	42933.62
564.74	43601.25
564.94	42784.12
565.14	42976.62
565.34	42874.23
565.54	43224.43
565.74	43236.72
565.94	43726.18
566.14	43474.28
566.34	43390.31
566.54	43642.21
566.74	43355.50
566.94	43582.82
567.14	43904.35
567.34	43658.60
567.54	43720.04
567.74	43689.32
567.94	43423.08
568.14	43869.54
568.34	43717.99
568.54	43631.97
568.74	43701.61
568.94	43797.86
569.14	44234.08
569.34	43918.69
569.54	43912.55
569.75	43953.51
569.95	43894.11
570.15	44215.65
570.35	44019.04
570.55	44217.69
570.75	44250.46
570.95	44336.48
571.15	44531.03
571.35	44270.94
571.55	44598.62
571.75	44094.82
571.95	44864.85
572.15	44420.44
572.35	44221.79
572.55	44533.08
572.75	44379.48
572.95	44539.22
573.15	45057.36
573.35	44629.34
573.55	44602.71
573.75	44760.40
573.95	44893.52
574.15	44442.97
574.35	44983.63
574.55	44989.78
574.75	44754.26
574.95	44873.04
575.15	45364.56
575.34	44918.10
575.54	45591.88
575.74	45317.45
575.94	45358.41
576.14	45245.77
576.34	45731.14
576.54	45868.36
576.74	45856.07
576.94	45466.95
577.14	45759.81
577.34	45925.70
577.54	45839.68
577.74	45530.44
577.94	45950.27
578.14	45974.85
578.34	45968.71
578.54	45483.34
578.74	46273.85
578.94	46138.69
579.14	46118.21
579.34	46306.62
579.54	46179.65
579.74	46687.54
579.94	46667.06
580.13	46587.19
580.33	46343.48
580.53	46470.46
580.73	46923.06
580.93	46789.94
581.13	46454.08
581.33	46955.83
581.53	46951.73
581.73	46957.88
581.93	47193.39
582.13	46609.72
582.33	47291.69
582.53	46873.91
582.73	47334.70
582.92	47574.31
583.12	47404.33
583.32	47473.96
583.52	47019.31
583.72	47521.07
583.92	47512.88
584.12	47473.96
584.32	48071.97
584.52	47412.52
584.72	47578.41
584.92	48035.11
585.11	48321.82
585.31	47822.12
585.51	48020.77
585.71	48004.39
585.91	48760.09
586.11	48057.63
586.31	47938.85
586.51	48014.63
586.71	48321.82
586.91	48500.00
587.10	48387.36
587.30	48354.59
587.50	48874.77
587.70	49057.04
587.90	48700.70
588.10	48934.17
588.30	48874.77
588.50	48663.83
