SpectraSuite Data File
++++++++++++++++++++++++++++++++++++
Date: Fri Jun 02 14:49:29 CEST 2017
User: INFO_000
Dark Spectrum Present: No
Reference Spectrum Present: No
Number of Sampled Component Spectra: 1
Spectrometers: USB4H00879
Integration Time (usec): 80000 (USB4H00879)
Spectra Averaged: 1 (USB4H00879)
Boxcar Smoothing: 0 (USB4H00879)
Correct for Electrical Dark: No (USB4H00879)
Strobe/Lamp Enabled: No (USB4H00879)
Correct for Detector Non-linearity: No (USB4H00879)
Correct for Stray Light: No (USB4H00879)
Number of Pixels in Processed Spectrum: 3648
>>>>>Begin Processed Spectral Data<<<<<
345.13	1247.21
345.34	1247.21
345.56	1247.21
345.78	1279.98
345.99	1273.84
346.21	1671.14
346.42	1638.38
346.64	1677.29
346.86	1818.60
347.07	1683.43
347.29	1689.57
347.50	1656.81
347.72	1624.04
347.94	1720.29
348.15	1628.14
348.37	1611.75
348.59	1705.96
348.80	1718.25
349.02	1834.98
349.23	1765.35
349.45	1783.78
349.67	1884.13
349.88	1810.40
350.10	2002.91
350.31	1769.44
350.53	1828.84
350.75	1920.99
350.96	1794.02
351.18	1843.17
351.39	1853.41
351.61	1855.46
351.82	1949.67
352.04	1968.10
352.26	1740.77
352.47	1886.18
352.69	1814.50
352.90	1834.98
353.12	1832.93
353.34	1865.70
353.55	1914.85
353.77	1869.80
353.98	1865.70
354.20	1830.88
354.41	1904.61
354.63	1877.99
354.85	1943.52
355.06	1847.27
355.28	1722.34
355.49	1908.71
355.71	1847.27
355.92	1877.99
356.14	1943.52
356.35	1853.41
356.57	1961.95
356.79	1929.19
357.00	1834.98
357.22	1937.38
357.43	1863.65
357.65	1949.67
357.86	1843.17
358.08	1892.32
358.29	1908.71
358.51	1957.86
358.72	2021.35
358.94	1884.13
359.16	1966.05
359.37	1923.04
359.59	1853.41
359.80	1955.81
360.02	1910.75
360.23	1996.77
360.45	1949.67
360.66	1912.80
360.88	1882.08
361.09	2004.96
361.31	1929.19
361.52	1945.57
361.74	2011.11
361.95	2074.59
362.17	1929.19
362.38	2082.78
362.60	1955.81
362.81	1982.43
363.03	2033.63
363.24	1988.58
363.46	2078.69
363.67	2072.54
363.89	1968.10
364.10	1972.19
364.32	1974.24
364.53	1898.47
364.75	1855.46
364.96	2060.26
365.18	2107.36
365.39	1990.63
365.61	1972.19
365.82	2146.27
366.04	1982.43
366.25	1941.47
366.47	2082.78
366.68	2064.35
366.90	1986.53
367.11	2109.41
367.33	2000.87
367.54	2172.89
367.76	1947.62
367.97	2103.26
368.19	2009.06
368.40	2011.11
368.62	1955.81
368.83	1920.99
369.05	2113.50
369.26	2000.87
369.48	2058.21
369.69	1949.67
369.91	2058.21
370.12	1990.63
370.33	2115.55
370.55	2009.06
370.76	2056.16
370.98	2142.18
371.19	2045.92
371.41	1974.24
371.62	2047.97
371.84	2123.74
372.05	2166.75
372.27	2029.54
372.48	2043.87
372.69	2113.50
372.91	2129.89
373.12	2142.18
373.34	2078.69
373.55	2136.03
373.77	2174.94
373.98	2062.30
374.20	2189.28
374.41	2236.38
374.62	2111.46
374.84	2197.47
375.05	2183.13
375.27	2080.74
375.48	2152.42
375.70	2160.61
375.91	2224.09
376.12	2271.20
376.34	2140.13
376.55	2187.23
376.77	2238.43
376.98	2101.22
377.19	2168.80
377.41	2158.56
377.62	2224.09
377.84	2263.01
378.05	2336.73
378.27	2170.85
378.48	2349.02
378.69	2365.40
378.91	2357.21
379.12	2314.20
379.34	2211.81
379.55	2269.15
379.76	2265.05
379.98	2152.42
380.19	2322.40
380.41	2191.33
380.62	2279.39
380.83	2240.48
381.05	2211.81
381.26	2416.60
381.47	2189.28
381.69	2273.25
381.90	2342.88
382.12	2318.30
382.33	2277.34
382.54	2217.95
382.76	2248.67
382.97	2389.98
383.19	2281.44
383.40	2363.36
383.61	2269.15
383.83	2279.39
384.04	2306.01
384.25	2363.36
384.47	2389.98
384.68	2342.88
384.89	2379.74
385.11	2314.20
385.32	2281.44
385.54	2363.36
385.75	2340.83
385.96	2447.32
386.18	2424.80
386.39	2441.18
386.60	2418.65
386.82	2478.04
387.03	2418.65
387.24	2480.09
387.46	2402.27
387.67	2424.80
387.88	2525.15
388.10	2447.32
388.31	2502.62
388.52	2559.96
388.74	2523.10
388.95	2553.82
389.16	2500.57
389.38	2547.67
389.59	2539.48
389.80	2668.50
390.02	2641.88
390.23	2695.13
390.44	2555.86
390.66	2533.34
390.87	2555.86
391.08	2633.69
391.30	2609.11
391.51	2613.21
391.72	2664.41
391.94	2650.07
392.15	2611.16
392.36	2641.88
392.58	2637.78
392.79	2598.87
393.00	2742.23
393.22	2770.90
393.43	2736.09
393.64	2777.05
393.85	2731.99
394.07	2672.60
394.28	2801.62
394.49	2719.70
394.71	2713.56
394.92	2838.48
395.13	2633.69
395.35	2727.89
395.56	2701.27
395.77	2797.53
395.98	2746.33
396.20	2834.39
396.41	2828.24
396.62	2906.07
396.84	2879.44
397.05	2805.72
397.26	2785.24
397.47	2934.74
397.69	2838.48
397.90	3026.90
398.11	2938.84
398.32	2895.83
398.54	2863.06
398.75	2824.15
398.96	2861.01
399.18	3057.62
399.39	2926.55
399.60	2985.94
399.81	2908.12
400.03	2930.64
400.24	3168.21
400.45	2899.92
400.66	3096.53
400.88	2953.17
401.09	3121.10
401.30	3010.51
401.51	3207.12
401.73	3125.20
401.94	3108.82
402.15	3139.54
402.36	3033.04
402.58	3149.78
402.79	3211.22
403.00	3141.58
403.21	3219.41
403.43	3231.69
403.64	3209.17
403.85	2990.03
404.06	3227.60
404.27	3049.43
404.49	3219.41
404.70	3147.73
404.91	3317.71
405.12	3213.26
405.34	3184.59
405.55	3377.10
405.76	3080.14
405.97	3198.93
406.19	3321.81
406.40	3219.41
406.61	3274.70
406.82	3258.32
407.03	3223.50
407.25	3223.50
407.46	3381.20
407.67	3397.58
407.88	3418.06
408.09	3358.67
408.31	3350.48
408.52	3397.58
408.73	3315.66
408.94	3346.38
409.15	3434.44
409.37	3563.47
409.58	3422.16
409.79	3407.82
410.00	3618.76
410.21	3489.74
410.43	3456.97
410.64	3444.68
410.85	3491.79
411.06	3588.04
411.27	3536.84
411.48	3542.99
411.70	3612.62
411.91	3635.14
412.12	3717.06
412.33	3606.47
412.54	3530.70
412.76	3676.10
412.97	3516.36
413.18	3430.35
413.39	3520.46
413.60	3669.96
413.81	3618.76
414.03	3612.62
414.24	3608.52
414.45	3815.37
414.66	3637.19
414.87	3706.82
415.08	3674.06
415.30	3706.82
415.51	3889.09
415.72	3633.10
415.93	3760.07
416.14	3747.78
416.35	3753.93
416.56	3710.92
416.78	3882.95
416.99	3753.93
417.20	3903.43
417.41	3844.04
417.62	3878.85
417.83	3864.52
418.04	3901.38
418.26	3946.44
418.47	3837.89
418.68	4014.02
418.89	3954.63
419.10	4081.60
419.31	4104.13
419.52	4069.31
419.73	4046.79
419.95	4206.53
420.16	3960.77
420.37	3964.87
420.58	4169.66
420.79	3858.37
421.00	4022.21
421.21	4028.35
421.42	4114.37
421.63	4108.23
421.85	4108.23
422.06	4100.03
422.27	4196.29
422.48	4130.75
422.69	4145.09
422.90	4253.63
423.11	4138.94
423.32	4198.34
423.53	4458.43
423.75	4190.14
423.96	4427.71
424.17	4370.37
424.38	4462.52
424.59	4343.74
424.80	4478.91
425.01	4427.71
425.22	4396.99
425.43	4452.28
425.64	4695.99
425.85	4558.78
426.06	4519.87
426.28	4499.39
426.49	4448.19
426.70	4513.72
426.91	4646.84
427.12	4741.05
427.33	4509.63
427.54	4546.49
427.75	4669.37
427.96	4847.54
428.17	4728.76
428.38	4732.86
428.59	4835.25
428.80	4777.91
429.01	4923.32
429.23	4857.78
429.44	4990.90
429.65	4908.98
429.86	4888.50
430.07	4872.12
430.28	4822.97
430.49	5054.39
430.70	4960.18
430.91	5005.24
431.12	4890.55
431.33	5197.74
431.54	5191.60
431.75	5027.76
431.96	4947.89
432.17	5097.39
432.38	5177.26
432.59	5300.14
432.80	5230.51
433.01	5242.80
433.22	5429.17
433.43	5205.94
433.64	5205.94
433.85	5214.13
434.06	5312.43
434.27	5160.88
434.49	5418.93
434.70	5474.22
434.91	5414.83
435.12	5466.03
435.33	5468.08
435.54	5384.11
435.75	5220.27
435.96	5423.02
436.17	5277.62
436.38	5472.17
436.59	5576.62
436.80	5439.40
437.01	5701.54
437.22	5701.54
437.43	5513.13
437.64	5377.97
437.85	5668.78
438.06	5752.74
438.27	5523.37
438.48	5650.35
438.69	5779.37
438.90	5717.93
439.11	5617.58
439.32	5683.11
439.53	5803.94
439.74	5808.04
439.95	5801.90
440.16	5842.85
440.37	5771.18
440.57	5767.08
440.78	5898.15
440.99	5932.97
441.20	5849.00
441.41	5775.27
441.62	5857.19
441.83	5756.84
442.04	6029.22
442.25	5973.92
442.46	5939.11
442.67	6064.04
442.88	6487.96
443.09	6086.56
443.30	5967.78
443.51	6238.11
443.72	6279.07
443.93	6088.61
444.14	6350.75
444.35	6268.83
444.56	6227.87
444.77	6143.91
444.98	6352.80
445.19	6545.31
445.40	6236.06
445.61	6389.66
445.81	6426.53
446.02	6385.57
446.23	6416.29
446.44	6145.95
446.65	6498.20
446.86	6547.36
447.07	6535.07
447.28	6807.45
447.49	6492.06
447.70	6520.73
447.91	6639.51
448.12	6823.83
448.33	6676.38
448.54	6715.29
448.74	6551.45
448.95	6639.51
449.16	6633.37
449.37	6993.81
449.58	6711.19
449.79	6946.71
450.00	6770.58
450.21	6879.13
450.42	7114.64
450.63	7055.25
450.84	6930.33
451.05	7143.32
451.25	7088.02
451.46	6924.18
451.67	7038.87
451.88	7188.37
452.09	7335.82
452.30	7260.05
452.51	7061.40
452.72	7366.54
452.93	7536.52
453.13	7251.86
453.34	7163.79
453.55	7210.90
453.76	7219.09
453.97	7638.92
454.18	7526.29
454.39	7507.85
454.60	7466.89
454.81	7430.03
455.01	7587.72
455.22	7339.92
455.43	7575.44
455.64	7741.32
455.85	7858.06
456.06	7964.55
456.27	7667.60
456.48	7681.93
456.68	7823.24
456.89	7765.90
457.10	7878.54
457.31	8130.44
457.52	7995.27
457.73	7999.37
457.94	8236.93
458.14	8134.53
458.35	8595.32
458.56	8089.48
458.77	8128.39
458.98	8333.18
459.19	8251.27
459.39	8451.97
459.60	8548.22
459.81	8343.42
460.02	8640.38
460.23	8699.77
460.44	8648.57
460.65	8728.44
460.85	8800.12
461.06	8767.35
461.27	8578.94
461.48	9002.87
461.69	8966.01
461.89	8730.49
462.10	8855.42
462.31	8691.58
462.52	8877.94
462.73	8793.98
462.94	9133.94
463.14	9060.21
463.35	8974.20
463.56	9336.69
463.77	9283.44
463.98	9207.67
464.18	9174.90
464.39	9514.86
464.60	9729.90
464.81	9506.67
465.02	9637.74
465.23	9723.76
465.43	9449.33
465.64	9893.74
465.85	9473.90
466.06	9705.32
466.27	9953.13
466.47	9783.15
466.68	9817.96
466.89	9932.65
467.10	10014.57
467.30	9779.05
467.51	10047.33
467.72	10397.54
467.93	10133.35
468.14	10389.35
468.34	10360.67
468.55	10495.84
468.76	10432.35
468.97	10415.97
469.17	10661.73
469.38	10755.93
469.59	10825.56
469.80	10461.02
470.01	10850.14
470.21	11016.02
470.42	11026.26
470.63	11124.57
470.84	10948.44
471.04	11280.21
471.25	11253.59
471.46	11077.46
471.67	11437.91
471.87	11319.12
472.08	11392.85
472.29	11560.78
472.50	11315.03
472.70	11618.13
472.91	11618.13
473.12	11786.06
473.33	11831.12
473.53	11878.22
473.74	12056.39
473.95	12062.54
474.16	12166.98
474.36	12171.08
474.57	12463.94
474.78	12181.32
474.99	12410.69
475.19	12281.67
475.40	12773.18
475.61	12814.14
475.81	12863.29
476.02	13037.37
476.23	12787.52
476.44	13020.99
476.64	13248.31
476.85	13285.17
477.06	13338.42
477.27	13549.36
477.47	13608.75
477.68	13662.00
477.89	13678.38
478.09	13625.14
478.30	13850.41
478.51	13997.87
478.71	14233.38
478.92	14219.05
479.13	14274.34
479.34	14192.42
479.54	14346.02
479.75	14348.07
479.96	14583.59
480.16	14436.13
480.37	14653.22
480.58	14718.75
480.78	15089.43
480.99	14976.80
481.20	15173.40
481.41	15138.58
481.61	15290.13
481.82	15298.33
482.03	15423.25
482.23	15367.96
482.44	15795.98
482.65	15925.00
482.85	15587.09
483.06	15935.24
483.27	15888.14
483.47	15982.35
483.68	16133.90
483.89	16516.87
484.09	16287.50
484.30	16293.64
484.51	16625.41
484.71	16670.47
484.92	16731.90
485.13	16824.06
485.33	16953.09
485.54	17018.62
485.75	17170.17
485.95	17243.90
486.16	17151.74
486.37	17553.14
486.57	17438.45
486.78	17301.24
486.98	17460.98
487.19	17819.38
487.40	17837.81
487.60	17860.34
487.81	18083.56
488.02	18071.28
488.22	18157.29
488.43	18276.07
488.64	18423.53
488.84	18480.87
489.05	18513.64
489.25	18562.79
489.46	18900.70
489.67	18616.04
489.87	19246.81
490.08	19144.41
490.29	18929.38
490.49	19226.33
490.70	19195.61
490.90	19496.66
491.11	19629.78
491.32	19789.52
491.52	19674.84
491.73	19764.95
491.94	19902.16
492.14	19723.99
492.35	20266.70
492.55	20307.66
492.76	20242.12
492.97	20430.54
493.17	20373.19
493.38	20592.33
493.58	20694.72
493.79	20725.44
494.00	20643.52
494.20	20997.82
494.41	21087.93
494.61	21176.00
494.82	21194.43
495.02	21251.77
495.23	21356.22
495.44	21475.00
495.64	21425.85
495.85	21487.29
496.05	21704.37
496.26	21499.58
496.47	21651.13
496.67	21860.02
496.88	22142.64
497.08	21935.79
497.29	22105.77
497.49	22333.10
497.70	22388.39
497.91	22652.58
498.11	22810.28
498.32	22681.25
498.52	22759.08
498.73	23144.09
498.93	22787.75
499.14	22986.40
499.34	22695.59
499.55	23195.29
499.76	23197.34
499.96	23002.78
500.17	23439.00
500.37	23209.63
500.58	23320.22
500.78	23496.35
500.99	23729.81
501.19	23684.76
501.40	23811.73
501.60	23594.65
501.81	23674.52
502.02	24030.87
502.22	23828.12
502.43	24213.13
502.63	24034.96
502.84	24237.71
503.04	24299.15
503.25	23893.65
503.45	24460.94
503.66	24387.21
503.86	24256.14
504.07	24759.94
504.27	24444.56
504.48	24960.64
504.68	24919.68
504.89	24872.58
505.09	24878.72
505.30	25288.32
505.50	24907.40
505.71	24960.64
505.91	25112.19
506.12	24956.55
506.32	25020.03
506.53	24995.46
506.73	25427.58
506.94	25562.75
507.14	25349.76
507.35	25650.81
507.55	25513.59
507.76	25529.98
507.96	25638.52
508.17	25583.23
508.37	25757.30
508.58	25869.94
508.78	25644.66
508.99	26277.49
509.19	25906.80
509.40	26080.88
509.60	25978.48
509.81	26396.27
510.01	25896.56
510.22	25992.82
510.42	26386.03
510.63	26476.14
510.83	26474.09
511.04	26338.93
511.24	26478.19
511.44	26711.66
511.65	26615.40
511.85	26523.24
512.06	26752.62
512.26	26803.82
512.47	26664.55
512.67	26725.99
512.88	26867.30
513.08	26785.38
513.29	26922.60
513.49	26922.60
513.69	26967.65
513.90	26965.60
514.10	27354.72
514.31	27135.59
514.51	26967.65
514.72	27072.10
514.92	27305.57
515.13	27356.77
515.33	27307.62
515.53	27383.39
515.74	27848.28
515.94	27647.58
516.15	27715.16
516.35	27297.38
516.56	27879.00
516.76	27319.90
516.96	28010.07
517.17	28044.88
517.37	27715.16
517.58	27991.64
517.78	27762.26
517.99	27993.68
518.19	28034.64
518.39	28212.82
518.60	28550.73
518.80	28311.12
519.01	28335.70
519.21	28247.63
519.41	28206.67
519.62	28624.46
519.82	28780.10
520.03	28597.84
520.23	28622.41
520.43	28864.07
520.64	28778.06
520.84	29144.64
521.05	28919.37
521.25	28948.04
521.45	29027.91
521.66	29263.43
521.86	28976.71
522.07	29236.80
522.27	29359.68
522.47	29267.52
522.68	29601.34
522.88	29537.85
523.08	30017.08
523.29	29898.30
523.49	29595.20
523.70	29681.21
523.90	29951.54
524.10	29730.36
524.31	30051.89
524.51	29939.26
524.71	30475.82
524.92	30281.27
525.12	30533.17
525.33	30225.97
525.53	30473.78
525.73	30807.59
525.94	30508.59
526.14	30438.96
526.34	30873.13
526.55	30858.79
526.75	30783.02
526.95	31342.11
527.16	30963.24
527.36	30932.52
527.56	31383.07
527.77	31385.12
527.97	31512.10
528.17	31628.83
528.38	31907.35
528.58	31471.14
528.78	31901.21
528.99	31688.22
529.19	32177.68
529.39	31733.28
529.60	32138.77
529.80	32374.29
530.00	32472.59
530.21	32265.75
530.41	32359.95
530.61	32587.28
530.82	32534.03
531.02	32802.32
531.22	32876.04
531.43	33113.61
531.63	33060.36
531.83	33230.34
532.04	33873.40
532.24	33254.92
532.44	33715.71
532.64	33701.37
532.85	33674.75
533.05	33625.60
533.25	33584.64
533.46	34057.72
533.66	34067.96
533.86	33869.31
534.07	34285.04
534.27	34149.88
534.47	34907.63
534.67	34629.10
534.88	34366.96
535.08	34639.34
535.28	34682.35
535.49	34512.37
535.69	35132.90
535.89	35104.23
536.09	35079.66
536.30	35429.86
536.50	35149.29
536.70	35360.23
536.91	35747.29
537.11	35681.76
537.31	35857.88
537.51	35749.34
537.72	35806.69
537.92	36238.81
538.12	36253.14
538.32	36275.67
538.53	36636.11
538.73	36249.05
538.93	36689.36
539.13	36505.04
539.34	36505.04
539.54	36339.16
539.74	37090.76
539.94	36857.29
540.15	36836.81
540.35	37051.85
540.55	37217.74
540.75	37342.66
540.96	37313.99
541.16	37281.22
541.36	37389.77
541.56	37492.16
541.77	37778.88
541.97	37711.30
542.17	37844.41
542.37	37854.65
542.58	38245.82
542.78	37926.33
542.98	38024.64
543.18	38104.51
543.38	38899.12
543.59	38682.03
543.79	38161.85
543.99	38483.38
544.19	38972.85
544.40	38686.13
544.60	39275.94
544.80	38954.41
545.00	38753.71
545.20	39638.44
545.41	39056.81
545.61	38974.89
545.81	38884.78
546.01	39794.08
546.21	39376.30
546.42	39570.85
546.62	39515.56
546.82	39189.93
547.02	39667.11
547.22	39753.12
547.43	39658.91
547.63	39695.78
547.83	39951.77
548.03	39591.33
548.23	39968.16
548.44	39873.95
548.64	40119.71
548.84	40566.16
549.04	40168.86
549.24	40500.63
549.45	40664.47
549.65	40101.28
549.85	40347.03
550.05	40809.87
550.25	40703.38
550.45	40940.94
550.66	40899.98
550.86	40656.28
551.06	41328.01
551.26	41293.19
551.46	41096.59
551.66	41299.34
551.87	40867.22
552.07	41188.75
552.27	41061.77
552.47	41117.07
552.67	41629.06
552.87	41325.96
553.07	41737.60
553.28	41518.47
553.48	41790.85
553.68	41557.38
553.88	41565.57
554.08	41285.00
554.28	41635.20
554.48	41088.40
554.69	41854.34
554.89	41975.17
555.09	41883.01
555.29	41827.71
555.49	41952.64
555.69	41915.78
555.89	42005.89
556.10	42349.95
556.30	42098.05
556.50	42204.54
556.70	42014.08
556.90	42349.95
557.10	42591.61
557.30	41878.91
557.50	42499.45
557.70	42599.80
557.91	42833.27
558.11	42904.95
558.31	43009.39
558.51	42638.71
558.71	43001.20
558.91	43005.30
559.11	42458.49
559.31	42671.48
559.51	42759.54
559.72	42706.29
559.92	43373.93
560.12	42728.82
560.32	43050.35
560.52	42700.15
560.72	43269.48
560.92	43259.24
561.12	42792.31
561.32	43529.58
561.52	42710.39
561.72	43775.33
561.93	43412.84
562.13	43289.96
562.33	43212.14
562.53	43318.64
562.73	43017.58
562.93	43304.30
563.13	43283.82
563.33	43490.66
563.53	43785.57
563.73	43308.40
563.93	43242.86
564.13	44201.31
564.33	43404.65
564.53	44189.02
564.74	43793.76
564.94	43478.38
565.14	43883.87
565.34	43388.27
565.54	43988.32
565.74	43582.82
565.94	43998.56
566.14	43505.00
566.34	43697.51
566.54	44066.14
566.74	43169.13
566.94	43910.50
567.14	43984.22
567.34	43996.51
567.54	44422.49
567.74	44031.33
567.94	43908.45
568.14	44610.90
568.34	44578.14
568.54	44283.23
568.74	44488.03
568.94	44021.09
569.14	44453.21
569.34	43930.98
569.54	44229.98
569.75	44033.38
569.95	44531.03
570.15	44778.84
570.35	44266.84
570.55	44408.15
570.75	44238.17
570.95	44590.42
571.15	44528.98
571.35	44467.55
571.55	44838.23
571.75	44295.52
571.95	44586.33
572.15	44758.36
572.35	44260.70
572.55	44776.79
572.75	44864.85
572.95	44379.48
573.15	44875.09
573.35	45040.98
573.55	44721.49
573.75	44858.71
573.95	44963.15
574.15	44670.29
574.35	45200.72
574.55	44928.34
574.75	44711.25
574.95	45055.31
575.15	44825.94
575.34	45262.16
575.54	45303.12
575.74	45161.81
575.94	45598.02
576.14	45108.56
576.34	45479.24
576.54	45565.26
576.74	45557.06
576.94	45587.78
577.14	45731.14
577.34	45688.13
577.54	45176.14
577.74	45575.50
577.94	45540.68
578.14	45563.21
578.34	45854.02
578.54	45440.33
578.74	45751.62
578.94	46339.39
579.14	45473.10
579.34	45845.83
579.54	45980.99
579.74	46271.81
579.94	46052.67
580.13	46439.74
580.33	46413.12
580.53	46763.32
580.73	46257.47
580.93	46652.73
581.13	46337.34
581.33	46613.82
581.53	46681.40
581.73	46601.53
581.93	46779.70
582.13	46521.66
582.33	46472.51
582.53	46701.88
582.73	47230.26
582.92	46908.72
583.12	47138.10
583.32	46912.82
583.52	46787.89
583.72	47371.57
583.92	47150.38
584.12	47117.62
584.32	47453.48
584.52	47433.00
584.72	47424.81
584.92	47465.77
585.11	47881.51
585.31	47615.27
585.51	47101.23
585.71	47590.70
585.91	47772.97
586.11	47729.96
586.31	47568.17
586.51	47908.13
586.71	47652.14
586.91	48178.46
587.10	48215.33
587.30	48086.31
587.50	47949.09
587.70	48399.65
587.90	48436.51
588.10	48106.79
588.30	48244.00
588.50	48276.77
