SpectraSuite Data File
++++++++++++++++++++++++++++++++++++
Date: Fri Jun 02 14:49:31 CEST 2017
User: INFO_000
Dark Spectrum Present: No
Reference Spectrum Present: No
Number of Sampled Component Spectra: 1
Spectrometers: USB4H00879
Integration Time (usec): 80000 (USB4H00879)
Spectra Averaged: 1 (USB4H00879)
Boxcar Smoothing: 0 (USB4H00879)
Correct for Electrical Dark: No (USB4H00879)
Strobe/Lamp Enabled: No (USB4H00879)
Correct for Detector Non-linearity: No (USB4H00879)
Correct for Stray Light: No (USB4H00879)
Number of Pixels in Processed Spectrum: 3648
>>>>>Begin Processed Spectral Data<<<<<
345.13	1306.60
345.34	1306.60
345.56	1306.60
345.78	1314.80
345.99	1273.84
346.21	1757.16
346.42	1716.20
346.64	1615.85
346.86	1847.27
347.07	1669.09
347.29	1673.19
347.50	1595.37
347.72	1740.77
347.94	1769.44
348.15	1576.94
348.37	1589.22
348.59	1687.53
348.80	1583.08
349.02	1804.26
349.23	1871.84
349.45	1798.12
349.67	1880.04
349.88	1755.11
350.10	1957.86
350.31	1845.22
350.53	1773.54
350.75	1984.48
350.96	1781.73
351.18	1843.17
351.39	1871.84
351.61	1695.72
351.82	1898.47
352.04	1853.41
352.26	1781.73
352.47	1959.91
352.69	1951.71
352.90	1744.87
353.12	1857.51
353.34	1871.84
353.55	1863.65
353.77	1912.80
353.98	1824.74
354.20	1869.80
354.41	1867.75
354.63	1869.80
354.85	2076.64
355.06	1882.08
355.28	1837.03
355.49	1953.76
355.71	1873.89
355.92	1894.37
356.14	1953.76
356.35	1855.46
356.57	1898.47
356.79	1845.22
357.00	1886.18
357.22	1929.19
357.43	1849.32
357.65	1941.47
357.86	1882.08
358.08	1902.56
358.29	1933.28
358.51	1984.48
358.72	1980.39
358.94	1906.66
359.16	1927.14
359.37	1867.75
359.59	1941.47
359.80	1994.72
360.02	1961.95
360.23	1959.91
360.45	1986.53
360.66	1949.67
360.88	1779.68
361.09	1918.95
361.31	2033.63
361.52	1986.53
361.74	1994.72
361.95	2095.07
362.17	1908.71
362.38	2099.17
362.60	2015.20
362.81	1978.34
363.03	1937.38
363.24	1998.82
363.46	2066.40
363.67	2076.64
363.89	2021.35
364.10	2009.06
364.32	2050.02
364.53	2109.41
364.75	1859.56
364.96	1978.34
365.18	1920.99
365.39	2017.25
365.61	1964.00
365.82	2101.22
366.04	1998.82
366.25	2041.82
366.47	2056.16
366.68	2029.54
366.90	1984.48
367.11	2052.06
367.33	1994.72
367.54	2097.12
367.76	1970.15
367.97	2099.17
368.19	2062.30
368.40	2101.22
368.62	1970.15
368.83	1920.99
369.05	2074.59
369.26	1916.90
369.48	1970.15
369.69	2019.30
369.91	2011.11
370.12	1982.43
370.33	2170.85
370.55	1968.10
370.76	2066.40
370.98	2131.94
371.19	2058.21
371.41	2052.06
371.62	2009.06
371.84	2029.54
372.05	2133.98
372.27	2064.35
372.48	2021.35
372.69	2205.66
372.91	2080.74
373.12	2127.84
373.34	2109.41
373.55	2115.55
373.77	2138.08
373.98	2095.07
374.20	2181.09
374.41	2195.42
374.62	2084.83
374.84	2127.84
375.05	2181.09
375.27	2152.42
375.48	2170.85
375.70	2140.13
375.91	2236.38
376.12	2254.81
376.34	2076.64
376.55	2189.28
376.77	2230.24
376.98	2113.50
377.19	2140.13
377.41	2144.22
377.62	2222.05
377.84	2234.33
378.05	2306.01
378.27	2197.47
378.48	2279.39
378.69	2295.77
378.91	2234.33
379.12	2248.67
379.34	2285.53
379.55	2312.16
379.76	2246.62
379.98	2248.67
380.19	2277.34
380.41	2220.00
380.62	2258.91
380.83	2244.57
381.05	2287.58
381.26	2334.68
381.47	2293.72
381.69	2224.09
381.90	2387.93
382.12	2295.77
382.33	2371.55
382.54	2314.20
382.76	2211.81
382.97	2377.69
383.19	2344.92
383.40	2334.68
383.61	2330.59
383.83	2336.73
384.04	2279.39
384.25	2412.51
384.47	2406.36
384.68	2303.96
384.89	2248.67
385.11	2283.49
385.32	2332.64
385.54	2344.92
385.75	2367.45
385.96	2371.55
386.18	2381.79
386.39	2402.27
386.60	2396.12
386.82	2338.78
387.03	2355.16
387.24	2529.24
387.46	2455.51
387.67	2359.26
387.88	2549.72
388.10	2502.62
388.31	2504.67
388.52	2478.04
388.74	2566.10
388.95	2469.85
389.16	2572.25
389.38	2500.57
389.59	2537.43
389.80	2592.73
390.02	2510.81
390.23	2709.46
390.44	2486.23
390.66	2580.44
390.87	2545.63
391.08	2506.71
391.30	2764.76
391.51	2666.46
391.72	2697.17
391.94	2699.22
392.15	2648.02
392.36	2562.01
392.58	2553.82
392.79	2666.46
393.00	2703.32
393.22	2697.17
393.43	2705.37
393.64	2803.67
393.85	2807.77
394.07	2766.81
394.28	2795.48
394.49	2727.89
394.71	2727.89
394.92	2844.63
395.13	2637.78
395.35	2756.57
395.56	2721.75
395.77	2750.42
395.98	2828.24
396.20	2820.05
396.41	2770.90
396.62	2895.83
396.84	2721.75
397.05	2752.47
397.26	2893.78
397.47	2889.68
397.69	2822.10
397.90	3069.91
398.11	2904.02
398.32	2820.05
398.54	2842.58
398.75	2836.44
398.96	2934.74
399.18	3151.82
399.39	2883.54
399.60	2990.03
399.81	3016.66
400.03	2895.83
400.24	3217.36
400.45	2953.17
400.66	3123.15
400.88	2899.92
401.09	3147.73
401.30	2891.73
401.51	3178.45
401.73	3106.77
401.94	3121.10
402.15	3110.86
402.36	3012.56
402.58	3127.25
402.79	3147.73
403.00	3170.26
403.21	3137.49
403.43	3123.15
403.64	3295.18
403.85	3102.67
404.06	3297.23
404.27	3147.73
404.49	3133.39
404.70	3100.62
404.91	3270.61
405.12	3237.84
405.34	3258.32
405.55	3391.44
405.76	3231.69
405.97	3149.78
406.19	3360.72
406.40	3170.26
406.61	3411.92
406.82	3299.28
407.03	3266.51
407.25	3227.60
407.46	3375.05
407.67	3538.89
407.88	3379.15
408.09	3364.81
408.31	3327.95
408.52	3325.90
408.73	3383.24
408.94	3309.52
409.15	3379.15
409.37	3530.70
409.58	3499.98
409.79	3438.54
410.00	3510.22
410.21	3456.97
410.43	3428.30
410.64	3366.86
410.85	3510.22
411.06	3461.07
411.27	3491.79
411.48	3520.46
411.70	3553.23
411.91	3588.04
412.12	3682.25
412.33	3516.36
412.54	3667.91
412.76	3678.15
412.97	3661.77
413.18	3499.98
413.39	3573.71
413.60	3684.30
413.81	3583.95
414.03	3735.50
414.24	3641.29
414.45	3819.46
414.66	3518.41
414.87	3792.84
415.08	3784.65
415.30	3643.34
415.51	3725.26
415.72	3696.58
415.93	3680.20
416.14	3657.67
416.35	3815.37
416.56	3735.50
416.78	3710.92
416.99	3885.00
417.20	3772.36
417.41	3968.96
417.62	3813.32
417.83	3903.43
418.04	3870.66
418.26	3815.37
418.47	3897.28
418.68	3909.57
418.89	3993.54
419.10	4059.07
419.31	4071.36
419.52	4120.51
419.73	4036.55
419.95	4132.80
420.16	3977.16
420.37	3948.48
420.58	4024.26
420.79	3870.66
421.00	4073.41
421.21	4179.90
421.42	3999.68
421.63	4134.85
421.85	4206.53
422.06	4216.77
422.27	4237.25
422.48	4128.70
422.69	4243.39
422.90	4198.34
423.11	4366.27
423.32	4224.96
423.53	4425.66
423.75	4196.29
423.96	4419.52
424.17	4308.93
424.38	4523.96
424.59	4257.73
424.80	4458.43
425.01	4407.23
425.22	4386.75
425.43	4288.45
425.64	4526.01
425.85	4581.31
426.06	4530.11
426.28	4509.63
426.49	4503.48
426.70	4546.49
426.91	4538.30
427.12	4564.92
427.33	4579.26
427.54	4640.70
427.75	4648.89
427.96	4835.25
428.17	4612.03
428.38	4886.45
428.59	4908.98
428.80	4751.29
429.01	4714.42
429.23	4784.06
429.44	5023.67
429.65	4739.00
429.86	4941.75
430.07	4804.53
430.28	4849.59
430.49	4970.42
430.70	4992.95
430.91	5048.24
431.12	5021.62
431.33	5021.62
431.54	5033.91
431.75	5324.72
431.96	5195.70
432.17	5015.48
432.38	5078.96
432.59	5369.77
432.80	5193.65
433.01	5199.79
433.22	5275.57
433.43	5279.66
433.64	5171.12
433.85	5201.84
434.06	5334.96
434.27	5255.09
434.49	5236.66
434.70	5351.34
434.91	5390.25
435.12	5447.60
435.33	5332.91
435.54	5390.25
435.75	5146.55
435.96	5490.60
436.17	5416.88
436.38	5517.23
436.59	5631.91
436.80	5461.93
437.01	5726.12
437.22	5644.20
437.43	5578.67
437.64	5451.69
437.85	5812.14
438.06	5834.66
438.27	5672.87
438.48	5697.45
438.69	5789.61
438.90	5758.89
439.11	5732.26
439.32	5760.94
439.53	5654.44
439.74	5842.85
439.95	5914.53
440.16	5693.35
440.37	5791.66
440.57	5740.46
440.78	5988.26
440.99	5959.59
441.20	6080.42
441.41	5918.63
441.62	5988.26
441.83	5869.48
442.04	6049.70
442.25	6098.85
442.46	6148.00
442.67	6360.99
442.88	6365.09
443.09	6000.55
443.30	6164.39
443.51	6051.75
443.72	6348.70
443.93	6121.38
444.14	6426.53
444.35	6059.94
444.56	6234.02
444.77	6279.07
444.98	6305.70
445.19	6397.85
445.40	6436.77
445.61	6291.36
445.81	6377.37
446.02	6416.29
446.23	6487.96
446.44	6133.67
446.65	6504.35
446.86	6528.92
447.07	6522.78
447.28	6717.34
447.49	6662.04
447.70	6520.73
447.91	6643.61
448.12	6524.83
448.33	6631.32
448.54	6756.25
448.74	6662.04
448.95	6852.50
449.16	6694.81
449.37	7096.21
449.58	6852.50
449.79	6961.05
450.00	6891.41
450.21	6864.79
450.42	6942.61
450.63	7120.79
450.84	6875.03
451.05	7094.16
451.25	6961.05
451.46	6782.87
451.67	7049.11
451.88	7208.85
452.09	7032.72
452.30	6983.57
452.51	7051.16
452.72	7229.33
452.93	7587.72
453.13	7061.40
453.34	7333.78
453.55	7403.41
453.76	7305.10
453.97	7643.02
454.18	7307.15
454.39	7563.15
454.60	7389.07
454.81	7442.32
455.01	7464.85
455.22	7452.56
455.43	7466.89
455.64	7720.84
455.85	7516.05
456.06	7872.39
456.27	7806.86
456.48	7726.99
456.68	7919.50
456.89	7786.38
457.10	8013.70
457.31	7892.87
457.52	7845.77
457.73	8025.99
457.94	8195.97
458.14	7911.30
458.35	8388.48
458.56	8099.72
458.77	8042.37
458.98	8124.29
459.19	8161.16
459.39	8392.58
459.60	8427.39
459.81	8329.09
460.02	8755.07
460.23	8488.83
460.44	8669.05
460.65	8746.87
460.85	8695.68
461.06	8685.44
461.27	8501.12
461.48	8875.90
461.69	8937.34
461.89	8675.20
462.10	8793.98
462.31	8791.93
462.52	8800.12
462.73	8933.24
462.94	8912.76
463.14	8939.38
463.35	9029.49
463.56	9414.51
463.77	9387.89
463.98	9072.50
464.18	9144.18
464.39	9473.90
464.60	9576.30
464.81	9496.43
465.02	9447.28
465.23	9795.43
465.43	9596.78
465.64	9725.80
465.85	9805.67
466.06	9547.63
466.27	9992.04
466.47	9791.34
466.68	10037.09
466.89	9901.93
467.10	10153.83
467.30	9760.62
467.51	9877.35
467.72	10354.53
467.93	9891.69
468.14	10405.73
468.34	10260.32
468.55	10395.49
468.76	10387.30
468.97	10241.89
469.17	10649.44
469.38	10905.43
469.59	10723.16
469.80	10602.33
470.01	10663.77
470.21	10723.16
470.42	11077.46
470.63	10911.58
470.84	10921.82
471.04	11253.59
471.25	11247.44
471.46	11263.83
471.67	11552.59
471.87	11198.29
472.08	11413.33
472.29	11730.76
472.50	11433.81
472.70	11433.81
472.91	11757.39
473.12	11974.47
473.33	11642.70
473.53	11999.05
473.74	11886.41
473.95	12230.47
474.16	12238.66
474.36	12234.57
474.57	12416.83
474.78	12584.77
474.99	12457.79
475.19	12398.40
475.40	12642.11
475.61	12851.00
475.81	12926.78
476.02	13055.80
476.23	13166.39
476.44	12988.22
476.64	13340.47
476.85	13532.98
477.06	13303.60
477.27	13434.68
477.47	13659.95
477.68	13791.02
477.89	13954.86
478.09	13877.04
478.30	13997.87
478.51	13758.25
478.71	14243.62
478.92	14262.05
479.13	14278.44
479.34	14305.06
479.54	14327.59
479.75	14483.24
479.96	14466.85
480.16	14776.09
480.37	14767.90
480.58	15015.71
480.78	15286.04
480.99	15179.54
481.20	15027.99
481.41	15224.60
481.61	15509.27
481.82	15425.30
482.03	15433.49
482.23	15216.41
482.44	15867.66
482.65	15882.00
482.85	16031.50
483.06	16062.22
483.27	16178.95
483.47	16119.56
483.68	16004.88
483.89	16281.35
484.09	16486.15
484.30	16488.20
484.51	16703.23
484.71	16891.65
484.92	16619.27
485.13	17112.83
485.33	16916.22
485.54	16936.70
485.75	17303.29
485.95	17327.86
486.16	17325.82
486.37	17622.77
486.57	17307.38
486.78	17716.98
486.98	17469.17
487.19	17759.98
487.40	17946.35
487.60	17934.06
487.81	18185.96
488.02	17970.93
488.22	17964.78
488.43	18409.19
488.64	18493.16
488.84	18507.49
489.05	18525.93
489.25	18464.49
489.46	19021.53
489.67	18867.94
489.87	18929.38
490.08	19138.27
490.29	19187.42
490.49	19554.01
490.70	19664.60
490.90	19482.33
491.11	19566.29
491.32	19588.82
491.52	19433.18
491.73	19998.41
491.94	20184.78
492.14	20027.09
492.35	20174.54
492.55	20235.98
492.76	20186.83
492.97	20215.50
493.17	20344.52
493.38	20510.41
493.58	20422.34
493.79	20395.72
494.00	20844.23
494.20	20920.00
494.41	20711.11
494.61	20899.52
494.82	20952.77
495.02	21012.16
495.23	21294.78
495.44	21489.34
495.64	21587.64
495.85	21305.02
496.05	21550.78
496.26	21417.66
496.47	21657.27
496.67	21798.58
496.88	21989.04
497.08	21710.52
497.29	22144.69
497.49	22251.18
497.70	22058.67
497.91	22228.65
498.11	22400.68
498.32	22507.18
498.52	22531.75
498.73	22746.79
498.93	22806.18
499.14	22793.89
499.34	22716.07
499.55	23008.93
499.76	22881.95
499.96	22935.20
500.17	23156.38
500.37	22898.34
500.58	23174.81
500.78	23017.12
500.99	23772.82
501.19	23649.94
501.40	23875.22
501.60	23408.28
501.81	23529.11
502.02	23850.64
502.22	23420.57
502.43	24096.40
502.63	23819.92
502.84	24071.82
503.04	24235.66
503.25	24352.40
503.45	24086.16
503.66	24395.40
503.86	24405.64
504.07	24700.55
504.27	24131.22
504.48	24608.39
504.68	24456.84
504.89	24815.24
505.09	24874.63
505.30	24567.43
505.50	24927.88
505.71	25003.65
505.91	25116.29
506.12	24731.27
506.32	24979.07
506.53	25220.74
506.73	25235.07
506.94	25280.13
507.14	25114.24
507.35	25296.51
507.55	25106.05
507.76	25618.04
507.96	25345.66
508.17	25495.16
508.37	25462.40
508.58	25560.70
508.78	25708.15
508.99	26121.84
509.19	25708.15
509.40	25998.96
509.60	25896.56
509.81	25892.47
510.01	25843.32
510.22	25935.48
510.42	26189.42
510.63	26031.73
510.83	26426.99
511.04	26127.99
511.24	26480.24
511.44	26361.45
511.65	26648.17
511.85	26455.66
512.06	26480.24
512.26	26721.90
512.47	26820.20
512.67	26543.72
512.88	26580.59
513.08	26177.14
513.29	27168.35
513.49	26848.87
513.69	26689.13
513.90	26644.07
514.10	27031.14
514.31	26959.46
514.51	26914.41
514.72	26979.94
514.92	27207.26
515.13	27246.18
515.33	27203.17
515.53	27692.63
515.74	27524.70
515.94	27530.84
516.15	27485.79
516.35	27328.10
516.56	27821.66
516.76	27647.58
516.96	27848.28
517.17	28085.84
517.37	27821.66
517.58	28030.55
517.78	27827.80
517.99	28161.62
518.19	28272.21
518.39	28153.43
518.60	28278.35
518.80	28044.88
519.01	28483.15
519.21	28364.37
519.41	28524.11
519.62	28278.35
519.82	28536.40
520.03	28868.17
520.23	28610.12
520.43	28712.52
520.64	28880.46
520.84	29052.48
521.05	29032.00
521.25	29279.81
521.45	29062.72
521.66	29609.53
521.86	28931.65
522.07	29328.96
522.27	29558.33
522.47	29378.11
522.68	29974.07
522.88	29441.60
523.08	29910.58
523.29	29804.09
523.49	29853.24
523.70	29793.85
523.90	30232.11
524.10	29871.67
524.31	30336.56
524.51	30215.73
524.71	30561.84
524.92	30266.93
525.12	30897.70
525.33	30864.94
525.53	30684.72
525.73	30936.62
525.94	30936.62
526.14	30852.65
526.34	31194.66
526.55	31059.49
526.75	31082.02
526.95	31252.00
527.16	31395.36
527.36	31235.62
527.56	31325.73
527.77	31581.73
527.97	31663.64
528.17	31559.20
528.38	32022.04
528.58	31782.43
528.78	32237.08
528.99	32179.73
529.19	32130.58
529.39	32028.18
529.60	32413.20
529.80	32466.45
530.00	32511.50
530.21	32837.13
530.41	32933.39
530.61	32722.44
530.82	33064.46
531.02	32357.91
531.22	32955.91
531.43	33170.95
531.63	33127.94
531.83	33320.45
532.04	33738.24
532.24	33644.03
532.44	33660.41
532.64	33797.63
532.85	33893.88
533.05	34037.24
533.25	34291.19
533.46	33836.54
533.66	34371.06
533.86	34074.10
534.07	34377.20
534.27	34735.60
534.47	34973.16
534.67	34719.21
534.88	34838.00
535.08	34774.51
535.28	35485.15
535.49	35098.09
535.69	35263.97
535.89	35227.11
536.09	35356.13
536.30	35743.20
536.50	35618.27
536.70	35716.58
536.91	35464.67
537.11	35788.25
537.31	36242.90
537.51	35966.43
537.72	36324.82
537.92	36333.01
538.12	36861.39
538.32	36175.32
538.53	36767.18
538.73	36470.23
538.93	36572.63
539.13	36459.99
539.34	36392.40
539.54	36685.26
539.74	37078.47
539.94	37080.52
540.15	36916.68
540.35	37252.55
540.55	37084.62
540.75	37035.47
540.96	37672.39
541.16	37502.40
541.36	37461.44
541.56	37619.14
541.77	37815.74
541.97	37852.61
542.17	38010.30
542.37	38196.67
542.58	37928.38
542.78	38045.12
542.98	38301.11
543.18	38073.79
543.38	38700.47
543.59	38546.87
543.79	38245.82
543.99	38669.75
544.19	38655.41
544.40	38534.58
544.60	38639.03
544.80	38624.69
545.00	38829.49
545.20	39220.65
545.41	38911.41
545.61	39081.39
545.81	39349.67
546.01	39499.17
546.21	39581.09
546.42	39349.67
546.62	39464.36
546.82	39327.14
547.02	39257.51
547.22	39646.63
547.43	39804.32
547.63	39824.80
547.83	39810.46
548.03	39241.13
548.23	39816.61
548.44	39810.46
548.64	40121.76
548.84	40015.26
549.04	40236.44
549.24	40263.07
549.45	40914.32
549.65	40338.84
549.85	40283.55
550.05	40492.44
550.25	40756.63
550.45	40899.98
550.66	40756.63
550.86	40492.44
551.06	40699.28
551.26	41139.60
551.46	41055.63
551.66	40865.17
551.87	41241.99
552.07	41053.58
552.27	40889.74
552.47	41309.58
552.67	41313.67
552.87	41026.96
553.07	41471.37
553.28	41121.16
553.48	41291.15
553.68	41383.30
553.88	42038.65
554.08	41684.36
554.28	41551.24
554.48	41438.60
554.69	41803.14
554.89	41919.87
555.09	41831.81
555.29	41864.58
555.49	41651.59
555.69	41596.29
555.89	41905.54
556.10	42005.89
556.30	42186.11
556.50	42288.51
556.70	41727.36
556.90	42096.00
557.10	41956.74
557.30	41774.47
557.50	42368.38
557.70	42319.23
557.91	42382.71
558.11	42354.04
558.31	42327.42
558.51	41989.50
558.71	42313.08
558.91	42718.58
559.11	42153.34
559.31	42630.52
559.51	42206.59
559.72	42104.19
559.92	42370.43
560.12	42483.06
560.32	42640.76
560.52	42483.06
560.72	42972.53
560.92	42915.19
561.12	42427.77
561.32	43341.16
561.52	43029.87
561.72	43588.97
561.93	42739.06
562.13	42872.18
562.33	43083.12
562.53	43378.03
562.73	43056.50
562.93	43238.76
563.13	43093.36
563.33	43070.83
563.53	43439.47
563.73	43072.88
563.93	43240.81
564.13	43609.45
564.33	43130.22
564.53	43394.41
564.74	43343.21
564.94	43246.96
565.14	43206.00
565.34	43375.98
565.54	43734.37
565.74	43513.19
565.94	43941.22
566.14	43406.70
566.34	43595.11
566.54	43537.77
566.74	43285.87
566.94	43943.27
567.14	43933.03
567.34	43595.11
567.54	44006.75
567.74	43771.24
567.94	43740.52
568.14	43982.18
568.34	43777.38
568.54	44004.70
568.74	43789.67
568.94	43988.32
569.14	44414.30
569.34	43865.44
569.54	44164.45
569.75	43734.37
569.95	43894.11
570.15	44346.72
570.35	44485.98
570.55	44182.88
570.75	44242.27
570.95	44139.87
571.15	44342.62
571.35	44275.04
571.55	44453.21
571.75	44531.03
571.95	44881.24
572.15	44639.57
572.35	44500.31
572.55	44596.57
572.75	44619.10
572.95	44299.61
573.15	44836.18
573.35	44690.77
573.55	44612.95
573.75	45200.72
573.95	44965.20
574.15	44502.36
574.35	45135.18
574.55	45231.44
574.75	45151.57
574.95	45075.79
575.15	45241.68
575.34	45028.69
575.54	45313.36
575.74	45147.47
575.94	45659.46
576.14	44778.84
576.34	45700.42
576.54	45759.81
576.74	45100.37
576.94	45311.31
577.14	45759.81
577.34	45725.00
577.54	45534.54
577.74	45716.81
577.94	46087.49
578.14	45872.45
578.34	46187.84
578.54	45571.40
578.74	45434.19
578.94	45933.89
579.14	45958.47
579.34	46142.78
579.54	46355.77
579.74	46216.51
579.94	46470.46
580.13	46478.65
580.33	46060.87
580.53	46290.24
580.73	46050.63
580.93	46603.58
581.13	46726.46
581.33	46683.45
581.53	46507.32
581.73	46613.82
581.93	46601.53
582.13	46990.64
582.33	46726.46
582.53	46884.15
582.73	46859.57
582.92	47015.22
583.12	47101.23
583.32	47117.62
583.52	46730.55
583.72	47138.10
583.92	47260.97
584.12	47449.39
584.32	48196.90
584.52	47478.06
584.72	47457.58
584.92	47805.73
585.11	48164.13
585.31	47689.00
585.51	47666.47
585.71	47781.16
585.91	47805.73
586.11	47693.10
586.31	47555.88
586.51	48057.63
586.71	47674.66
586.91	48135.46
587.10	48039.20
587.30	48002.34
587.50	48250.14
587.70	48545.05
587.90	48198.94
588.10	47953.19
588.30	48780.57
588.50	48770.33
