SpectraSuite Data File
++++++++++++++++++++++++++++++++++++
Date: Fri Jun 02 14:49:28 CEST 2017
User: INFO_000
Dark Spectrum Present: No
Reference Spectrum Present: No
Number of Sampled Component Spectra: 1
Spectrometers: USB4H00879
Integration Time (usec): 80000 (USB4H00879)
Spectra Averaged: 1 (USB4H00879)
Boxcar Smoothing: 0 (USB4H00879)
Correct for Electrical Dark: No (USB4H00879)
Strobe/Lamp Enabled: No (USB4H00879)
Correct for Detector Non-linearity: No (USB4H00879)
Correct for Stray Light: No (USB4H00879)
Number of Pixels in Processed Spectrum: 3648
>>>>>Begin Processed Spectral Data<<<<<
345.13	1243.12
345.34	1243.12
345.56	1243.12
345.78	1251.31
345.99	1298.41
346.21	1708.01
346.42	1662.95
346.64	1656.81
346.86	1843.17
347.07	1613.80
347.29	1703.91
347.50	1673.19
347.72	1697.77
347.94	1757.16
348.15	1568.74
348.37	1562.60
348.59	1693.67
348.80	1650.66
349.02	1697.77
349.23	1904.61
349.45	1834.98
349.67	1904.61
349.88	1804.26
350.10	1994.72
350.31	1812.45
350.53	1873.89
350.75	1906.66
350.96	1796.07
351.18	1853.41
351.39	1853.41
351.61	1828.84
351.82	1863.65
352.04	1861.60
352.26	1851.36
352.47	1896.42
352.69	1847.27
352.90	1757.16
353.12	1863.65
353.34	1812.45
353.55	1945.57
353.77	1884.13
353.98	1779.68
354.20	1810.40
354.41	1896.42
354.63	1935.33
354.85	2039.78
355.06	1847.27
355.28	1822.69
355.49	1937.38
355.71	1914.85
355.92	1853.41
356.14	1925.09
356.35	1959.91
356.57	1845.22
356.79	1906.66
357.00	1837.03
357.22	1968.10
357.43	1855.46
357.65	1935.33
357.86	1839.08
358.08	1869.80
358.29	1961.95
358.51	1959.91
358.72	1892.32
358.94	1947.62
359.16	1949.67
359.37	1828.84
359.59	1976.29
359.80	1951.71
360.02	2021.35
360.23	2000.87
360.45	2047.97
360.66	1894.37
360.88	1892.32
361.09	1892.32
361.31	1984.48
361.52	1931.23
361.74	1998.82
361.95	2119.65
362.17	1945.57
362.38	2129.89
362.60	2068.45
362.81	1998.82
363.03	2011.11
363.24	2086.88
363.46	2080.74
363.67	1996.77
363.89	1935.33
364.10	1964.00
364.32	1970.15
364.53	2140.13
364.75	1898.47
364.96	1982.43
365.18	2123.74
365.39	2076.64
365.61	2011.11
365.82	2066.40
366.04	1937.38
366.25	1955.81
366.47	1968.10
366.68	2015.20
366.90	1923.04
367.11	2058.21
367.33	2086.88
367.54	2050.02
367.76	1984.48
367.97	2117.60
368.19	2058.21
368.40	2101.22
368.62	1892.32
368.83	2072.54
369.05	2109.41
369.26	1953.76
369.48	1996.77
369.69	2064.35
369.91	2015.20
370.12	1941.47
370.33	2082.78
370.55	2017.25
370.76	2017.25
370.98	2009.06
371.19	2058.21
371.41	2066.40
371.62	2043.87
371.84	1980.39
372.05	2199.52
372.27	2025.44
372.48	2107.36
372.69	2095.07
372.91	2183.13
373.12	2215.90
373.34	2115.55
373.55	2142.18
373.77	2174.94
373.98	2123.74
374.20	2240.48
374.41	2197.47
374.62	2103.26
374.84	2062.30
375.05	2222.05
375.27	2209.76
375.48	2205.66
375.70	2226.14
375.91	2211.81
376.12	2222.05
376.34	2142.18
376.55	2174.94
376.77	2205.66
376.98	2193.37
377.19	2111.46
377.41	2103.26
377.62	2203.61
377.84	2117.60
378.05	2291.68
378.27	2156.51
378.48	2326.49
378.69	2367.45
378.91	2332.64
379.12	2222.05
379.34	2260.96
379.55	2230.24
379.76	2273.25
379.98	2236.38
380.19	2213.85
380.41	2248.67
380.62	2314.20
380.83	2293.72
381.05	2246.62
381.26	2394.08
381.47	2228.19
381.69	2166.75
381.90	2402.27
382.12	2281.44
382.33	2287.58
382.54	2228.19
382.76	2230.24
382.97	2285.53
383.19	2263.01
383.40	2383.84
383.61	2287.58
383.83	2269.15
384.04	2326.49
384.25	2365.40
384.47	2346.97
384.68	2326.49
384.89	2318.30
385.11	2400.22
385.32	2355.16
385.54	2318.30
385.75	2265.05
385.96	2402.27
386.18	2430.94
386.39	2437.08
386.60	2346.97
386.82	2346.97
387.03	2355.16
387.24	2383.84
387.46	2443.23
387.67	2439.13
387.88	2488.28
388.10	2475.99
388.31	2525.15
388.52	2539.48
388.74	2549.72
388.95	2467.80
389.16	2533.34
389.38	2406.36
389.59	2523.10
389.80	2629.59
390.02	2562.01
390.23	2568.15
390.44	2506.71
390.66	2541.53
390.87	2527.19
391.08	2514.91
391.30	2621.40
391.51	2697.17
391.72	2672.60
391.94	2637.78
392.15	2654.17
392.36	2609.11
392.58	2592.73
392.79	2660.31
393.00	2631.64
393.22	2684.89
393.43	2748.37
393.64	2723.80
393.85	2793.43
394.07	2631.64
394.28	2715.61
394.49	2719.70
394.71	2785.24
394.92	2697.17
395.13	2629.59
395.35	2697.17
395.56	2729.94
395.77	2871.25
395.98	2854.87
396.20	2795.48
396.41	2871.25
396.62	2836.44
396.84	2861.01
397.05	2756.57
397.26	2854.87
397.47	2916.31
397.69	2711.51
397.90	2969.55
398.11	2893.78
398.32	2807.77
398.54	2877.40
398.75	2836.44
398.96	2877.40
399.18	3094.48
399.39	2881.49
399.60	2942.93
399.81	2940.88
400.03	2871.25
400.24	3252.17
400.45	2936.79
400.66	3057.62
400.88	2932.69
401.09	3141.58
401.30	3012.56
401.51	3168.21
401.73	3065.81
401.94	3125.20
402.15	3114.96
402.36	2996.18
402.58	3198.93
402.79	3239.89
403.00	3123.15
403.21	3221.45
403.43	3178.45
403.64	3246.03
403.85	3033.04
404.06	3211.22
404.27	3067.86
404.49	3215.31
404.70	3125.20
404.91	3377.10
405.12	3209.17
405.34	3190.74
405.55	3389.39
405.76	3157.97
405.97	3282.89
406.19	3399.63
406.40	3246.03
406.61	3332.05
406.82	3303.37
407.03	3250.13
407.25	3444.68
407.46	3461.07
407.67	3538.89
407.88	3387.34
408.09	3250.13
408.31	3399.63
408.52	3422.16
408.73	3338.19
408.94	3459.02
409.15	3422.16
409.37	3510.22
409.58	3379.15
409.79	3411.92
410.00	3373.00
410.21	3399.63
410.43	3440.59
410.64	3420.11
410.85	3502.03
411.06	3538.89
411.27	3461.07
411.48	3526.60
411.70	3579.85
411.91	3493.83
412.12	3585.99
412.33	3590.09
412.54	3676.10
412.76	3682.25
412.97	3581.90
413.18	3622.86
413.39	3690.44
413.60	3622.86
413.81	3606.47
414.03	3657.67
414.24	3518.41
414.45	3893.19
414.66	3590.09
414.87	3846.09
415.08	3592.14
415.30	3755.97
415.51	3780.55
415.72	3739.59
415.93	3719.11
416.14	3696.58
416.35	3663.82
416.56	3811.27
416.78	3807.17
416.99	3788.74
417.20	3774.41
417.41	3856.33
417.62	3827.65
417.83	3956.68
418.04	3821.51
418.26	4093.89
418.47	3876.80
418.68	3938.24
418.89	3885.00
419.10	4151.23
419.31	3946.44
419.52	3952.58
419.73	3983.30
419.95	4003.78
420.16	3923.91
420.37	3950.53
420.58	4022.21
420.79	3885.00
421.00	3997.64
421.21	4005.83
421.42	3934.15
421.63	4097.99
421.85	4014.02
422.06	4147.14
422.27	4112.32
422.48	4231.10
422.69	4110.27
422.90	4302.78
423.11	4175.81
423.32	4333.50
423.53	4362.17
423.75	4364.22
423.96	4251.58
424.17	4353.98
424.38	4478.91
424.59	4429.76
424.80	4519.87
425.01	4427.71
425.22	4298.69
425.43	4388.80
425.64	4634.55
425.85	4507.58
426.06	4587.45
426.28	4419.52
426.49	4403.13
426.70	4415.42
426.91	4573.11
427.12	4575.16
427.33	4661.18
427.54	4566.97
427.75	4554.68
427.96	4812.73
428.17	4655.03
428.38	4800.44
428.59	4755.38
428.80	4749.24
429.01	4911.03
429.23	4882.36
429.44	4992.95
429.65	4894.65
429.86	4837.30
430.07	4771.77
430.28	4857.78
430.49	4982.71
430.70	5062.58
430.91	5048.24
431.12	5025.72
431.33	5146.55
431.54	5128.11
431.75	5191.60
431.96	5181.36
432.17	5011.38
432.38	5048.24
432.59	5326.77
432.80	5232.56
433.01	5234.61
433.22	5146.55
433.43	5263.28
433.64	5255.09
433.85	5117.87
434.06	5345.20
434.27	5414.83
434.49	5361.58
434.70	5461.93
434.91	5435.31
435.12	5554.09
435.33	5410.73
435.54	5388.21
435.75	5289.90
435.96	5431.21
436.17	5408.69
436.38	5404.59
436.59	5654.44
436.80	5484.46
437.01	5683.11
437.22	5791.66
437.43	5601.19
437.64	5523.37
437.85	5767.08
438.06	5808.04
438.27	5539.76
438.48	5603.24
438.69	5840.81
438.90	5689.26
439.11	5660.59
439.32	5756.84
439.53	5834.66
439.74	5814.18
439.95	5912.49
440.16	5717.93
440.37	5959.59
440.57	5621.67
440.78	5965.73
440.99	6027.17
441.20	5920.68
441.41	5881.77
441.62	6057.89
441.83	5941.16
442.04	5916.58
442.25	6012.84
442.46	6033.32
442.67	5932.97
442.88	6434.72
443.09	5894.05
443.30	6119.33
443.51	6234.02
443.72	6395.81
443.93	6191.01
444.14	6500.25
444.35	6209.44
444.56	6254.50
444.77	6223.78
444.98	6313.89
445.19	6391.71
445.40	6371.23
445.61	6393.76
445.81	6553.50
446.02	6389.66
446.23	6352.80
446.44	6381.47
446.65	6551.45
446.86	6596.51
447.07	6616.99
447.28	6524.83
447.49	6774.68
447.70	6631.32
447.91	6612.89
448.12	6639.51
448.33	6809.50
448.54	6690.71
448.74	6606.75
448.95	6729.63
449.16	6627.23
449.37	7008.15
449.58	6733.72
449.79	7079.83
450.00	6725.53
450.21	7077.78
450.42	7135.12
450.63	7020.44
450.84	6764.44
451.05	6932.37
451.25	7047.06
451.46	6981.53
451.67	7266.19
451.88	7040.92
452.09	7188.37
452.30	6920.09
452.51	7090.07
452.72	7278.48
452.93	7432.08
453.13	7196.56
453.34	7053.20
453.55	7182.23
453.76	7292.82
453.97	7677.83
454.18	7391.12
454.39	7378.83
454.60	7397.26
454.81	7542.67
455.01	7548.81
455.22	7391.12
455.43	7352.21
455.64	7675.79
455.85	7827.34
456.06	7968.65
456.27	7845.77
456.48	7745.42
456.68	8032.13
456.89	7806.86
457.10	8130.44
457.31	7925.64
457.52	7819.14
457.73	7972.74
457.94	8071.04
458.14	7868.30
458.35	8302.47
458.56	8007.56
458.77	7860.10
458.98	8339.33
459.19	8226.69
459.39	8378.24
459.60	8451.97
459.81	8261.51
460.02	8482.69
460.23	8351.62
460.44	8476.54
460.65	8523.65
460.85	8660.86
461.06	8466.30
461.27	8384.38
461.48	8699.77
461.69	8966.01
461.89	8607.61
462.10	9047.93
462.31	8683.39
462.52	8660.86
462.73	8963.96
462.94	8839.03
463.14	9037.69
463.35	8763.26
463.56	9529.20
463.77	9361.27
463.98	8976.25
464.18	9334.64
464.39	9412.46
464.60	9715.56
464.81	9340.79
465.02	9441.14
465.23	9785.19
465.43	9391.98
465.64	9817.96
465.85	9514.86
466.06	9521.01
466.27	9815.91
466.47	9801.58
466.68	9865.07
466.89	9830.25
467.10	9899.88
467.30	9639.79
467.51	10022.76
467.72	10319.71
467.93	9867.11
468.14	10155.88
468.34	10446.69
468.55	10202.98
468.76	10428.26
468.97	10366.82
469.17	10788.70
469.38	10581.85
469.59	10674.01
469.80	10504.03
470.01	10491.74
470.21	10723.16
470.42	11028.31
470.63	11059.03
470.84	10590.05
471.04	11149.14
471.25	11102.04
471.46	11149.14
471.67	11358.03
471.87	11325.27
472.08	11609.93
472.29	11437.91
472.50	11050.84
472.70	11239.25
472.91	11681.61
473.12	11622.22
473.33	11798.35
473.53	12183.37
473.74	11816.78
473.95	12230.47
474.16	12267.33
474.36	12115.78
474.57	12396.35
474.78	12425.03
474.99	12564.29
475.19	12203.85
475.40	12865.34
475.61	12920.63
475.81	12883.77
476.02	13174.58
476.23	13057.85
476.44	13039.42
476.64	13080.38
476.85	13387.57
477.06	13197.11
477.27	13750.06
477.47	13588.27
477.68	13651.76
477.89	13780.78
478.09	13801.26
478.30	13657.90
478.51	14049.07
478.71	14227.24
478.92	14214.95
479.13	14395.17
479.34	14389.03
479.54	14323.49
479.75	14421.80
479.96	14489.38
480.16	14640.93
480.37	14851.87
480.58	14907.16
480.78	15269.66
480.99	15013.66
481.20	15300.37
481.41	15349.53
481.61	15636.24
481.82	15456.02
482.03	15716.11
482.23	15462.16
482.44	15746.83
482.65	16076.55
482.85	16158.47
483.06	16086.79
483.27	16090.89
483.47	16008.97
483.68	16500.48
483.89	16350.98
484.09	16449.28
484.30	16758.53
484.51	16944.89
484.71	16992.00
484.92	16787.20
485.13	17037.05
485.33	17051.39
485.54	17182.46
485.75	17133.31
485.95	17583.86
486.16	17368.82
486.37	17823.47
486.57	17569.52
486.78	17532.66
486.98	17827.57
487.19	17735.41
487.40	18138.86
487.60	18106.09
487.81	18507.49
488.02	18030.32
488.22	18052.84
488.43	18677.48
488.64	18632.42
488.84	18491.11
489.05	18732.77
489.25	18677.48
489.46	18949.85
489.67	18949.85
489.87	19412.70
490.08	19152.60
490.29	19443.42
490.49	19506.90
490.70	19459.80
490.90	19683.03
491.11	19625.68
491.32	19664.60
491.52	19623.64
491.73	19719.89
491.94	20035.28
492.14	19744.47
492.35	19992.27
492.55	20225.74
492.76	20510.41
492.97	20240.08
493.17	20299.47
493.38	20745.92
493.58	20575.94
493.79	20649.67
494.00	20524.74
494.20	20680.39
494.41	21010.11
494.61	21155.52
494.82	21149.37
495.02	20981.44
495.23	21284.54
495.44	21358.27
495.64	21667.51
495.85	21720.76
496.05	21485.24
496.26	21393.08
496.47	22124.21
496.67	21577.40
496.88	22007.47
497.08	21497.53
497.29	22163.12
497.49	21989.04
497.70	22197.93
497.91	22030.00
498.11	22464.17
498.32	22498.98
498.52	22527.66
498.73	22576.81
498.93	22218.41
499.14	22804.13
499.34	22736.55
499.55	22812.32
499.76	22859.43
499.96	22740.64
500.17	22937.25
500.37	23221.92
500.58	23129.76
500.78	23256.73
500.99	23295.64
501.19	23568.02
501.40	23363.23
501.60	23326.36
501.81	23565.98
502.02	23647.90
502.22	23295.64
502.43	23840.40
502.63	23826.07
502.84	23989.91
503.04	23809.68
503.25	23869.08
503.45	24268.43
503.66	24258.19
503.86	24149.65
504.07	24260.24
504.27	24182.42
504.48	24503.95
504.68	24514.19
504.89	24493.71
505.09	24583.82
505.30	24553.10
505.50	24530.57
505.71	24741.51
505.91	24768.13
506.12	24698.50
506.32	24598.15
506.53	25003.65
506.73	25065.09
506.94	24958.60
507.14	25034.37
507.35	25079.43
507.55	25310.85
507.76	25628.28
507.96	24913.54
508.17	25007.75
508.37	25546.36
508.58	25443.96
508.78	25601.66
508.99	25921.14
509.19	25581.18
509.40	25818.74
509.60	25669.24
509.81	25878.13
510.01	26050.16
510.22	25747.06
510.42	25767.54
510.63	26134.13
510.83	26031.73
511.04	26381.93
511.24	26293.87
511.44	26195.57
511.65	26467.95
511.85	25968.24
512.06	26367.60
512.26	26302.06
512.47	26234.48
512.67	26437.23
512.88	26445.42
513.08	26033.78
513.29	26762.86
513.49	26261.10
513.69	26637.93
513.90	26607.21
514.10	26644.07
514.31	26914.41
514.51	27063.91
514.72	27115.11
514.92	27055.72
515.13	27129.44
515.33	27301.47
515.53	27471.45
515.74	27334.24
515.94	27379.29
516.15	27547.23
516.35	27194.98
516.56	27526.75
516.76	27448.93
516.96	27715.16
517.17	27506.27
517.37	27541.08
517.58	27729.50
517.78	27649.63
517.99	27698.78
518.19	28055.12
518.39	28227.15
518.60	28546.64
518.80	28327.50
519.01	28616.27
519.21	28292.69
519.41	29089.35
519.62	28356.18
519.82	28485.20
520.03	28542.54
520.23	28814.92
520.43	28798.54
520.64	28810.82
520.84	28894.79
521.05	28876.36
521.25	28976.71
521.45	29148.74
521.66	29412.93
521.86	29099.59
522.07	29365.82
522.27	29351.49
522.47	29511.23
522.68	29867.58
522.88	29697.59
523.08	30012.98
523.29	29722.17
523.49	29851.19
523.70	30000.69
523.90	30107.19
524.10	30338.61
524.31	30531.12
524.51	29980.21
524.71	30815.79
524.92	30461.49
525.12	30826.03
525.33	30471.73
525.53	30758.44
525.73	30819.88
525.94	30813.74
526.14	30848.55
526.34	31098.41
526.55	31227.43
526.75	31295.01
526.95	31567.39
527.16	31252.00
527.36	31315.49
527.56	31563.29
527.77	31651.36
527.97	31708.70
528.17	31929.88
528.38	32007.70
528.58	32077.33
528.78	32380.43
528.99	32159.25
529.19	32247.32
529.39	31917.59
529.60	32343.57
529.80	32572.94
530.00	32312.85
530.21	32871.95
530.41	32900.62
530.61	32779.79
530.82	33019.40
531.02	32962.06
531.22	33101.32
531.43	33127.94
531.63	33261.06
531.83	33543.68
532.04	33949.18
532.24	33529.34
532.44	33871.36
532.64	34242.04
532.85	34145.78
533.05	34409.97
533.25	34176.50
533.46	33840.64
533.66	34485.75
533.86	34524.66
534.07	35061.22
534.27	34874.86
534.47	35044.84
534.67	35079.66
534.88	34672.11
535.08	34739.69
535.28	35407.33
535.49	35214.82
535.69	35397.09
535.89	35630.56
536.09	35194.34
536.30	35755.49
536.50	35798.49
536.70	35861.98
536.91	35831.26
537.11	36230.62
537.31	35962.33
537.51	36109.78
537.72	36859.34
537.92	36869.58
538.12	36879.82
538.32	36509.14
538.53	36918.73
538.73	36593.11
538.93	36828.62
539.13	36527.57
539.34	36820.43
539.54	36849.10
539.74	36853.20
539.94	36992.46
540.15	37262.79
540.35	37060.04
540.55	37578.18
540.75	37526.98
540.96	37424.58
541.16	37389.77
541.36	37553.60
541.56	37664.19
541.77	37993.92
541.97	37465.54
542.17	37922.24
542.37	38172.09
542.58	38561.20
542.78	38237.62
542.98	37993.92
543.18	38481.33
543.38	38962.61
543.59	38999.47
543.79	38507.96
543.99	38847.92
544.19	38407.61
544.40	38553.01
544.60	39001.52
544.80	38712.75
545.00	38927.79
545.20	39114.16
545.41	38880.69
545.61	39103.92
545.81	39470.50
546.01	39327.14
546.21	39165.35
546.42	39347.62
546.62	39282.09
546.82	39450.02
547.02	39286.18
547.22	39282.09
547.43	39470.50
547.63	39495.08
547.83	39804.32
548.03	39443.88
548.23	39959.97
548.44	39955.87
548.64	40025.50
548.84	40175.00
549.04	39736.74
549.24	40328.60
549.45	40707.47
549.65	40015.26
549.85	39994.78
550.05	40478.10
550.25	40433.05
550.45	40816.02
550.66	40557.97
550.86	40158.62
551.06	40678.80
551.26	40730.00
551.46	40635.80
551.66	40955.28
551.87	40746.39
552.07	40756.63
552.27	40715.67
552.47	40625.56
552.67	41110.92
552.87	40793.49
553.07	40965.52
553.28	41231.75
553.48	41143.69
553.68	40805.78
553.88	41602.44
554.08	41129.36
554.28	41450.89
554.48	41022.86
554.69	41694.60
554.89	41285.00
555.09	41397.64
555.29	41526.66
555.49	41471.37
555.69	41426.31
555.89	41592.20
556.10	42032.51
556.30	41297.29
556.50	41407.88
556.70	41780.61
556.90	41921.92
557.10	41999.74
557.30	41584.01
557.50	41766.27
557.70	41874.82
557.91	41948.54
558.11	42040.70
558.31	42286.46
558.51	42061.18
558.71	42419.58
558.91	42413.43
559.11	41776.51
559.31	42286.46
559.51	42155.39
559.72	42136.96
559.92	42540.41
560.12	42075.52
560.32	42384.76
560.52	41932.16
560.72	42403.19
560.92	42732.92
561.12	42161.53
561.32	42771.83
561.52	42210.68
561.72	43029.87
561.93	42343.80
562.13	42659.19
562.33	42640.76
562.53	43040.11
562.73	42661.24
562.93	42511.74
563.13	42511.74
563.33	42675.57
563.53	42972.53
563.73	42673.52
563.93	42872.18
564.13	43306.35
564.33	42427.77
564.53	42921.33
564.74	43134.32
564.94	43003.25
565.14	43189.61
565.34	42919.28
565.54	42906.99
565.74	43167.09
565.94	43318.64
566.14	43097.45
566.34	43281.77
566.54	43210.09
566.74	42870.13
566.94	43189.61
567.14	43537.77
567.34	43179.37
567.54	43748.71
567.74	43179.37
567.94	43439.47
568.14	43892.07
568.34	43507.05
568.54	43728.23
568.74	43588.97
568.94	43591.01
569.14	43804.00
569.34	43890.02
569.54	43761.00
569.75	43642.21
569.95	43576.68
570.15	44238.17
570.35	44135.77
570.55	43955.55
570.75	44299.61
570.95	44254.56
571.15	44115.29
571.35	44039.52
571.55	44184.93
571.75	44123.49
571.95	44340.57
572.15	44457.31
572.35	44399.96
572.55	44555.61
572.75	44612.95
572.95	44377.43
573.15	44553.56
573.35	44352.86
573.55	44344.67
573.75	44688.73
573.95	45032.78
574.15	44793.17
574.35	45258.06
574.55	44561.75
574.75	44871.00
574.95	44825.94
575.15	44770.64
575.34	44891.48
575.54	45126.99
575.74	45555.02
575.94	45104.46
576.14	44727.64
576.34	45643.08
576.54	45217.10
576.74	45651.27
576.94	45262.16
577.14	45765.96
577.34	45626.70
577.54	45061.46
577.74	45987.14
577.94	45557.06
578.14	45598.02
578.34	45796.68
578.54	45235.53
578.74	45823.30
578.94	46026.05
579.14	45974.85
579.34	46249.28
579.54	45995.33
579.74	46626.10
579.94	46271.81
580.13	46511.42
580.33	46685.50
580.53	46468.41
580.73	46452.03
580.93	46552.38
581.13	46865.72
581.33	47043.89
581.53	46802.23
581.73	46966.07
581.93	46783.80
582.13	46972.21
582.33	46810.42
582.53	46734.65
582.73	47338.80
582.92	46966.07
583.12	47031.60
583.32	46998.83
583.52	47332.65
583.72	47639.85
583.92	47236.40
584.12	47461.68
584.32	48137.51
584.52	47369.52
584.72	47572.27
584.92	48241.95
585.11	47830.31
585.31	47990.05
585.51	47861.03
585.71	47682.86
585.91	48135.46
586.11	47922.47
586.31	48104.74
586.51	47945.00
586.71	48323.87
586.91	48432.41
587.10	48258.34
587.30	48626.97
587.50	48776.47
587.70	48383.26
587.90	48307.49
588.10	48436.51
588.30	48780.57
588.50	48342.30
588.69	48676.12
