SpectraSuite Data File
++++++++++++++++++++++++++++++++++++
Date: Fri Jun 02 14:49:23 CEST 2017
User: INFO_000
Dark Spectrum Present: No
Reference Spectrum Present: No
Number of Sampled Component Spectra: 1
Spectrometers: USB4H00879
Integration Time (usec): 80000 (USB4H00879)
Spectra Averaged: 1 (USB4H00879)
Boxcar Smoothing: 0 (USB4H00879)
Correct for Electrical Dark: No (USB4H00879)
Strobe/Lamp Enabled: No (USB4H00879)
Correct for Detector Non-linearity: No (USB4H00879)
Correct for Stray Light: No (USB4H00879)
Number of Pixels in Processed Spectrum: 3648
>>>>>Begin Processed Spectral Data<<<<<
345.13	1314.80
345.34	1314.80
345.56	1314.80
345.78	1284.08
345.99	1269.74
346.21	1691.62
346.42	1724.39
346.64	1605.61
346.86	1830.88
347.07	1597.42
347.29	1662.95
347.50	1601.51
347.72	1656.81
347.94	1720.29
348.15	1544.17
348.37	1621.99
348.59	1753.06
348.80	1638.38
349.02	1658.85
349.23	1746.92
349.45	1667.05
349.67	1748.97
349.88	1650.66
350.10	1912.80
350.31	1685.48
350.53	1726.44
350.75	1806.31
350.96	1714.15
351.18	1734.63
351.39	1665.00
351.61	1671.14
351.82	1800.16
352.04	1777.64
352.26	1683.43
352.47	1724.39
352.69	1787.88
352.90	1636.33
353.12	1697.77
353.34	1689.57
353.55	1767.40
353.77	1753.06
353.98	1667.05
354.20	1681.38
354.41	1761.25
354.63	1779.68
354.85	1871.84
355.06	1712.10
355.28	1597.42
355.49	1712.10
355.71	1769.44
355.92	1630.18
356.14	1773.54
356.35	1724.39
356.57	1658.85
356.79	1738.73
357.00	1679.33
357.22	1800.16
357.43	1646.57
357.65	1863.65
357.86	1667.05
358.08	1675.24
358.29	1748.97
358.51	1746.92
358.72	1802.21
358.94	1640.42
359.16	1667.05
359.37	1753.06
359.59	1742.82
359.80	1785.83
360.02	1705.96
360.23	1744.87
360.45	1794.02
360.66	1693.67
360.88	1646.57
361.09	1771.49
361.31	1744.87
361.52	1728.49
361.74	1822.69
361.95	1808.36
362.17	1654.76
362.38	1830.88
362.60	1757.16
362.81	1781.73
363.03	1679.33
363.24	1746.92
363.46	1755.11
363.67	1744.87
363.89	1759.21
364.10	1679.33
364.32	1693.67
364.53	1771.49
364.75	1591.27
364.96	1712.10
365.18	1736.68
365.39	1734.63
365.61	1617.90
365.82	1769.44
366.04	1771.49
366.25	1722.34
366.47	1763.30
366.68	1695.72
366.90	1671.14
367.11	1722.34
367.33	1757.16
367.54	1771.49
367.76	1662.95
367.97	1804.26
368.19	1718.25
368.40	1830.88
368.62	1658.85
368.83	1634.28
369.05	1740.77
369.26	1671.14
369.48	1634.28
369.69	1675.24
369.91	1681.38
370.12	1703.91
370.33	1843.17
370.55	1621.99
370.76	1619.94
370.98	1744.87
371.19	1802.21
371.41	1710.05
371.62	1765.35
371.84	1712.10
372.05	1912.80
372.27	1724.39
372.48	1693.67
372.69	1808.36
372.91	1781.73
373.12	1703.91
373.34	1701.86
373.55	1699.81
373.77	1759.21
373.98	1638.38
374.20	1773.54
374.41	1888.23
374.62	1712.10
374.84	1744.87
375.05	1699.81
375.27	1691.62
375.48	1724.39
375.70	1667.05
375.91	1732.58
376.12	1787.88
376.34	1757.16
376.55	1677.29
376.77	1771.49
376.98	1648.61
377.19	1669.09
377.41	1665.00
377.62	1755.11
377.84	1734.63
378.05	1757.16
378.27	1753.06
378.48	1841.12
378.69	1869.80
378.91	1843.17
379.12	1802.21
379.34	1787.88
379.55	1763.30
379.76	1757.16
379.98	1746.92
380.19	1798.12
380.41	1708.01
380.62	1777.64
380.83	1732.58
381.05	1660.90
381.26	1888.23
381.47	1691.62
381.69	1705.96
381.90	1839.08
382.12	1785.83
382.33	1724.39
382.54	1687.53
382.76	1757.16
382.97	1765.35
383.19	1703.91
383.40	1863.65
383.61	1714.15
383.83	1687.53
384.04	1699.81
384.25	1722.34
384.47	1818.60
384.68	1783.78
384.89	1712.10
385.11	1681.38
385.32	1740.77
385.54	1662.95
385.75	1724.39
385.96	1755.11
386.18	1751.01
386.39	1738.73
386.60	1699.81
386.82	1724.39
387.03	1720.29
387.24	1834.98
387.46	1767.40
387.67	1798.12
387.88	1869.80
388.10	1757.16
388.31	1699.81
388.52	1771.49
388.74	1810.40
388.95	1728.49
389.16	1732.58
389.38	1648.61
389.59	1785.83
389.80	1812.45
390.02	1726.44
390.23	1863.65
390.44	1714.15
390.66	1689.57
390.87	1673.19
391.08	1812.45
391.30	1884.13
391.51	1820.64
391.72	1814.50
391.94	1804.26
392.15	1712.10
392.36	1783.78
392.58	1757.16
392.79	1851.36
393.00	1798.12
393.22	1927.14
393.43	1826.79
393.64	1859.56
393.85	1892.32
394.07	1755.11
394.28	1855.46
394.49	1814.50
394.71	1740.77
394.92	1861.60
395.13	1662.95
395.35	1785.83
395.56	1671.14
395.77	1763.30
395.98	1789.92
396.20	1867.75
396.41	1742.82
396.62	1863.65
396.84	1753.06
397.05	1724.39
397.26	1810.40
397.47	1855.46
397.69	1753.06
397.90	1984.48
398.11	1818.60
398.32	1730.53
398.54	1714.15
398.75	1822.69
398.96	1869.80
399.18	1927.14
399.39	1744.87
399.60	1814.50
399.81	1796.07
400.03	1716.20
400.24	2004.96
400.45	1839.08
400.66	1867.75
400.88	1732.58
401.09	1959.91
401.30	1652.71
401.51	1861.60
401.73	1824.74
401.94	1865.70
402.15	1847.27
402.36	1925.09
402.58	1869.80
402.79	1933.28
403.00	1757.16
403.21	1843.17
403.43	1941.47
403.64	2004.96
403.85	1789.92
404.06	1955.81
404.27	1802.21
404.49	1841.12
404.70	1824.74
404.91	1871.84
405.12	1929.19
405.34	1937.38
405.55	1923.04
405.76	1744.87
405.97	1757.16
406.19	1996.77
406.40	1853.41
406.61	1978.34
406.82	1837.03
407.03	1863.65
407.25	1810.40
407.46	2011.11
407.67	1953.76
407.88	2076.64
408.09	1826.79
408.31	1826.79
408.52	1929.19
408.73	1810.40
408.94	1818.60
409.15	1910.75
409.37	1902.56
409.58	1859.56
409.79	1869.80
410.00	1980.39
410.21	1886.18
410.43	1855.46
410.64	1789.92
410.85	1933.28
411.06	1988.58
411.27	1957.86
411.48	1959.91
411.70	2009.06
411.91	2009.06
412.12	2070.50
412.33	2166.75
412.54	1853.41
412.76	2043.87
412.97	2103.26
413.18	1931.23
413.39	1851.36
413.60	1998.82
413.81	1982.43
414.03	1910.75
414.24	1775.59
414.45	2226.14
414.66	1904.61
414.87	2109.41
415.08	1880.04
415.30	1984.48
415.51	2050.02
415.72	1873.89
415.93	2084.83
416.14	1925.09
416.35	1943.52
416.56	2031.58
416.78	1933.28
416.99	1925.09
417.20	1910.75
417.41	2172.89
417.62	2033.63
417.83	1925.09
418.04	2000.87
418.26	2187.23
418.47	2019.30
418.68	2052.06
418.89	2148.32
419.10	2351.07
419.31	2133.98
419.52	2064.35
419.73	1939.43
419.95	2361.31
420.16	1998.82
420.37	2054.11
420.58	1961.95
420.79	1933.28
421.00	2002.91
421.21	2015.20
421.42	2080.74
421.63	2078.69
421.85	2125.79
422.06	2039.78
422.27	2170.85
422.48	2117.60
422.69	2050.02
422.90	2164.70
423.11	2084.83
423.32	2336.73
423.53	2174.94
423.75	1996.77
423.96	2183.13
424.17	2303.96
424.38	2281.44
424.59	2133.98
424.80	2093.02
425.01	2228.19
425.22	2107.36
425.43	2179.04
425.64	2234.33
425.85	2562.01
426.06	2527.19
426.28	2181.09
426.49	1908.71
426.70	2185.18
426.91	2232.29
427.12	2406.36
427.33	2426.84
427.54	2459.61
427.75	2414.56
427.96	2416.60
428.17	2455.51
428.38	2131.94
428.59	2279.39
428.80	2375.64
429.01	2420.70
429.23	2320.35
429.44	2217.95
429.65	2512.86
429.86	2398.17
430.07	2602.97
430.28	2482.14
430.49	2557.91
430.70	2240.48
430.91	2744.28
431.12	2658.26
431.33	2480.09
431.54	2664.41
431.75	2475.99
431.96	2580.44
432.17	2635.74
432.38	2666.46
432.59	2645.98
432.80	2856.92
433.01	2717.65
433.22	2535.39
433.43	2580.44
433.64	2803.67
433.85	2494.43
434.06	2680.79
434.27	2551.77
434.49	2570.20
434.70	2908.12
434.91	2740.18
435.12	2787.29
435.33	2688.98
435.54	2584.54
435.75	2467.80
435.96	2521.05
436.17	2658.26
436.38	2731.99
436.59	2854.87
436.80	2633.69
437.01	2854.87
437.22	2899.92
437.43	2883.54
437.64	2731.99
437.85	2766.81
438.06	3160.02
438.27	2506.71
438.48	2920.40
438.69	2727.89
438.90	2850.77
439.11	2901.97
439.32	3178.45
439.53	2844.63
439.74	2963.41
439.95	3000.27
440.16	2910.16
440.37	2910.16
440.57	2764.76
440.78	3098.58
440.99	3338.19
441.20	2877.40
441.41	3049.43
441.62	2867.16
441.83	3000.27
442.04	3055.57
442.25	2955.22
442.46	2953.17
442.67	2987.99
442.88	3227.60
443.09	2994.13
443.30	2889.68
443.51	2883.54
443.72	3252.17
443.93	3018.71
444.14	3340.24
444.35	2928.60
444.56	2996.18
444.77	3035.09
444.98	3577.80
445.19	3485.64
445.40	3215.31
445.61	3270.61
445.81	3135.44
446.02	3534.79
446.23	3225.55
446.44	3053.52
446.65	3555.27
446.86	3854.28
447.07	3807.17
447.28	3295.18
447.49	3354.57
447.70	3768.26
447.91	3680.20
448.12	3286.99
448.33	3645.38
448.54	3686.34
448.74	3354.57
448.95	3641.29
449.16	3416.01
449.37	3768.26
449.58	3835.85
449.79	3692.49
450.00	3608.52
450.21	3770.31
450.42	4040.64
450.63	3706.82
450.84	3669.96
451.05	3835.85
451.25	3565.51
451.46	3639.24
451.67	3766.21
451.88	4001.73
452.09	3639.24
452.30	3659.72
452.51	3723.21
452.72	3839.94
452.93	4333.50
453.13	3516.36
453.34	3631.05
453.55	4177.86
453.76	4007.87
453.97	4085.70
454.18	3592.14
454.39	3985.35
454.60	3821.51
454.81	4153.28
455.01	3991.49
455.22	3682.25
455.43	4130.75
455.64	4345.79
455.85	4265.92
456.06	4353.98
456.27	4229.06
456.48	4159.42
456.68	4409.28
456.89	4542.39
457.10	4495.29
457.31	4239.30
457.52	4147.14
457.73	4241.34
457.94	4478.91
458.14	4325.31
458.35	4923.32
458.56	4407.23
458.77	4519.87
458.98	4493.24
459.19	4720.57
459.39	4855.73
459.60	5023.67
459.81	4546.49
460.02	4728.76
460.23	4695.99
460.44	5068.72
460.65	4601.79
460.85	4644.79
461.06	4726.71
461.27	4728.76
461.48	4845.49
461.69	4886.45
461.89	4806.58
462.10	4927.41
462.31	4632.51
462.52	5140.40
462.73	5107.63
462.94	5246.90
463.14	5334.96
463.35	5167.03
463.56	5904.29
463.77	5396.40
463.98	5341.10
464.18	4923.32
464.39	5926.82
464.60	5904.29
464.81	5570.48
465.02	5533.61
465.23	5756.84
465.43	5715.88
465.64	5730.22
465.85	5429.17
466.06	5619.63
466.27	6016.93
466.47	6182.82
466.68	5701.54
466.89	5867.43
467.10	5988.26
467.30	5834.66
467.51	6522.78
467.72	5992.36
467.93	6082.47
468.14	6018.98
468.34	6551.45
468.55	6164.39
468.76	6268.83
468.97	5971.88
469.17	6715.29
469.38	6434.72
469.59	6735.77
469.80	6268.83
470.01	6832.02
470.21	6279.07
470.42	6750.10
470.63	6905.75
470.84	6889.37
471.04	6635.42
471.25	7126.93
471.46	6942.61
471.67	7550.86
471.87	7151.51
472.08	7079.83
472.29	7133.08
472.50	7014.29
472.70	7407.50
472.91	6891.41
473.12	7323.54
473.33	7112.60
473.53	7468.94
473.74	7247.76
473.95	7786.38
474.16	7882.63
474.36	7544.72
474.57	8056.71
474.78	7970.69
474.99	8286.08
475.19	7702.41
475.40	8099.72
475.61	8466.30
475.81	7798.66
476.02	8226.69
476.23	8251.27
476.44	8232.83
476.64	8408.96
476.85	8916.86
477.06	8423.30
477.27	9109.36
477.47	8953.72
477.68	8871.80
477.89	8826.75
478.09	8941.43
478.30	8564.61
478.51	8644.48
478.71	9367.41
478.92	9291.63
479.13	9310.07
479.34	9457.52
479.54	9441.14
479.75	9342.83
479.96	9690.99
480.16	9469.81
480.37	9586.54
480.58	9791.34
480.78	10110.82
480.99	9678.70
481.20	10168.16
481.41	9645.93
481.61	9903.98
481.82	10461.02
482.03	10110.82
482.23	9805.67
482.44	10575.71
482.65	11003.74
482.85	10596.19
483.06	10665.82
483.27	10817.37
483.47	10667.87
483.68	10780.51
483.89	10784.60
484.09	11413.33
484.30	11001.69
484.51	10991.45
484.71	11317.08
484.92	11274.07
485.13	11542.35
485.33	11323.22
485.54	11243.35
485.75	11423.57
485.95	11650.89
486.16	11581.26
486.37	11820.88
486.57	11472.72
486.78	11583.31
486.98	11956.04
487.19	11687.76
487.40	11927.37
487.60	11984.71
487.81	12107.59
488.02	12001.10
488.22	12058.44
488.43	12257.09
488.64	12560.19
488.84	12474.18
489.05	12683.07
489.25	12459.84
489.46	12552.00
489.67	12832.57
489.87	13256.50
490.08	13076.28
490.29	13135.67
490.49	13027.13
490.70	13246.26
490.90	13119.29
491.11	13070.14
491.32	13180.73
491.52	13201.21
491.73	13375.28
491.94	13449.01
492.14	13545.27
492.35	13788.97
492.55	13551.41
492.76	13586.22
492.97	14014.25
493.17	13786.93
493.38	14067.50
493.58	14407.46
493.79	13868.84
494.00	14221.10
494.20	14255.91
494.41	14442.28
494.61	14696.22
494.82	14636.83
495.02	14118.70
495.23	15044.38
495.44	14434.08
495.64	14851.87
495.85	14796.57
496.05	15001.37
496.26	14941.98
496.47	14972.70
496.67	14825.25
496.88	15802.13
497.08	14866.21
497.29	15472.40
497.49	15306.52
497.70	15445.78
497.91	15292.18
498.11	15525.65
498.32	15722.26
498.52	15691.54
498.73	15572.75
498.93	16137.99
499.14	16140.04
499.34	16109.32
499.55	16031.50
499.76	15451.92
499.96	16068.36
500.17	15826.70
500.37	16224.01
500.58	16082.70
500.78	16121.61
500.99	16152.33
501.19	16480.00
501.40	16801.54
501.60	16097.03
501.81	16422.66
502.02	16865.02
502.22	16359.17
502.43	16840.45
502.63	16776.96
502.84	17190.65
503.04	16645.89
503.25	17204.99
503.45	16707.33
503.66	16795.39
503.86	16559.88
504.07	16916.22
504.27	16590.59
504.48	17116.92
504.68	17477.37
504.89	17405.69
505.09	17116.92
505.30	17465.08
505.50	17223.42
505.71	17168.12
505.91	17946.35
506.12	17671.92
506.32	17348.34
506.53	17698.55
506.73	17692.40
506.94	18048.75
507.14	17649.39
507.35	17907.44
507.55	17704.69
507.76	17919.73
507.96	17958.64
508.17	17704.69
508.37	17858.29
508.58	18181.87
508.78	18300.65
508.99	18716.39
509.19	18161.39
509.40	18573.03
509.60	18835.17
509.81	18396.90
510.01	18368.23
510.22	18396.90
510.42	18450.15
510.63	18468.58
510.83	18603.75
511.04	18480.87
511.24	18996.96
511.44	18407.14
511.65	19089.12
511.85	18491.11
512.06	18960.09
512.26	18927.33
512.47	19281.63
512.67	18982.62
512.88	18816.74
513.08	19332.82
513.29	19310.30
513.49	18761.44
513.69	19080.92
513.90	19191.52
514.10	19341.02
514.31	19556.05
514.51	19599.06
514.72	19711.70
514.92	19445.46
515.13	19443.42
515.33	19500.76
515.53	19758.80
515.74	19824.34
515.94	19859.15
516.15	19998.41
516.35	19420.89
516.56	19609.30
516.76	19810.00
516.96	20055.76
517.17	20459.21
517.37	19965.65
517.58	19977.94
517.78	20315.85
517.99	20248.27
518.19	20420.30
518.39	20158.16
518.60	21173.95
518.80	20121.29
519.01	20756.16
519.21	20457.16
519.41	20696.77
519.62	20373.19
519.82	20790.98
520.03	20942.53
520.23	21108.41
520.43	20731.59
520.64	21526.20
520.84	21055.17
521.05	20809.41
521.25	20811.46
521.45	21259.96
521.66	21210.81
521.86	21235.39
522.07	21145.28
522.27	21284.54
522.47	21092.03
522.68	21788.34
522.88	21196.48
523.08	21833.39
523.29	21178.04
523.49	21620.41
523.70	21653.17
523.90	21692.08
524.10	21982.90
524.31	21839.54
524.51	21642.93
524.71	21909.17
524.92	21915.31
525.12	22023.86
525.33	22113.97
525.53	22273.71
525.73	22763.17
525.94	22122.16
526.14	22419.11
526.34	22281.90
526.55	22894.24
526.75	22806.18
526.95	22722.21
527.16	22904.48
527.36	22568.62
527.56	23226.01
527.77	22703.78
527.97	23451.29
528.17	22828.71
528.38	23105.18
528.58	23254.69
528.78	23090.85
528.99	23068.32
529.19	23557.78
529.39	23221.92
529.60	23246.49
529.80	23522.97
530.00	23152.29
530.21	23793.30
530.41	24213.13
530.61	24096.40
530.82	23977.62
531.02	23854.74
531.22	23969.43
531.43	23965.33
531.63	24188.56
531.83	24305.29
532.04	24538.76
532.24	24305.29
532.44	24028.82
532.64	24442.51
532.85	25136.77
533.05	24854.15
533.25	24702.60
533.46	24688.26
533.66	25177.73
533.86	24886.92
534.07	25376.38
534.27	25110.14
534.47	25364.09
534.67	25388.67
534.88	25020.03
535.08	25728.63
535.28	25828.98
535.49	25824.89
535.69	25955.96
535.89	26023.54
536.09	26142.32
536.30	25933.43
536.50	25931.38
536.70	26062.45
536.91	25716.34
537.11	26328.69
537.31	26609.26
537.51	26465.90
537.72	26560.11
537.92	26717.80
538.12	26965.60
538.32	26277.49
538.53	26564.20
538.73	26558.06
538.93	26234.48
539.13	26728.04
539.34	27297.38
539.54	26660.46
539.74	27063.91
539.94	26977.89
540.15	27143.78
540.35	27500.12
540.55	27293.28
540.75	27225.70
540.96	27598.43
541.16	27645.53
541.36	27688.54
541.56	27645.53
541.77	28012.12
541.97	27305.57
542.17	27526.75
542.37	27960.92
542.58	27485.79
542.78	27954.77
542.98	27844.18
543.18	28071.51
543.38	28618.32
543.59	28462.67
543.79	27766.36
543.99	28155.47
544.19	28112.47
544.40	28261.97
544.60	28700.23
544.80	28286.54
545.00	28814.92
545.20	28827.21
545.41	28853.83
545.61	28143.19
545.81	28849.74
546.01	29163.08
546.21	29001.29
546.42	28958.28
546.62	29058.63
546.82	29005.38
547.02	28923.46
547.22	29070.92
547.43	29013.57
547.63	29161.03
547.83	29034.05
548.03	28778.06
548.23	29388.35
548.44	29707.83
548.64	29539.90
548.84	29376.06
549.04	29167.17
549.24	29503.04
549.45	30649.90
549.65	29353.54
549.85	29513.28
550.05	29771.32
550.25	29781.56
550.45	30438.96
550.66	29507.13
550.86	29992.50
551.06	30150.20
551.26	29978.17
551.46	29943.35
551.66	29967.93
551.87	29742.65
552.07	30207.54
552.27	30258.74
552.47	30387.76
552.67	30139.96
552.87	30307.89
553.07	30287.41
553.28	30428.72
553.48	30588.46
553.68	30293.55
553.88	30887.46
554.08	30881.32
554.28	30832.17
554.48	30539.31
554.69	30717.48
554.89	30486.06
555.09	30989.86
555.29	30590.51
555.49	30893.61
555.69	30858.79
555.89	30987.82
556.10	30772.78
556.30	30805.55
556.50	30889.51
556.70	31016.49
556.90	30766.63
557.10	31368.74
557.30	31196.71
557.50	31512.10
557.70	31553.05
557.91	31325.73
558.11	31297.06
558.31	31690.27
558.51	31667.74
558.71	31315.49
558.91	31409.70
559.11	31524.38
559.31	31495.71
559.51	31419.94
559.72	31493.66
559.92	31219.24
560.12	31428.13
560.32	31741.47
560.52	31659.55
560.72	31790.62
560.92	32134.68
561.12	31776.28
561.32	32044.57
561.52	31395.36
561.72	32200.21
561.93	32046.62
562.13	31972.89
562.33	31850.01
562.53	32650.77
562.73	31794.71
562.93	32052.76
563.13	32146.97
563.33	32009.75
563.53	32732.68
563.73	31956.50
563.93	32462.35
564.13	32409.11
564.33	32386.58
564.53	32216.60
564.74	32671.25
564.94	32472.59
565.14	32736.78
565.34	32265.75
565.54	32124.44
565.74	32468.50
565.94	32935.43
566.14	32400.91
566.34	32454.16
566.54	32624.14
566.74	32388.63
566.94	32767.50
567.14	32878.09
567.34	32902.67
567.54	33089.03
567.74	32830.99
567.94	32269.84
568.14	33058.31
568.34	33242.63
568.54	33095.18
568.74	32921.10
568.94	33007.11
569.14	33398.27
569.34	33474.05
569.54	33246.72
569.75	32818.70
569.95	33189.38
570.15	33453.57
570.35	33263.11
570.55	32865.80
570.75	33254.92
570.95	33615.36
571.15	33041.93
571.35	33551.87
571.55	33656.32
571.75	33598.98
571.95	34180.60
572.15	33023.50
572.35	33648.13
572.55	33644.03
572.75	33977.85
572.95	33299.97
573.15	33756.67
573.35	33736.19
573.55	33756.67
573.75	33291.78
573.95	34332.15
574.15	33707.52
574.35	34305.52
574.55	33863.16
574.75	34090.49
574.95	34125.30
575.15	33738.24
575.34	33969.66
575.54	34307.57
575.74	34571.76
575.94	34450.93
576.14	33912.31
576.34	34194.93
576.54	34500.08
576.74	34407.92
576.94	34487.79
577.14	34403.83
577.34	34651.63
577.54	34340.34
577.74	34250.23
577.94	35007.98
578.14	35141.10
578.34	34870.76
578.54	34237.94
578.74	34897.39
578.94	34846.19
579.14	34391.54
579.34	34618.86
579.54	35147.24
579.74	35147.24
579.94	34731.50
580.13	35302.89
580.33	34348.53
580.53	34745.84
580.73	35321.32
580.93	35474.91
581.13	35651.04
581.33	35239.40
581.53	35741.15
581.73	35321.32
581.93	35634.66
582.13	35505.63
582.33	35616.22
582.53	35839.45
582.73	35532.26
582.92	35479.01
583.12	35810.78
583.32	36025.82
583.52	35618.27
583.72	35948.00
583.92	35919.32
584.12	35642.85
584.32	36222.42
584.52	35841.50
584.72	36083.16
584.92	36158.94
585.11	36685.26
585.31	36160.98
585.51	35900.89
585.71	36144.60
585.91	36492.76
586.11	36488.66
586.31	36847.05
586.51	36296.15
586.71	36629.97
586.91	36597.20
587.10	36728.27
587.30	36482.52
587.50	36873.68
587.70	36763.09
587.90	37027.28
588.10	36777.42
588.30	37055.95
588.50	37117.39
588.69	36871.63
588.89	36773.33
589.09	36756.94
589.29	37152.20
