SpectraSuite Data File
++++++++++++++++++++++++++++++++++++
Date: Fri Jun 02 14:49:29 CEST 2017
User: INFO_000
Dark Spectrum Present: No
Reference Spectrum Present: No
Number of Sampled Component Spectra: 1
Spectrometers: USB4H00879
Integration Time (usec): 80000 (USB4H00879)
Spectra Averaged: 1 (USB4H00879)
Boxcar Smoothing: 0 (USB4H00879)
Correct for Electrical Dark: No (USB4H00879)
Strobe/Lamp Enabled: No (USB4H00879)
Correct for Detector Non-linearity: No (USB4H00879)
Correct for Stray Light: No (USB4H00879)
Number of Pixels in Processed Spectrum: 3648
>>>>>Begin Processed Spectral Data<<<<<
345.13	1243.12
345.34	1243.12
345.56	1243.12
345.78	1292.27
345.99	1300.46
346.21	1691.62
346.42	1665.00
346.64	1665.00
346.86	1783.78
347.07	1560.55
347.29	1683.43
347.50	1699.81
347.72	1683.43
347.94	1755.11
348.15	1513.45
348.37	1617.90
348.59	1642.47
348.80	1697.77
349.02	1763.30
349.23	1892.32
349.45	1837.03
349.67	1886.18
349.88	1851.36
350.10	1939.43
350.31	1882.08
350.53	1839.08
350.75	1994.72
350.96	1779.68
351.18	1863.65
351.39	1794.02
351.61	1794.02
351.82	1888.23
352.04	1972.19
352.26	1826.79
352.47	1896.42
352.69	1882.08
352.90	1748.97
353.12	1816.55
353.34	1853.41
353.55	1912.80
353.77	1849.32
353.98	1814.50
354.20	1751.01
354.41	1900.52
354.63	1908.71
354.85	2035.68
355.06	1976.29
355.28	1779.68
355.49	1951.71
355.71	1910.75
355.92	1970.15
356.14	1927.14
356.35	1888.23
356.57	1871.84
356.79	1920.99
357.00	1804.26
357.22	1974.24
357.43	1861.60
357.65	1941.47
357.86	1794.02
358.08	1843.17
358.29	1914.85
358.51	1953.76
358.72	2041.82
358.94	1918.95
359.16	1871.84
359.37	1920.99
359.59	1984.48
359.80	2004.96
360.02	1906.66
360.23	1863.65
360.45	2037.73
360.66	1933.28
360.88	1843.17
361.09	1970.15
361.31	1978.34
361.52	2002.91
361.74	2019.30
361.95	2127.84
362.17	1910.75
362.38	2017.25
362.60	2013.15
362.81	1949.67
363.03	1904.61
363.24	2037.73
363.46	2047.97
363.67	1974.24
363.89	2013.15
364.10	2015.20
364.32	1986.53
364.53	2058.21
364.75	1894.37
364.96	1968.10
365.18	2013.15
365.39	2078.69
365.61	1937.38
365.82	2074.59
366.04	2009.06
366.25	1978.34
366.47	2060.26
366.68	2029.54
366.90	1990.63
367.11	2041.82
367.33	2082.78
367.54	1927.14
367.76	1964.00
367.97	2115.55
368.19	1998.82
368.40	2023.39
368.62	1961.95
368.83	2033.63
369.05	2121.70
369.26	1945.57
369.48	1972.19
369.69	1925.09
369.91	2002.91
370.12	2000.87
370.33	2086.88
370.55	1912.80
370.76	2066.40
370.98	2105.31
371.19	1994.72
371.41	2084.83
371.62	2078.69
371.84	1980.39
372.05	2164.70
372.27	2074.59
372.48	2156.51
372.69	2082.78
372.91	2133.98
373.12	2215.90
373.34	1976.29
373.55	2123.74
373.77	2170.85
373.98	2052.06
374.20	2217.95
374.41	2256.86
374.62	2123.74
374.84	2146.27
375.05	2166.75
375.27	2129.89
375.48	2080.74
375.70	2209.76
375.91	2189.28
376.12	2332.64
376.34	2158.56
376.55	2181.09
376.77	2256.86
376.98	2144.22
377.19	2093.02
377.41	2103.26
377.62	2281.44
377.84	2224.09
378.05	2330.59
378.27	2203.61
378.48	2222.05
378.69	2383.84
378.91	2258.91
379.12	2191.33
379.34	2232.29
379.55	2265.05
379.76	2215.90
379.98	2295.77
380.19	2314.20
380.41	2156.51
380.62	2299.87
380.83	2213.85
381.05	2148.32
381.26	2383.84
381.47	2222.05
381.69	2295.77
381.90	2340.83
382.12	2240.48
382.33	2185.18
382.54	2289.63
382.76	2271.20
382.97	2318.30
383.19	2228.19
383.40	2346.97
383.61	2299.87
383.83	2326.49
384.04	2314.20
384.25	2316.25
384.47	2414.56
384.68	2344.92
384.89	2353.12
385.11	2351.07
385.32	2299.87
385.54	2365.40
385.75	2277.34
385.96	2359.26
386.18	2475.99
386.39	2365.40
386.60	2346.97
386.82	2344.92
387.03	2498.52
387.24	2406.36
387.46	2516.95
387.67	2424.80
387.88	2416.60
388.10	2379.74
388.31	2492.38
388.52	2523.10
388.74	2529.24
388.95	2480.09
389.16	2555.86
389.38	2437.08
389.59	2527.19
389.80	2643.93
390.02	2547.67
390.23	2619.35
390.44	2521.05
390.66	2590.68
390.87	2473.95
391.08	2596.82
391.30	2629.59
391.51	2586.58
391.72	2598.87
391.94	2566.10
392.15	2637.78
392.36	2611.16
392.58	2519.00
392.79	2510.81
393.00	2590.68
393.22	2648.02
393.43	2885.59
393.64	2752.47
393.85	2727.89
394.07	2701.27
394.28	2721.75
394.49	2736.09
394.71	2709.46
394.92	2830.29
395.13	2727.89
395.35	2633.69
395.56	2818.00
395.77	2820.05
395.98	2772.95
396.20	2805.72
396.41	2803.67
396.62	2899.92
396.84	2820.05
397.05	2885.59
397.26	2957.27
397.47	2885.59
397.69	2805.72
397.90	2924.50
398.11	2932.69
398.32	2947.03
398.54	2840.53
398.75	2895.83
398.96	2828.24
399.18	2985.94
399.39	2965.46
399.60	3043.28
399.81	2973.65
400.03	2877.40
400.24	3176.40
400.45	2944.98
400.66	3028.95
400.88	3014.61
401.09	3125.20
401.30	3057.62
401.51	3102.67
401.73	3108.82
401.94	3108.82
402.15	3135.44
402.36	3123.15
402.58	3211.22
402.79	3172.30
403.00	3151.82
403.21	3213.26
403.43	3211.22
403.64	3151.82
403.85	3133.39
404.06	3190.74
404.27	3180.50
404.49	3178.45
404.70	3155.92
404.91	3229.65
405.12	3182.54
405.34	3262.41
405.55	3411.92
405.76	3096.53
405.97	3160.02
406.19	3385.29
406.40	3082.19
406.61	3340.24
406.82	3319.76
407.03	3241.93
407.25	3284.94
407.46	3461.07
407.67	3381.20
407.88	3366.86
408.09	3325.90
408.31	3284.94
408.52	3409.87
408.73	3286.99
408.94	3364.81
409.15	3401.68
409.37	3438.54
409.58	3409.87
409.79	3393.48
410.00	3506.12
410.21	3348.43
410.43	3504.07
410.64	3346.38
410.85	3551.18
411.06	3479.50
411.27	3594.19
411.48	3633.10
411.70	3516.36
411.91	3473.36
412.12	3573.71
412.33	3510.22
412.54	3473.36
412.76	3676.10
412.97	3696.58
413.18	3588.04
413.39	3592.14
413.60	3686.34
413.81	3686.34
414.03	3592.14
414.24	3504.07
414.45	3708.87
414.66	3655.62
414.87	3626.95
415.08	3684.30
415.30	3723.21
415.51	3696.58
415.72	3774.41
415.93	3715.02
416.14	3815.37
416.35	3745.73
416.56	3786.69
416.78	3725.26
416.99	3762.12
417.20	3768.26
417.41	3796.93
417.62	3772.36
417.83	3905.48
418.04	3784.65
418.26	3889.09
418.47	3770.31
418.68	3928.00
418.89	3928.00
419.10	4110.27
419.31	3973.06
419.52	3987.40
419.73	3968.96
419.95	4030.40
420.16	3858.37
420.37	3923.91
420.58	4085.70
420.79	3928.00
421.00	4190.14
421.21	4108.23
421.42	3960.77
421.63	3975.11
421.85	4014.02
422.06	4120.51
422.27	3968.96
422.48	4179.90
422.69	4333.50
422.90	4204.48
423.11	4173.76
423.32	4204.48
423.53	4245.44
423.75	4276.16
423.96	4460.48
424.17	4257.73
424.38	4411.32
424.59	4337.60
424.80	4566.97
425.01	4399.04
425.22	4368.32
425.43	4300.73
425.64	4495.29
425.85	4589.50
426.06	4501.44
426.28	4552.63
426.49	4366.27
426.70	4562.87
426.91	4548.54
427.12	4624.31
427.33	4585.40
427.54	4618.17
427.75	4689.85
427.96	4839.35
428.17	4730.81
428.38	4878.26
428.59	4900.79
428.80	4806.58
429.01	4992.95
429.23	4798.39
429.44	5007.28
429.65	4960.18
429.86	4882.36
430.07	4843.45
430.28	4956.08
430.49	4927.41
430.70	5132.21
430.91	5093.30
431.12	4919.22
431.33	5011.38
431.54	5109.68
431.75	5072.82
431.96	5087.15
432.17	4964.28
432.38	5179.31
432.59	5277.62
432.80	5304.24
433.01	5164.98
433.22	5253.04
433.43	5212.08
433.64	5216.18
433.85	5119.92
434.06	5369.77
434.27	5261.23
434.49	5490.60
434.70	5423.02
434.91	5367.73
435.12	5343.15
435.33	5359.53
435.54	5412.78
435.75	5246.90
435.96	5531.56
436.17	5511.08
436.38	5640.11
436.59	5586.86
436.80	5498.80
437.01	5779.37
437.22	5705.64
437.43	5539.76
437.64	5392.30
437.85	5734.31
438.06	5869.48
438.27	5533.61
438.48	5711.78
438.69	5734.31
438.90	5701.54
439.11	5742.50
439.32	5830.57
439.53	5865.38
439.74	5767.08
439.95	5791.66
440.16	5803.94
440.37	5861.29
440.57	5793.70
440.78	5945.25
440.99	5783.46
441.20	5967.78
441.41	5898.15
441.62	6068.13
441.83	5853.09
442.04	6094.76
442.25	6025.12
442.46	5918.63
442.67	5988.26
442.88	6563.74
443.09	5791.66
443.30	6010.79
443.51	6135.71
443.72	6391.71
443.93	6121.38
444.14	6342.56
444.35	6123.43
444.56	6283.17
444.77	6229.92
444.98	6320.03
445.19	6430.62
445.40	6315.94
445.61	6315.94
445.81	6324.13
446.02	6311.84
446.23	6234.02
446.44	6270.88
446.65	6522.78
446.86	6379.42
447.07	6356.90
447.28	6573.98
447.49	6682.52
447.70	6395.81
447.91	6459.29
448.12	6680.47
448.33	6631.32
448.54	6707.10
448.74	6545.31
448.95	6731.67
449.16	6596.51
449.37	6924.18
449.58	6801.30
449.79	7122.84
450.00	6686.62
450.21	6987.67
450.42	6930.33
450.63	6877.08
450.84	6825.88
451.05	6956.95
451.25	6973.33
451.46	6858.65
451.67	7141.27
451.88	7171.99
452.09	7169.94
452.30	7057.30
452.51	7081.88
452.72	7231.38
452.93	7434.13
453.13	6975.38
453.34	7073.68
453.55	7083.92
453.76	7204.75
453.97	7616.40
454.18	7360.40
454.39	7546.76
454.60	7393.17
454.81	7399.31
455.01	7559.05
455.22	7190.42
455.43	7436.17
455.64	7647.12
455.85	7849.86
456.06	7843.72
456.27	7802.76
456.48	7712.65
456.68	7767.95
456.89	7724.94
457.10	7763.85
457.31	7901.06
457.52	7849.86
457.73	7948.17
457.94	8163.20
458.14	7837.58
458.35	8372.10
458.56	8071.04
458.77	8124.29
458.98	8036.23
459.19	8253.31
459.39	8507.26
459.60	8572.80
459.81	8155.01
460.02	8501.12
460.23	8273.79
460.44	8542.08
460.65	8542.08
460.85	8490.88
461.06	8548.22
461.27	8322.94
461.48	8712.06
461.69	8947.58
461.89	8611.71
462.10	8961.91
462.31	8773.50
462.52	8619.90
462.73	8779.64
462.94	9088.89
463.14	9226.10
463.35	9078.65
463.56	9224.05
463.77	9289.59
463.98	9138.04
464.18	9394.03
464.39	9242.48
464.60	9430.90
464.81	9428.85
465.02	9580.40
465.23	9652.08
465.43	9510.77
465.64	9793.39
465.85	9611.12
466.06	9789.29
466.27	9949.03
466.47	9873.26
466.68	9895.78
466.89	10030.95
467.10	10188.64
467.30	9809.77
467.51	10063.72
467.72	10325.86
467.93	9971.56
468.14	10276.71
468.34	10473.31
468.55	10368.87
468.76	10458.98
468.97	10377.06
469.17	10700.64
469.38	10766.17
469.59	10936.15
469.80	10686.30
470.01	10669.92
470.21	10645.34
470.42	11022.17
470.63	11046.74
470.84	10880.86
471.04	11177.81
471.25	11145.05
471.46	11216.72
471.67	11521.87
471.87	11200.34
472.08	11597.65
472.29	11646.80
472.50	11388.75
472.70	11568.98
472.91	11757.39
473.12	11614.03
473.33	11976.52
473.53	12205.89
473.74	12011.34
473.95	12173.13
474.16	12054.34
474.36	12189.51
474.57	12508.99
474.78	12820.28
474.99	12347.20
475.19	12390.21
475.40	12908.35
475.61	12793.66
475.81	12871.48
476.02	13041.46
476.23	12877.63
476.44	13076.28
476.64	13434.68
476.85	13475.63
477.06	13207.35
477.27	13551.41
477.47	13885.23
477.68	13672.24
477.89	13643.57
478.09	13920.04
478.30	13993.77
478.51	13829.93
478.71	14249.77
478.92	14202.66
479.13	14198.57
479.34	14122.79
479.54	14460.71
479.75	14407.46
479.96	14343.97
480.16	14503.71
480.37	14571.30
480.58	14909.21
480.78	15228.70
480.99	14919.45
481.20	15218.46
481.41	15111.96
481.61	15406.87
481.82	15478.55
482.03	15355.67
482.23	15392.53
482.44	15724.30
482.65	15908.62
482.85	16019.21
483.06	15925.00
483.27	16029.45
483.47	16076.55
483.68	16060.17
483.89	16369.41
484.09	16287.50
484.30	16445.19
484.51	16553.73
484.71	16615.17
484.92	16736.00
485.13	16905.98
485.33	16529.16
485.54	16830.21
485.75	17260.28
485.95	17483.51
486.16	17237.75
486.37	17350.39
486.57	17170.17
486.78	17247.99
486.98	17518.32
487.19	17665.78
487.40	17800.94
487.60	17544.95
487.81	18222.83
488.02	17766.13
488.22	17798.90
488.43	18226.92
488.64	18200.30
488.84	18427.62
489.05	18530.02
489.25	18454.25
489.46	18730.72
489.67	18579.17
489.87	18923.23
490.08	19025.63
490.29	18962.14
490.49	19351.26
490.70	19279.58
490.90	19597.01
491.11	19216.09
491.32	19465.94
491.52	19388.12
491.73	19511.00
491.94	19543.77
492.14	19361.50
492.35	19699.41
492.55	19861.20
492.76	19957.46
492.97	20184.78
493.17	20180.68
493.38	20070.09
493.58	20217.55
493.79	20223.69
494.00	20516.55
494.20	20475.59
494.41	20848.32
494.61	20917.95
494.82	20739.78
495.02	20913.86
495.23	20922.05
495.44	21026.50
495.64	21214.91
495.85	21251.77
496.05	21272.25
496.26	21110.46
496.47	21571.25
496.67	21501.62
496.88	21675.70
497.08	21550.78
497.29	21831.35
497.49	21679.80
497.70	21976.75
497.91	22070.96
498.11	22007.47
498.32	22474.41
498.52	22335.15
498.73	22714.02
498.93	22177.45
499.14	22554.28
499.34	22552.23
499.55	22671.01
499.76	22603.43
499.96	22818.47
500.17	22609.58
500.37	23049.89
500.58	23066.27
500.78	23234.21
500.99	23223.97
501.19	23432.86
501.40	23103.14
501.60	23301.79
501.81	23615.13
502.02	23359.13
502.22	23281.31
502.43	23735.96
502.63	24006.29
502.84	23967.38
503.04	23932.56
503.25	23887.51
503.45	23834.26
503.66	24110.74
503.86	24024.72
504.07	24501.90
504.27	23860.88
504.48	24653.45
504.68	24442.51
504.89	24749.70
505.09	24782.47
505.30	24780.42
505.50	24600.20
505.71	24757.89
505.91	24817.29
506.12	24608.39
506.32	24680.07
506.53	25118.34
506.73	24901.25
506.94	25224.83
507.14	25149.06
507.35	25443.96
507.55	25122.43
507.76	25718.39
507.96	25294.46
508.17	25392.76
508.37	25532.03
508.58	25568.89
508.78	25775.73
508.99	25763.45
509.19	25583.23
509.40	25671.29
509.60	25822.84
509.81	26093.17
510.01	25867.89
510.22	25910.90
510.42	25937.52
510.63	26267.25
510.83	26113.65
511.04	26185.33
511.24	26304.11
511.44	26285.68
511.65	26402.41
511.85	26322.54
512.06	26666.60
512.26	26404.46
512.47	26736.23
512.67	27061.86
512.88	26816.10
513.08	26453.61
513.29	26973.80
513.49	26924.65
513.69	27006.56
513.90	26934.88
514.10	27170.40
514.31	27280.99
514.51	27162.21
514.72	27041.38
514.92	27237.98
515.13	27223.65
515.33	27600.47
515.53	27536.99
515.74	27373.15
515.94	27485.79
516.15	27895.38
516.35	27448.93
516.56	27786.84
516.76	28081.75
516.96	27692.63
517.17	27944.53
517.37	28026.45
517.58	28022.36
517.78	28022.36
517.99	27979.35
518.19	28493.39
518.39	28180.05
518.60	28579.40
518.80	28579.40
519.01	28763.72
519.21	28477.01
519.41	28706.38
519.62	28503.63
519.82	28890.70
520.03	28724.81
520.23	29181.51
520.43	28593.74
520.64	29341.25
520.84	29189.70
521.05	28993.09
521.25	29408.83
521.45	29562.43
521.66	29177.41
521.86	29361.73
522.07	29752.89
522.27	29673.02
522.47	29466.17
522.68	29630.01
522.88	29769.27
523.08	29941.30
523.29	29863.48
523.49	29953.59
523.70	30418.48
523.90	30393.90
524.10	30180.92
524.31	30451.25
524.51	30131.76
524.71	30813.74
524.92	30492.21
525.12	30639.66
525.33	30590.51
525.53	30885.42
525.73	31262.24
525.94	30735.92
526.14	30950.95
526.34	31122.98
526.55	31219.24
526.75	31419.94
526.95	31270.43
527.16	31049.25
527.36	31598.11
527.56	31387.17
527.77	31741.47
527.97	31645.21
528.17	31856.15
528.38	32149.01
528.58	31835.67
528.78	32050.71
528.99	31929.88
529.19	32402.96
529.39	32007.70
529.60	32556.56
529.80	32355.86
530.00	32386.58
530.21	32802.32
530.41	32448.02
530.61	32730.64
530.82	32960.01
531.02	32783.88
531.22	32980.49
531.43	32957.96
531.63	32910.86
531.83	33627.65
532.04	33527.30
532.24	33216.01
532.44	33842.68
532.64	33979.90
532.85	34106.87
533.05	33822.20
533.25	33570.30
533.46	34242.04
533.66	34342.39
533.86	34006.52
534.07	34553.33
534.27	34184.69
534.47	34516.47
534.67	34500.08
534.88	34233.85
535.08	34395.64
535.28	34717.17
535.49	34577.90
535.69	35204.58
535.89	35010.03
536.09	35397.09
536.30	35362.28
536.50	35194.34
536.70	35376.61
536.91	35483.11
537.11	35497.44
537.31	35778.01
537.51	35372.52
537.72	36029.91
537.92	35870.17
538.12	36230.62
538.32	35821.02
538.53	36521.43
538.73	35999.19
538.93	36138.46
539.13	36062.68
539.34	36359.64
539.54	36347.35
539.74	36763.09
539.94	36699.60
540.15	36478.42
540.35	36494.80
540.55	37293.51
540.75	36509.14
540.96	37193.16
541.16	36980.17
541.36	36871.63
541.56	36998.60
541.77	37363.14
541.97	37191.11
542.17	37785.02
542.37	37289.42
542.58	37711.30
542.78	37406.15
542.98	37440.96
543.18	37836.22
543.38	38155.71
543.59	37926.33
543.79	37430.72
543.99	37561.79
544.19	38024.64
544.40	37942.72
544.60	38540.72
544.80	38712.75
545.00	38507.96
545.20	38454.71
545.41	38256.06
545.61	38241.72
545.81	39325.10
546.01	38714.80
546.21	38694.32
546.42	38759.86
546.62	38841.78
546.82	38931.89
547.02	39105.96
547.22	39222.70
547.43	39017.90
547.63	38772.14
547.83	39482.79
548.03	38774.19
548.23	39194.03
548.44	39380.39
548.64	39290.28
548.84	39517.60
549.04	39298.47
549.24	39548.32
549.45	40045.98
549.65	39462.31
549.85	39478.69
550.05	40011.17
550.25	40025.50
550.45	39974.30
550.66	39667.11
550.86	39843.23
551.06	40220.06
551.26	40197.53
551.46	40254.87
551.66	40277.40
551.87	40185.24
552.07	40543.64
552.27	40183.19
552.47	40639.89
552.67	40727.95
552.87	40877.46
553.07	40674.71
553.28	40879.50
553.48	40854.93
553.68	40779.15
553.88	41414.02
554.08	40687.00
554.28	41069.97
554.48	40758.67
554.69	41080.21
554.89	41387.40
555.09	41332.11
555.29	40838.54
555.49	41407.88
555.69	41008.53
555.89	41241.99
556.10	41602.44
556.30	41264.52
556.50	41674.12
556.70	41446.79
556.90	41592.20
557.10	41870.72
557.30	41993.60
557.50	41477.51
557.70	41690.50
557.91	42157.44
558.11	42026.37
558.31	42222.97
558.51	41883.01
558.71	41973.12
558.91	41885.06
559.11	41805.19
559.31	42194.30
559.51	42063.23
559.72	42046.85
559.92	42001.79
560.12	42245.50
560.32	42458.49
560.52	42206.59
560.72	42282.36
560.92	42513.78
561.12	42364.28
561.32	42814.83
561.52	42597.75
561.72	43165.04
561.93	42640.76
562.13	42777.97
562.33	42358.14
562.53	43244.91
562.73	42589.56
562.93	42702.20
563.13	43154.80
563.33	43033.97
563.53	43206.00
563.73	42743.16
563.93	43062.64
564.13	43498.86
564.33	42823.03
564.53	43371.88
564.74	43359.59
564.94	43435.37
565.14	43306.35
565.34	43519.34
565.54	43406.70
565.74	43683.17
565.94	43842.92
566.14	43238.76
566.34	43418.99
566.54	43885.92
566.74	43322.73
566.94	43627.88
567.14	44125.53
567.34	43505.00
567.54	43955.55
567.74	43726.18
567.94	43937.12
568.14	44154.21
568.34	44232.03
568.54	43912.55
568.74	44426.59
568.94	44334.43
569.14	44612.95
569.34	44291.42
569.54	44455.26
569.75	44100.96
569.95	44492.12
570.15	45024.59
570.35	44498.26
570.55	44488.03
570.75	44373.34
570.95	44795.22
571.15	44729.69
571.35	44653.91
571.55	44660.05
571.75	44524.89
571.95	44846.42
572.15	44514.65
572.35	44901.71
572.55	44815.70
572.75	45040.98
572.95	45053.26
573.15	44846.42
573.35	45225.29
573.55	44492.12
573.75	44840.28
573.95	45491.53
574.15	45270.35
574.35	45292.88
574.55	45360.46
574.75	45057.36
574.95	45241.68
575.15	45325.64
575.34	45157.71
575.54	45825.35
575.74	45569.35
575.94	45776.20
576.14	45524.30
576.34	45768.01
576.54	46261.57
576.74	46196.03
576.94	45790.53
577.14	46163.26
577.34	46372.16
577.54	46036.29
577.74	46204.22
577.94	46310.72
578.14	46038.34
578.34	46507.32
578.54	46118.21
578.74	45950.27
578.94	46376.25
579.14	46419.26
579.34	46417.21
579.54	46763.32
579.74	46941.49
579.94	46890.29
580.13	46789.94
580.33	46759.22
580.53	46779.70
580.73	46855.48
580.93	46652.73
581.13	47205.68
581.33	47422.76
581.53	47430.96
581.73	47093.04
581.93	47244.59
582.13	47359.28
582.33	47682.86
582.53	47158.58
582.73	47617.32
582.92	47306.03
583.12	47308.08
583.32	47357.23
583.52	47557.93
583.72	47715.62
583.92	47283.50
584.12	47856.93
584.32	48315.68
584.52	47322.41
584.72	48309.53
584.92	48002.34
585.11	48422.17
585.31	48031.01
585.51	48110.88
585.71	48080.16
585.91	48506.14
586.11	47910.18
586.31	47977.76
586.51	48084.26
586.71	48145.70
586.91	48211.23
587.10	48882.97
587.30	48477.47
587.50	48387.36
587.70	48639.26
587.90	48786.71
588.10	48780.57
588.30	48631.07
588.50	48727.32
