SpectraSuite Data File
++++++++++++++++++++++++++++++++++++
Date: Fri Jun 02 14:49:27 CEST 2017
User: INFO_000
Dark Spectrum Present: No
Reference Spectrum Present: No
Number of Sampled Component Spectra: 1
Spectrometers: USB4H00879
Integration Time (usec): 80000 (USB4H00879)
Spectra Averaged: 1 (USB4H00879)
Boxcar Smoothing: 0 (USB4H00879)
Correct for Electrical Dark: No (USB4H00879)
Strobe/Lamp Enabled: No (USB4H00879)
Correct for Detector Non-linearity: No (USB4H00879)
Correct for Stray Light: No (USB4H00879)
Number of Pixels in Processed Spectrum: 3648
>>>>>Begin Processed Spectral Data<<<<<
345.13	1267.69
345.34	1267.69
345.56	1267.69
345.78	1310.70
345.99	1255.40
346.21	1724.39
346.42	1640.42
346.64	1636.33
346.86	1767.40
347.07	1638.38
347.29	1718.25
347.50	1599.46
347.72	1697.77
347.94	1765.35
348.15	1525.74
348.37	1583.08
348.59	1705.96
348.80	1605.61
349.02	1765.35
349.23	1908.71
349.45	1822.69
349.67	1882.08
349.88	1820.64
350.10	1894.37
350.31	1830.88
350.53	1902.56
350.75	1937.38
350.96	1816.55
351.18	1906.66
351.39	1892.32
351.61	1847.27
351.82	1863.65
352.04	1892.32
352.26	1847.27
352.47	1863.65
352.69	1908.71
352.90	1787.88
353.12	1814.50
353.34	1826.79
353.55	1980.39
353.77	1945.57
353.98	1787.88
354.20	1896.42
354.41	1959.91
354.63	1900.52
354.85	2043.87
355.06	1929.19
355.28	1880.04
355.49	1931.23
355.71	1845.22
355.92	1808.36
356.14	1863.65
356.35	1929.19
356.57	1875.94
356.79	1935.33
357.00	1847.27
357.22	1959.91
357.43	1871.84
357.65	1925.09
357.86	1828.84
358.08	1970.15
358.29	1896.42
358.51	1964.00
358.72	2027.49
358.94	1906.66
359.16	1880.04
359.37	1910.75
359.59	1880.04
359.80	1980.39
360.02	2043.87
360.23	1964.00
360.45	2017.25
360.66	1953.76
360.88	1855.46
361.09	1925.09
361.31	1947.62
361.52	1937.38
361.74	2035.68
361.95	2093.02
362.17	1998.82
362.38	2045.92
362.60	1961.95
362.81	1976.29
363.03	1929.19
363.24	1964.00
363.46	2064.35
363.67	1978.34
363.89	2017.25
364.10	1984.48
364.32	1906.66
364.53	1976.29
364.75	1920.99
364.96	2007.01
365.18	1984.48
365.39	2041.82
365.61	1953.76
365.82	2144.22
366.04	2023.39
366.25	1964.00
366.47	1998.82
366.68	2086.88
366.90	1984.48
367.11	2039.78
367.33	2056.16
367.54	2050.02
367.76	2004.96
367.97	2183.13
368.19	2107.36
368.40	2015.20
368.62	2007.01
368.83	1951.71
369.05	2013.15
369.26	2021.35
369.48	1880.04
369.69	1978.34
369.91	2097.12
370.12	2035.68
370.33	2090.98
370.55	1968.10
370.76	1970.15
370.98	2078.69
371.19	2056.16
371.41	2019.30
371.62	2011.11
371.84	1998.82
372.05	2181.09
372.27	2007.01
372.48	2058.21
372.69	2109.41
372.91	2115.55
373.12	2181.09
373.34	2074.59
373.55	2109.41
373.77	2195.42
373.98	2183.13
374.20	2195.42
374.41	2287.58
374.62	2158.56
374.84	2090.98
375.05	2174.94
375.27	2213.85
375.48	2166.75
375.70	2164.70
375.91	2222.05
376.12	2291.68
376.34	2162.66
376.55	2170.85
376.77	2199.52
376.98	2109.41
377.19	2119.65
377.41	2123.74
377.62	2150.37
377.84	2195.42
378.05	2336.73
378.27	2199.52
378.48	2254.81
378.69	2396.12
378.91	2336.73
379.12	2297.82
379.34	2271.20
379.55	2338.78
379.76	2240.48
379.98	2152.42
380.19	2250.72
380.41	2258.91
380.62	2342.88
380.83	2271.20
381.05	2215.90
381.26	2312.16
381.47	2213.85
381.69	2236.38
381.90	2414.56
382.12	2291.68
382.33	2303.96
382.54	2220.00
382.76	2287.58
382.97	2260.96
383.19	2269.15
383.40	2301.92
383.61	2310.11
383.83	2256.86
384.04	2346.97
384.25	2367.45
384.47	2396.12
384.68	2273.25
384.89	2287.58
385.11	2381.79
385.32	2238.43
385.54	2324.44
385.75	2351.07
385.96	2394.08
386.18	2410.46
386.39	2402.27
386.60	2416.60
386.82	2523.10
387.03	2357.21
387.24	2535.39
387.46	2482.14
387.67	2519.00
387.88	2461.66
388.10	2525.15
388.31	2514.91
388.52	2623.45
388.74	2596.82
388.95	2467.80
389.16	2478.04
389.38	2467.80
389.59	2469.85
389.80	2605.02
390.02	2543.58
390.23	2590.68
390.44	2516.95
390.66	2539.48
390.87	2455.51
391.08	2547.67
391.30	2676.70
391.51	2672.60
391.72	2631.64
391.94	2650.07
392.15	2664.41
392.36	2736.09
392.58	2537.43
392.79	2592.73
393.00	2648.02
393.22	2678.74
393.43	2715.61
393.64	2643.93
393.85	2721.75
394.07	2598.87
394.28	2635.74
394.49	2707.41
394.71	2793.43
394.92	2781.14
395.13	2641.88
395.35	2670.55
395.56	2725.85
395.77	2793.43
395.98	2764.76
396.20	2820.05
396.41	2826.20
396.62	2834.39
396.84	2867.16
397.05	2727.89
397.26	2916.31
397.47	2944.98
397.69	2850.77
397.90	3022.80
398.11	2904.02
398.32	2932.69
398.54	2822.10
398.75	2875.35
398.96	2891.73
399.18	3022.80
399.39	2990.03
399.60	2940.88
399.81	2938.84
400.03	3004.37
400.24	3227.60
400.45	2904.02
400.66	3053.52
400.88	2926.55
401.09	3125.20
401.30	2932.69
401.51	3055.57
401.73	3117.01
401.94	3020.75
402.15	3149.78
402.36	3069.91
402.58	3155.92
402.79	3180.50
403.00	3096.53
403.21	3145.68
403.43	3176.40
403.64	3264.46
403.85	3057.62
404.06	3276.75
404.27	3133.39
404.49	3194.83
404.70	3143.63
404.91	3114.96
405.12	3276.75
405.34	3133.39
405.55	3358.67
405.76	3147.73
405.97	3143.63
406.19	3401.68
406.40	3211.22
406.61	3350.48
406.82	3311.57
407.03	3305.42
407.25	3166.16
407.46	3358.67
407.67	3467.21
407.88	3463.12
408.09	3346.38
408.31	3301.33
408.52	3385.29
408.73	3334.09
408.94	3375.05
409.15	3403.72
409.37	3430.35
409.58	3450.83
409.79	3493.83
410.00	3516.36
410.21	3332.05
410.43	3510.22
410.64	3424.20
410.85	3563.47
411.06	3567.56
411.27	3594.19
411.48	3520.46
411.70	3418.06
411.91	3606.47
412.12	3680.20
412.33	3604.42
412.54	3616.71
412.76	3792.84
412.97	3680.20
413.18	3522.51
413.39	3659.72
413.60	3674.06
413.81	3600.33
414.03	3573.71
414.24	3600.33
414.45	3753.93
414.66	3512.27
414.87	3708.87
415.08	3725.26
415.30	3708.87
415.51	3715.02
415.72	3755.97
415.93	3690.44
416.14	3755.97
416.35	3887.04
416.56	3778.50
416.78	3796.93
416.99	3862.47
417.20	3794.89
417.41	3862.47
417.62	3878.85
417.83	3903.43
418.04	3844.04
418.26	3854.28
418.47	3792.84
418.68	3944.39
418.89	3989.44
419.10	4097.99
419.31	3983.30
419.52	4087.75
419.73	4016.07
419.95	4136.90
420.16	4016.07
420.37	3977.16
420.58	4085.70
420.79	3815.37
421.00	4069.31
421.21	4145.09
421.42	3891.14
421.63	4165.57
421.85	4155.33
422.06	4220.86
422.27	4220.86
422.48	4222.91
422.69	4306.88
422.90	4218.82
423.11	4216.77
423.32	4245.44
423.53	4421.56
423.75	4358.08
423.96	4425.66
424.17	4362.17
424.38	4446.14
424.59	4390.84
424.80	4575.16
425.01	4212.67
425.22	4267.97
425.43	4472.76
425.64	4528.06
425.85	4542.39
426.06	4554.68
426.28	4546.49
426.49	4462.52
426.70	4511.68
426.91	4491.20
427.12	4521.92
427.33	4667.32
427.54	4503.48
427.75	4626.36
427.96	4689.85
428.17	4661.18
428.38	4675.51
428.59	4782.01
428.80	4771.77
429.01	4814.77
429.23	4708.28
429.44	4941.75
429.65	4820.92
429.86	4833.21
430.07	4825.01
430.28	4843.45
430.49	4872.12
430.70	4964.28
430.91	5009.33
431.12	4913.08
431.33	5142.45
431.54	5156.79
431.75	5087.15
431.96	5033.91
432.17	4974.52
432.38	5081.01
432.59	5218.22
432.80	5140.40
433.01	5214.13
433.22	5177.26
433.43	5345.20
433.64	5312.43
433.85	5167.03
434.06	5392.30
434.27	5275.57
434.49	5318.57
434.70	5468.08
434.91	5171.12
435.12	5431.21
435.33	5369.77
435.54	5330.86
435.75	5337.01
435.96	5384.11
436.17	5320.62
436.38	5539.76
436.59	5566.38
436.80	5447.60
437.01	5762.98
437.22	5726.12
437.43	5584.81
437.64	5414.83
437.85	5703.59
438.06	5769.13
438.27	5625.77
438.48	5664.68
438.69	5791.66
438.90	5756.84
439.11	5631.91
439.32	5765.03
439.53	5613.48
439.74	5830.57
439.95	5867.43
440.16	5875.62
440.37	5750.70
440.57	5689.26
440.78	5894.05
440.99	5898.15
441.20	5808.04
441.41	5748.65
441.62	6107.04
441.83	5793.70
442.04	6088.61
442.25	5939.11
442.46	6033.32
442.67	6139.81
442.88	6338.46
443.09	5943.21
443.30	5908.39
443.51	6229.92
443.72	6336.42
443.93	6109.09
444.14	6404.00
444.35	5982.12
444.56	6262.69
444.77	6270.88
444.98	6334.37
445.19	6303.65
445.40	6324.13
445.61	6221.73
445.81	6301.60
446.02	6500.25
446.23	6295.46
446.44	6350.75
446.65	6457.25
446.86	6401.95
447.07	6510.49
447.28	6623.13
447.49	6672.28
447.70	6496.16
447.91	6645.66
448.12	6508.44
448.33	6739.87
448.54	6752.15
448.74	6504.35
448.95	6780.82
449.16	6662.04
449.37	6983.57
449.58	6604.70
449.79	6932.37
450.00	6729.63
450.21	6766.49
450.42	7008.15
450.63	7079.83
450.84	6940.57
451.05	6946.71
451.25	7010.20
451.46	6840.22
451.67	7161.75
451.88	7239.57
452.09	7198.61
452.30	7081.88
452.51	6956.95
452.72	7155.60
452.93	7567.24
453.13	6901.65
453.34	7128.98
453.55	7352.21
453.76	7350.16
453.97	7567.24
454.18	7284.62
454.39	7671.69
454.60	7499.66
454.81	7321.49
455.01	7643.02
455.22	7329.68
455.43	7554.96
455.64	7688.07
455.85	7620.49
456.06	7989.13
456.27	7704.46
456.48	7817.10
456.68	7804.81
456.89	7794.57
457.10	7878.54
457.31	7972.74
457.52	7827.34
457.73	8079.24
457.94	8230.79
458.14	8093.57
458.35	8161.16
458.56	8357.76
458.77	8163.20
458.98	8202.11
459.19	8210.31
459.39	8447.87
459.60	8447.87
459.81	8359.81
460.02	8322.94
460.23	8417.15
460.44	8767.35
460.65	8613.76
460.85	8433.54
461.06	8882.04
461.27	8466.30
461.48	9043.83
461.69	8898.42
461.89	8656.76
462.10	8871.80
462.31	8658.81
462.52	8853.37
462.73	8935.29
462.94	9230.20
463.14	9152.37
463.35	9080.69
463.56	9269.11
463.77	9295.73
463.98	9164.66
464.18	9179.00
464.39	9449.33
464.60	9463.66
464.81	9463.66
465.02	9564.01
465.23	9641.84
465.43	9602.93
465.64	9729.90
465.85	9752.43
466.06	9596.78
466.27	9936.74
466.47	9879.40
466.68	9949.03
466.89	9908.07
467.10	9975.66
467.30	9770.86
467.51	10215.27
467.72	10231.65
467.93	9973.61
468.14	10194.79
468.34	10280.80
468.55	10426.21
468.76	10514.27
468.97	10407.78
469.17	10569.57
469.38	10833.75
469.59	10813.28
469.80	10762.08
470.01	10575.71
470.21	10866.52
470.42	10909.53
470.63	11079.51
470.84	10841.95
471.04	11241.30
471.25	11235.16
471.46	11235.16
471.67	11386.71
471.87	11280.21
472.08	11435.86
472.29	11798.35
472.50	11263.83
472.70	11349.84
472.91	11470.67
473.12	11845.45
473.33	11650.89
473.53	12027.72
473.74	11716.43
473.95	12042.06
474.16	12089.16
474.36	12003.14
474.57	12365.64
474.78	12427.07
474.99	12461.89
475.19	12465.99
475.40	12773.18
475.61	12785.47
475.81	12980.03
476.02	13129.53
476.23	12928.83
476.44	13090.62
476.64	13180.73
476.85	13506.35
477.06	13324.08
477.27	13297.46
477.47	13616.94
477.68	13403.96
477.89	13664.05
478.09	13559.60
478.30	13836.08
478.51	13819.69
478.71	14001.96
478.92	14092.07
479.13	14212.90
479.34	14315.30
479.54	14407.46
479.75	14513.95
479.96	14563.11
480.16	14544.67
480.37	14567.20
480.58	14747.42
480.78	15073.05
480.99	14892.83
481.20	15105.82
481.41	15251.22
481.61	15343.38
481.82	15478.55
482.03	15316.76
482.23	15275.80
482.44	15712.02
482.65	15834.89
482.85	15568.66
483.06	15716.11
483.27	15922.96
483.47	15843.09
483.68	15914.77
483.89	16283.40
484.09	16285.45
484.30	16484.10
484.51	16303.88
484.71	16506.63
484.92	16641.79
485.13	16789.25
485.33	16805.63
485.54	16805.63
485.75	16981.76
485.95	16994.04
486.16	17247.99
486.37	17413.88
486.57	16994.04
486.78	17297.14
486.98	17411.83
487.19	17673.97
487.40	17854.19
487.60	17561.33
487.81	17975.02
488.02	17891.06
488.22	18040.56
488.43	17991.41
488.64	18345.70
488.84	18333.42
489.05	18450.15
489.25	18257.64
489.46	18599.65
489.67	18444.01
489.87	19205.85
490.08	18843.36
490.29	18714.34
490.49	19097.31
490.70	19066.59
490.90	19287.77
491.11	19138.27
491.32	19459.80
491.52	19482.33
491.73	19435.22
491.94	19537.62
492.14	19613.40
492.35	19781.33
492.55	19840.72
492.76	19984.08
492.97	20039.37
493.17	20104.91
493.38	20168.40
493.58	20330.19
493.79	20395.72
494.00	20377.29
494.20	20547.27
494.41	20684.48
494.61	20909.76
494.82	20709.06
495.02	20885.19
495.23	21038.78
495.44	20979.39
495.64	21264.06
495.85	21163.71
496.05	21642.93
496.26	21544.63
496.47	21417.66
496.67	21262.01
496.88	21810.87
497.08	21339.83
497.29	21960.37
497.49	21849.78
497.70	21948.08
497.91	22171.31
498.11	22230.70
498.32	22245.04
498.52	22318.76
498.73	22202.03
498.93	22259.37
499.14	22716.07
499.34	22496.94
499.55	22728.36
499.76	22869.67
499.96	22884.00
500.17	22953.63
500.37	23088.80
500.58	23281.31
500.78	23096.99
500.99	23344.80
501.19	23279.26
501.40	23287.45
501.60	23101.09
501.81	23219.87
502.02	23195.29
502.22	23178.91
502.43	23432.86
502.63	23959.19
502.84	23916.18
503.04	23658.14
503.25	23893.65
503.45	24063.63
503.66	24370.83
503.86	23922.32
504.07	24336.01
504.27	24063.63
504.48	24499.85
504.68	24336.01
504.89	24809.09
505.09	24487.56
505.30	24551.05
505.50	24649.35
505.71	24780.42
505.91	24821.38
506.12	25060.99
506.32	24954.50
506.53	25161.34
506.73	25378.43
506.94	24921.73
507.14	25185.92
507.35	25208.45
507.55	25503.35
507.76	25468.54
507.96	25224.83
508.17	25581.18
508.37	25669.24
508.58	25642.62
508.78	25880.18
508.99	25685.62
509.19	25788.02
509.40	25896.56
509.60	25935.48
509.81	26089.07
510.01	26160.75
510.22	26003.06
510.42	26142.32
510.63	26367.60
510.83	26404.46
511.04	26443.37
511.24	26500.72
511.44	26005.11
511.65	26627.69
511.85	26340.97
512.06	26338.93
512.26	26941.03
512.47	26898.02
512.67	26566.25
512.88	26795.62
513.08	26793.58
513.29	26826.34
513.49	27194.98
513.69	27190.88
513.90	27252.32
514.10	27219.55
514.31	27432.54
514.51	27184.74
514.72	27188.83
514.92	27326.05
515.13	27731.54
515.33	27729.50
515.53	27790.94
515.74	27504.22
515.94	27608.67
516.15	27520.60
516.35	27631.19
516.56	27915.86
516.76	27586.14
516.96	27909.72
517.17	28059.22
517.37	28212.82
517.58	27977.30
517.78	28307.02
517.99	28229.20
518.19	28282.45
518.39	28436.05
518.60	28331.60
518.80	28364.37
519.01	28657.23
519.21	28847.69
519.41	28573.26
519.62	28571.21
519.82	29089.35
520.03	29038.15
520.23	28823.11
520.43	29021.77
520.64	29361.73
520.84	28927.56
521.05	29134.40
521.25	29384.26
521.45	29521.47
521.66	29566.52
521.86	29810.23
522.07	29646.40
522.27	29675.07
522.47	29576.76
522.68	29894.20
522.88	29922.87
523.08	30123.57
523.29	30113.33
523.49	29617.72
523.70	30432.82
523.90	30268.98
524.10	30447.15
524.31	30641.71
524.51	30324.27
524.71	30701.10
524.92	30545.45
525.12	30887.46
525.33	30506.54
525.53	30871.08
525.73	30907.94
525.94	31063.59
526.14	30740.01
526.34	31368.74
526.55	31213.09
526.75	30803.50
526.95	31499.81
527.16	31198.76
527.36	31262.24
527.56	31415.84
527.77	31708.70
527.97	31309.35
528.17	31753.76
528.38	31907.35
528.58	31747.61
528.78	31972.89
528.99	31841.82
529.19	32026.14
529.39	32075.29
529.60	32345.62
529.80	31931.93
530.00	32200.21
530.21	32503.31
530.41	32640.53
530.61	32503.31
530.82	32738.83
531.02	32806.41
531.22	32845.32
531.43	32767.50
531.63	33318.40
531.83	33281.54
532.04	33697.28
532.24	33183.24
532.44	33531.39
532.64	33601.02
532.85	33805.82
533.05	33517.06
533.25	33605.12
533.46	33928.70
533.66	34158.07
533.86	34162.17
534.07	34207.22
534.27	34102.78
534.47	34647.54
534.67	34272.76
534.88	34305.52
535.08	34137.59
535.28	34815.47
535.49	34608.62
535.69	35108.33
535.89	34885.10
536.09	35034.60
536.30	35403.24
536.50	35122.66
536.70	35388.90
536.91	34797.04
537.11	35585.50
537.31	35306.98
537.51	35276.26
537.72	35741.15
537.92	36031.96
538.12	35792.35
538.32	35605.98
538.53	35853.79
538.73	35657.18
538.93	36267.48
539.13	36158.94
539.34	36097.50
539.54	36132.31
539.74	36922.83
539.94	36380.12
540.15	36443.60
540.35	36748.75
540.55	36535.76
540.75	36916.68
540.96	37041.61
541.16	37103.05
541.36	36722.13
541.56	37156.30
541.77	37393.86
541.97	37103.05
542.17	37338.57
542.37	37088.71
542.58	37144.01
542.78	37445.06
542.98	37373.38
543.18	37656.00
543.38	37850.56
543.59	38184.38
543.79	37572.03
543.99	37819.84
544.19	38098.36
544.40	37684.67
544.60	38428.09
544.80	37975.48
545.00	38036.92
545.20	38544.82
545.41	38366.65
545.61	38211.00
545.81	38628.79
546.01	38589.88
546.21	38432.18
546.42	38604.21
546.62	39067.05
546.82	38759.86
547.02	38827.44
547.22	38794.67
547.43	39058.86
547.63	38663.60
547.83	38811.06
548.03	38714.80
548.23	39515.56
548.44	39097.77
548.64	39646.63
548.84	39708.07
549.04	39257.51
549.24	39269.80
549.45	39982.49
549.65	39517.60
549.85	39323.05
550.05	39577.00
550.25	39474.60
550.45	40551.83
550.66	39908.77
550.86	39818.66
551.06	39906.72
551.26	39871.90
551.46	39687.59
551.66	39951.77
551.87	39931.29
552.07	40512.92
552.27	40588.69
552.47	40306.07
552.67	40361.37
552.87	40791.44
553.07	40373.66
553.28	40498.58
553.48	41069.97
553.68	40494.49
553.88	40928.66
554.08	41104.78
554.28	40785.30
554.48	40740.24
554.69	40658.32
554.89	40865.17
555.09	40572.31
555.29	40820.11
555.49	41483.66
555.69	41422.22
555.89	41149.84
556.10	41887.10
556.30	41383.30
556.50	41438.60
556.70	41229.71
556.90	41749.89
557.10	41606.53
557.30	41688.45
557.50	41508.23
557.70	41778.56
557.91	41788.80
558.11	41661.83
558.31	42179.96
558.51	41731.46
558.71	42315.13
558.91	42184.06
559.11	41436.55
559.31	41964.93
559.51	41993.60
559.72	41862.53
559.92	42225.02
560.12	41934.21
560.32	42165.63
560.52	42016.13
560.72	42376.57
560.92	42599.80
561.12	42521.98
561.32	42874.23
561.52	41864.58
561.72	42808.69
561.93	42620.28
562.13	42794.36
562.33	42235.26
562.53	43093.36
562.73	42562.93
562.93	43031.92
563.13	42655.09
563.33	42931.57
563.53	43177.33
563.73	42620.28
563.93	43091.31
564.13	43695.46
564.33	42724.72
564.53	43193.71
564.74	43472.23
564.94	42775.92
565.14	43341.16
565.34	43326.83
565.54	43742.56
565.74	42933.62
565.94	43689.32
566.14	43300.20
566.34	43826.53
566.54	43752.80
566.74	43574.63
566.94	43505.00
567.14	43816.29
567.34	43814.24
567.54	44297.56
567.74	43797.86
567.94	43474.28
568.14	44064.10
568.34	44367.20
568.54	44139.87
568.74	44203.36
568.94	43984.22
569.14	44277.08
569.34	43705.70
569.54	44098.91
569.75	43879.78
569.95	44555.61
570.15	44854.61
570.35	44498.26
570.55	44602.71
570.75	44467.55
570.95	44547.42
571.15	44316.00
571.35	44717.40
571.55	44748.12
571.75	44672.34
571.95	44737.88
572.15	44393.82
572.35	45143.38
572.55	44696.92
572.75	44649.81
572.95	44873.04
573.15	44954.96
573.35	45163.85
573.55	44866.90
573.75	44903.76
573.95	45593.93
574.15	45026.64
574.35	45616.46
574.55	45112.66
574.75	45280.59
574.95	45421.90
575.15	45448.52
575.34	45704.52
575.54	45690.18
575.74	45897.03
575.94	45948.23
576.14	45528.39
576.34	46060.87
576.54	45987.14
576.74	45743.43
576.94	46089.54
577.14	46214.46
577.34	46425.40
577.54	45874.50
577.74	46376.25
577.94	46255.42
578.14	46302.53
578.34	46601.53
578.54	46097.73
578.74	46267.71
578.94	46835.00
579.14	46552.38
579.34	46509.37
579.54	46589.24
579.74	46925.11
579.94	46613.82
580.13	47170.86
580.33	47312.17
580.53	47244.59
580.73	47203.63
580.93	47469.87
581.13	47289.65
581.33	47453.48
581.53	47107.38
581.73	47101.23
581.93	47576.36
582.13	47469.87
582.33	47629.61
582.53	47363.37
582.73	48014.63
582.92	47891.75
583.12	47818.02
583.32	47420.72
583.52	47330.61
583.72	47668.52
583.92	47830.31
584.12	47658.28
584.32	48424.22
584.52	48080.16
584.72	47736.10
584.92	48059.68
585.11	48350.49
585.31	48157.99
585.51	48291.10
585.71	48153.89
585.91	48442.65
586.11	48192.80
586.31	48252.19
586.51	48604.44
586.71	48784.66
586.91	48956.69
587.10	49009.94
587.30	48964.88
587.50	48698.65
587.70	48944.41
587.90	48387.36
588.10	48676.12
588.30	48563.48
588.50	48860.44
588.69	49274.13
