SpectraSuite Data File
++++++++++++++++++++++++++++++++++++
Date: Fri Jun 02 14:49:28 CEST 2017
User: INFO_000
Dark Spectrum Present: No
Reference Spectrum Present: No
Number of Sampled Component Spectra: 1
Spectrometers: USB4H00879
Integration Time (usec): 80000 (USB4H00879)
Spectra Averaged: 1 (USB4H00879)
Boxcar Smoothing: 0 (USB4H00879)
Correct for Electrical Dark: No (USB4H00879)
Strobe/Lamp Enabled: No (USB4H00879)
Correct for Detector Non-linearity: No (USB4H00879)
Correct for Stray Light: No (USB4H00879)
Number of Pixels in Processed Spectrum: 3648
>>>>>Begin Processed Spectral Data<<<<<
345.13	1261.55
345.34	1261.55
345.56	1261.55
345.78	1302.51
345.99	1279.98
346.21	1673.19
346.42	1718.25
346.64	1621.99
346.86	1714.15
347.07	1687.53
347.29	1705.96
347.50	1642.47
347.72	1650.66
347.94	1712.10
348.15	1581.03
348.37	1591.27
348.59	1703.91
348.80	1662.95
349.02	1744.87
349.23	1820.64
349.45	1837.03
349.67	1865.70
349.88	1812.45
350.10	1875.94
350.31	1794.02
350.53	1806.31
350.75	1988.58
350.96	1789.92
351.18	1837.03
351.39	1892.32
351.61	1839.08
351.82	1894.37
352.04	1875.94
352.26	1830.88
352.47	1986.53
352.69	1804.26
352.90	1691.62
353.12	1882.08
353.34	1902.56
353.55	2002.91
353.77	1871.84
353.98	1875.94
354.20	1789.92
354.41	1896.42
354.63	1920.99
354.85	1959.91
355.06	1974.24
355.28	1826.79
355.49	1832.93
355.71	1824.74
355.92	1898.47
356.14	1920.99
356.35	1861.60
356.57	1886.18
356.79	1912.80
357.00	1875.94
357.22	1925.09
357.43	1857.51
357.65	1869.80
357.86	1785.83
358.08	1918.95
358.29	1976.29
358.51	1974.24
358.72	1968.10
358.94	1927.14
359.16	1912.80
359.37	1902.56
359.59	1982.43
359.80	2002.91
360.02	1927.14
360.23	1953.76
360.45	1992.67
360.66	1955.81
360.88	1898.47
361.09	1855.46
361.31	2009.06
361.52	2041.82
361.74	2043.87
361.95	1976.29
362.17	1945.57
362.38	2037.73
362.60	2043.87
362.81	1955.81
363.03	1955.81
363.24	1994.72
363.46	2033.63
363.67	2007.01
363.89	1959.91
364.10	2035.68
364.32	1855.46
364.53	2080.74
364.75	1865.70
364.96	2050.02
365.18	2072.54
365.39	2043.87
365.61	1910.75
365.82	2111.46
366.04	1996.77
366.25	1980.39
366.47	2097.12
366.68	1980.39
366.90	2023.39
367.11	2013.15
367.33	2125.79
367.54	2101.22
367.76	1984.48
367.97	2068.45
368.19	2033.63
368.40	2093.02
368.62	2013.15
368.83	1947.62
369.05	2056.16
369.26	2011.11
369.48	1941.47
369.69	1984.48
369.91	2060.26
370.12	2095.07
370.33	2097.12
370.55	1939.43
370.76	2007.01
370.98	2013.15
371.19	2138.08
371.41	2043.87
371.62	2062.30
371.84	1978.34
372.05	2191.33
372.27	2050.02
372.48	2060.26
372.69	2058.21
372.91	2068.45
373.12	2187.23
373.34	2035.68
373.55	2170.85
373.77	2170.85
373.98	2019.30
374.20	2191.33
374.41	2164.70
374.62	2088.93
374.84	2140.13
375.05	2199.52
375.27	2101.22
375.48	2146.27
375.70	2195.42
375.91	2236.38
376.12	2379.74
376.34	2105.31
376.55	2138.08
376.77	2189.28
376.98	2170.85
377.19	2084.83
377.41	2205.66
377.62	2211.81
377.84	2222.05
378.05	2322.40
378.27	2205.66
378.48	2396.12
378.69	2310.11
378.91	2271.20
379.12	2281.44
379.34	2131.94
379.55	2306.01
379.76	2273.25
379.98	2203.61
380.19	2127.84
380.41	2228.19
380.62	2248.67
380.83	2248.67
381.05	2207.71
381.26	2346.97
381.47	2181.09
381.69	2283.49
381.90	2342.88
382.12	2195.42
382.33	2277.34
382.54	2230.24
382.76	2295.77
382.97	2271.20
383.19	2228.19
383.40	2416.60
383.61	2367.45
383.83	2318.30
384.04	2365.40
384.25	2330.59
384.47	2383.84
384.68	2371.55
384.89	2318.30
385.11	2377.69
385.32	2289.63
385.54	2353.12
385.75	2324.44
385.96	2447.32
386.18	2330.59
386.39	2383.84
386.60	2400.22
386.82	2392.03
387.03	2375.64
387.24	2475.99
387.46	2500.57
387.67	2404.32
387.88	2459.61
388.10	2506.71
388.31	2496.47
388.52	2602.97
388.74	2531.29
388.95	2379.74
389.16	2492.38
389.38	2428.89
389.59	2508.76
389.80	2570.20
390.02	2594.78
390.23	2594.78
390.44	2559.96
390.66	2555.86
390.87	2557.91
391.08	2572.25
391.30	2625.50
391.51	2648.02
391.72	2668.50
391.94	2715.61
392.15	2652.12
392.36	2629.59
392.58	2559.96
392.79	2719.70
393.00	2703.32
393.22	2609.11
393.43	2787.29
393.64	2760.66
393.85	2809.81
394.07	2740.18
394.28	2721.75
394.49	2858.96
394.71	2750.42
394.92	2854.87
395.13	2748.37
395.35	2717.65
395.56	2719.70
395.77	2756.57
395.98	2844.63
396.20	2920.40
396.41	2758.61
396.62	2926.55
396.84	2871.25
397.05	2828.24
397.26	2842.58
397.47	3028.95
397.69	2746.33
397.90	3006.42
398.11	2889.68
398.32	2867.16
398.54	2858.96
398.75	2883.54
398.96	2854.87
399.18	3125.20
399.39	2992.08
399.60	3071.95
399.81	2928.60
400.03	2889.68
400.24	3268.56
400.45	2992.08
400.66	3098.58
400.88	2957.27
401.09	3186.64
401.30	2973.65
401.51	3145.68
401.73	3108.82
401.94	3071.95
402.15	3190.74
402.36	3123.15
402.58	3028.95
402.79	3166.16
403.00	3184.59
403.21	3203.02
403.43	3235.79
403.64	3194.83
403.85	3153.87
404.06	3207.12
404.27	3100.62
404.49	3207.12
404.70	3274.70
404.91	3252.17
405.12	3166.16
405.34	3248.08
405.55	3373.00
405.76	3106.77
405.97	3243.98
406.19	3362.76
406.40	3215.31
406.61	3315.66
406.82	3241.93
407.03	3293.13
407.25	3260.37
407.46	3350.48
407.67	3391.44
407.88	3411.92
408.09	3262.41
408.31	3321.81
408.52	3385.29
408.73	3262.41
408.94	3344.33
409.15	3395.53
409.37	3422.16
409.58	3585.99
409.79	3502.03
410.00	3536.84
410.21	3467.21
410.43	3456.97
410.64	3330.00
410.85	3590.09
411.06	3434.44
411.27	3499.98
411.48	3581.90
411.70	3420.11
411.91	3616.71
412.12	3706.82
412.33	3485.64
412.54	3454.92
412.76	3651.53
412.97	3674.06
413.18	3426.25
413.39	3571.66
413.60	3678.15
413.81	3579.85
414.03	3508.17
414.24	3610.57
414.45	3661.77
414.66	3565.51
414.87	3680.20
415.08	3706.82
415.30	3622.86
415.51	3710.92
415.72	3782.60
415.93	3672.01
416.14	3745.73
416.35	3749.83
416.56	3815.37
416.78	3825.61
416.99	3796.93
417.20	3682.25
417.41	3844.04
417.62	3844.04
417.83	3860.42
418.04	3850.18
418.26	3862.47
418.47	3805.13
418.68	3942.34
418.89	3958.72
419.10	4034.50
419.31	3936.20
419.52	3946.44
419.73	3944.39
419.95	4052.93
420.16	3942.34
420.37	3989.44
420.58	3999.68
420.79	3952.58
421.00	4003.78
421.21	3964.87
421.42	4087.75
421.63	4022.21
421.85	4190.14
422.06	4163.52
422.27	4214.72
422.48	4206.53
422.69	4122.56
422.90	4173.76
423.11	4259.78
423.32	4179.90
423.53	4323.26
423.75	4323.26
423.96	4411.32
424.17	4343.74
424.38	4335.55
424.59	4261.82
424.80	4540.35
425.01	4587.45
425.22	4335.55
425.43	4403.13
425.64	4601.79
425.85	4632.51
426.06	4530.11
426.28	4442.04
426.49	4372.41
426.70	4509.63
426.91	4591.55
427.12	4470.72
427.33	4618.17
427.54	4599.74
427.75	4552.63
427.96	4710.33
428.17	4745.14
428.38	4712.38
428.59	4773.82
428.80	4741.05
429.01	4706.23
429.23	4870.07
429.44	4974.52
429.65	4888.50
429.86	4943.80
430.07	4779.96
430.28	4693.94
430.49	5083.06
430.70	5078.96
430.91	4949.94
431.12	4870.07
431.33	5148.59
431.54	5138.35
431.75	5099.44
431.96	4968.37
432.17	5185.46
432.38	4974.52
432.59	5234.61
432.80	5261.23
433.01	5195.70
433.22	5394.35
433.43	5244.85
433.64	5289.90
433.85	5193.65
434.06	5406.64
434.27	5314.48
434.49	5363.63
434.70	5490.60
434.91	5478.32
435.12	5453.74
435.33	5468.08
435.54	5550.00
435.75	5402.54
435.96	5455.79
436.17	5461.93
436.38	5650.35
436.59	5599.15
436.80	5580.71
437.01	5803.94
437.22	5648.30
437.43	5564.33
437.64	5429.17
437.85	5650.35
438.06	5672.87
438.27	5656.49
438.48	5670.83
438.69	5812.14
438.90	5668.78
439.11	5699.50
439.32	5797.80
439.53	5810.09
439.74	5912.49
439.95	5867.43
440.16	5873.57
440.37	5750.70
440.57	5717.93
440.78	6061.99
440.99	6029.22
441.20	5963.68
441.41	5756.84
441.62	5830.57
441.83	5904.29
442.04	6131.62
442.25	6064.04
442.46	6199.20
442.67	6098.85
442.88	6367.13
443.09	5971.88
443.30	6092.71
443.51	6125.47
443.72	6449.05
443.93	5922.73
444.14	6401.95
444.35	6148.00
444.56	6143.91
444.77	6094.76
444.98	6262.69
445.19	6399.90
445.40	6305.70
445.61	6254.50
445.81	6465.44
446.02	6504.35
446.23	6238.11
446.44	6121.38
446.65	6440.86
446.86	6526.88
447.07	6520.73
447.28	6682.52
447.49	6635.42
447.70	6475.68
447.91	6549.40
448.12	6657.95
448.33	6627.23
448.54	6694.81
448.74	6541.21
448.95	6614.94
449.16	6610.84
449.37	6705.05
449.58	6635.42
449.79	7008.15
450.00	6649.75
450.21	6858.65
450.42	6776.73
450.63	6829.98
450.84	6881.18
451.05	6999.96
451.25	6926.23
451.46	6920.09
451.67	6950.81
451.88	7092.12
452.09	7010.20
452.30	6991.77
452.51	7061.40
452.72	7262.10
452.93	7528.33
453.13	6934.42
453.34	7010.20
453.55	7276.43
453.76	7139.22
453.97	7507.85
454.18	7217.04
454.39	7303.06
454.60	7391.12
454.81	7411.60
455.01	7540.62
455.22	7258.00
455.43	7522.19
455.64	7704.46
455.85	7686.03
456.06	7980.93
456.27	7720.84
456.48	7565.20
456.68	7714.70
456.89	7798.66
457.10	7899.02
457.31	7729.03
457.52	7632.78
457.73	7923.59
457.94	8177.54
458.14	7819.14
458.35	8251.27
458.56	8093.57
458.77	8306.56
458.98	8243.07
459.19	8077.19
459.39	8220.55
459.60	8314.75
459.81	8202.11
460.02	8316.80
460.23	8437.63
460.44	8718.20
460.65	8548.22
460.85	8568.70
461.06	8593.28
461.27	8400.77
461.48	8763.26
461.69	8818.55
461.89	8521.60
462.10	8804.22
462.31	8597.37
462.52	8757.11
462.73	8769.40
462.94	8961.91
463.14	8896.38
463.35	9004.92
463.56	9531.25
463.77	9375.60
463.98	9004.92
464.18	9340.79
464.39	9346.93
464.60	9555.82
464.81	9187.19
465.02	9230.20
465.23	9652.08
465.43	9512.81
465.64	9787.24
465.85	9727.85
466.06	9574.25
466.27	9824.11
466.47	9932.65
466.68	9875.31
466.89	9824.11
467.10	9930.60
467.30	9850.73
467.51	10289.00
467.72	10342.24
467.93	10071.91
468.14	10229.60
468.34	10346.34
468.55	10547.04
468.76	10463.07
468.97	10346.34
469.17	10751.84
469.38	10796.89
469.59	10833.75
469.80	10612.57
470.01	10864.47
470.21	10821.47
470.42	10968.92
470.63	11061.08
470.84	11085.65
471.04	11337.56
471.25	11304.79
471.46	11192.15
471.67	11425.62
471.87	11511.63
472.08	11415.38
472.29	11650.89
472.50	11204.44
472.70	11487.06
472.91	11738.96
473.12	11923.27
473.33	11837.26
473.53	12033.86
473.74	11855.69
473.95	12087.11
474.16	12255.04
474.36	12271.43
474.57	12359.49
474.78	12468.03
474.99	12560.19
475.19	12369.73
475.40	12865.34
475.61	12726.08
475.81	12840.76
476.02	13166.39
476.23	12752.70
476.44	13162.30
476.64	13356.85
476.85	13307.70
477.06	13350.71
477.27	13692.72
477.47	13694.77
477.68	13772.59
477.89	13811.50
478.09	13817.65
478.30	13934.38
478.51	14176.04
478.71	14130.98
478.92	14243.62
479.13	14268.20
479.34	14473.00
479.54	14503.71
479.75	14292.77
479.96	14518.05
480.16	14645.02
480.37	14870.30
480.58	14911.26
480.78	15167.26
480.99	14948.12
481.20	15099.67
481.41	15505.17
481.61	15476.50
481.82	15597.33
482.03	15535.89
482.23	15490.84
482.44	15701.78
482.65	15843.09
482.85	15931.15
483.06	15798.03
483.27	15998.73
483.47	15980.30
483.68	16254.73
483.89	16447.24
484.09	16387.85
484.30	16506.63
484.51	16727.81
484.71	16791.30
484.92	16881.41
485.13	17030.91
485.33	16979.71
485.54	16858.88
485.75	17227.51
485.95	17344.25
486.16	17344.25
486.37	17313.53
486.57	17323.77
486.78	17313.53
486.98	17608.44
487.19	17665.78
487.40	17846.00
487.60	17809.14
487.81	18188.01
488.02	18089.71
488.22	17884.91
488.43	18106.09
488.64	18454.25
488.84	18263.79
489.05	18444.01
489.25	18245.35
489.46	18882.27
489.67	18720.48
489.87	18843.36
490.08	18824.93
490.29	18726.63
490.49	19181.28
490.70	19091.16
490.90	19379.93
491.11	19283.67
491.32	19633.88
491.52	19525.33
491.73	19650.26
491.94	19547.86
492.14	20076.24
492.35	19691.22
492.55	19613.40
492.76	19820.24
492.97	19904.21
493.17	20127.44
493.38	20158.16
493.58	20436.68
493.79	20297.42
494.00	20438.73
494.20	20483.78
494.41	20471.50
494.61	20528.84
494.82	20602.57
495.02	20692.68
495.23	20782.79
495.44	21122.75
495.64	21051.07
495.85	21169.85
496.05	21348.03
496.26	21147.33
496.47	21313.21
496.67	21343.93
496.88	21718.71
497.08	21626.55
497.29	21888.69
497.49	21440.18
497.70	21694.13
497.91	21761.72
498.11	22046.38
498.32	22124.21
498.52	22263.47
498.73	22429.35
498.93	22197.93
499.14	22513.32
499.34	22435.50
499.55	22838.95
499.76	22746.79
499.96	22681.25
500.17	22541.99
500.37	22806.18
500.58	22656.68
500.78	22927.01
500.99	23043.74
501.19	23301.79
501.40	23195.29
501.60	23053.98
501.81	23344.80
502.02	23391.90
502.22	23303.84
502.43	23381.66
502.63	23533.21
502.84	23668.37
503.04	23672.47
503.25	23852.69
503.45	23692.95
503.66	23783.06
503.86	23838.36
504.07	23912.08
504.27	23770.77
504.48	24460.94
504.68	24043.15
504.89	24282.77
505.09	24508.04
505.30	24389.26
505.50	24718.98
505.71	24757.89
505.91	24729.22
506.12	24563.34
506.32	24407.69
506.53	24678.02
506.73	24794.76
506.94	24782.47
507.14	24786.57
507.35	24983.17
507.55	25247.36
507.76	25104.00
507.96	25042.56
508.17	25349.76
508.37	25312.89
508.58	25134.72
508.78	25376.38
508.99	25708.15
509.19	25638.52
509.40	25652.86
509.60	25753.21
509.81	25890.42
510.01	25536.12
510.22	25812.60
510.42	25783.93
510.63	25986.68
510.83	26117.75
511.04	26050.16
511.24	26130.03
511.44	26300.01
511.65	26252.91
511.85	25824.89
512.06	26230.38
512.26	26580.59
512.47	26455.66
512.67	26158.70
512.88	26537.58
513.08	26246.77
513.29	26766.95
513.49	26951.27
513.69	26670.70
513.90	26855.01
514.10	26760.81
514.31	27016.80
514.51	26963.56
514.72	27102.82
514.92	27180.64
515.13	27422.30
515.33	27154.02
515.53	27424.35
515.74	27395.68
515.94	27260.51
516.15	27754.07
516.35	27213.41
516.56	27289.18
516.76	27702.87
516.96	27674.20
517.17	27883.09
517.37	27928.15
517.58	27760.22
517.78	28012.12
517.99	28077.65
518.19	28190.29
518.39	28251.73
518.60	28446.29
518.80	28300.88
519.01	28472.91
519.21	28702.28
519.41	28868.17
519.62	28325.46
519.82	28581.45
520.03	29042.24
520.23	28806.73
520.43	28776.01
520.64	29175.36
520.84	29306.43
521.05	29158.98
521.25	28958.28
521.45	29288.00
521.66	29574.72
521.86	29546.05
522.07	29457.98
522.27	29734.46
522.47	29756.99
522.68	29640.25
522.88	29902.39
523.08	29838.90
523.29	29935.16
523.49	29892.15
523.70	30068.28
523.90	30424.62
524.10	30225.97
524.31	30633.52
524.51	30277.17
524.71	30948.90
524.92	30670.38
525.12	30914.09
525.33	30733.87
525.53	31149.60
525.73	31338.02
525.94	31110.69
526.14	30826.03
526.34	31374.88
526.55	31094.31
526.75	31362.59
526.95	31804.95
527.16	31569.44
527.36	31583.77
527.56	31938.07
527.77	32046.62
527.97	31835.67
528.17	32042.52
528.38	31901.21
528.58	32390.67
528.78	32136.73
528.99	31919.64
529.19	32671.25
529.39	31979.03
529.60	32374.29
529.80	32609.81
530.00	32519.70
530.21	32681.49
530.41	33216.01
530.61	32935.43
530.82	33084.94
531.02	32908.81
531.22	32908.81
531.43	33306.12
531.63	33584.64
531.83	33676.80
532.04	33750.52
532.24	33203.72
532.44	34180.60
532.64	34395.64
532.85	34076.15
533.05	33932.79
533.25	34450.93
533.46	33981.95
533.66	34412.02
533.86	34031.10
534.07	34711.02
534.27	34584.05
534.47	34641.39
534.67	34504.18
534.88	34649.58
535.08	34868.72
535.28	34827.76
535.49	34907.63
535.69	35266.02
535.89	35378.66
536.09	35362.28
536.30	35823.07
536.50	35487.20
536.70	35782.11
536.91	35444.20
537.11	35487.20
537.31	36025.82
537.51	35638.75
537.72	36201.94
537.92	36308.44
538.12	36916.68
538.32	36152.79
538.53	36621.78
538.73	36201.94
538.93	36689.36
539.13	36574.67
539.34	36730.32
539.54	36277.72
539.74	36949.45
539.94	36648.40
540.15	36865.49
540.35	36832.72
540.55	36920.78
540.75	37154.25
540.96	37262.79
541.16	37197.26
541.36	37547.46
541.56	37352.90
541.77	37526.98
541.97	37727.68
542.17	37619.14
542.37	37316.04
542.58	37787.07
542.78	37782.98
542.98	37719.49
543.18	37891.52
543.38	38512.05
543.59	38184.38
543.79	37987.77
543.99	38043.07
544.19	38129.08
544.40	37991.87
544.60	38755.76
544.80	38503.86
545.00	38423.99
545.20	38542.77
545.41	38475.19
545.61	38417.85
545.81	39011.76
546.01	38833.58
546.21	38356.41
546.42	38774.19
546.62	38841.78
546.82	38753.71
547.02	38751.66
547.22	39259.56
547.43	39022.00
547.63	39323.05
547.83	39228.84
548.03	38673.84
548.23	39280.04
548.44	39263.66
548.64	39572.90
548.84	39380.39
549.04	39470.50
549.24	39728.55
549.45	39851.42
549.65	39572.90
549.85	39658.91
550.05	40109.47
550.25	39730.59
550.45	40064.41
550.66	39972.25
550.86	39808.42
551.06	40220.06
551.26	39865.76
551.46	40193.43
551.66	40439.19
551.87	40009.12
552.07	40162.72
552.27	40052.12
552.47	40566.16
552.67	40418.71
552.87	40050.08
553.07	40523.16
553.28	40175.00
553.48	40809.87
553.68	40113.56
553.88	40508.82
554.08	40639.89
554.28	40664.47
554.48	40822.16
554.69	40656.28
554.89	40832.40
555.09	41014.67
555.29	40879.50
555.49	40723.86
555.69	40773.01
555.89	40777.11
556.10	41332.11
556.30	41059.73
556.50	41217.42
556.70	41078.16
556.90	41178.51
557.10	41448.84
557.30	41215.37
557.50	41629.06
557.70	41674.12
557.91	41430.41
558.11	41399.69
558.31	41440.65
558.51	41670.02
558.71	41684.36
558.91	41883.01
559.11	41541.00
559.31	41106.83
559.51	41416.07
559.72	41749.89
559.92	41885.06
560.12	41661.83
560.32	41944.45
560.52	41868.67
560.72	41946.50
560.92	41897.34
561.12	41829.76
561.32	42571.13
561.52	41672.07
561.72	42640.76
561.93	42009.98
562.13	42063.23
562.33	41989.50
562.53	42782.07
562.73	42057.09
562.93	42005.89
563.13	42552.69
563.33	42591.61
563.53	42911.09
563.73	42249.60
563.93	42464.63
564.13	43244.91
564.33	42720.63
564.53	42730.87
564.74	43105.65
564.94	42542.45
565.14	42595.70
565.34	42794.36
565.54	43343.21
565.74	43087.21
565.94	43140.46
566.14	42753.40
566.34	42706.29
566.54	43439.47
566.74	43167.09
566.94	43144.56
567.14	43421.03
567.34	42958.19
567.54	43523.43
567.74	43312.49
567.94	42896.75
568.14	43431.27
568.34	43781.48
568.54	43335.02
568.74	43689.32
568.94	43451.75
569.14	44150.11
569.34	43906.40
569.54	43943.27
569.75	43699.56
569.95	43386.22
570.15	44068.19
570.35	44055.90
570.55	44098.91
570.75	43865.44
570.95	44049.76
571.15	44250.46
571.35	44195.17
571.55	44209.50
571.75	44246.36
571.95	44313.95
572.15	43859.30
572.35	44084.58
572.55	44516.70
572.75	44567.90
572.95	44582.23
573.15	44897.62
573.35	44713.30
573.55	44483.93
573.75	44731.73
573.95	44971.35
574.15	44586.33
574.35	44729.69
574.55	44868.95
574.75	44877.14
574.95	45475.15
575.15	44868.95
575.34	45122.90
575.54	45393.23
575.74	45493.58
575.94	45489.48
576.14	45356.36
576.34	45897.03
576.54	45546.82
576.74	45960.51
576.94	45671.75
577.14	45405.52
577.34	45356.36
577.54	45466.95
577.74	45598.02
577.94	45868.36
578.14	46341.44
578.34	46011.71
578.54	45704.52
578.74	45974.85
578.94	46323.01
579.14	45780.29
579.34	46189.89
579.54	46005.57
579.74	46791.99
579.94	46708.02
580.13	46699.83
580.33	46560.57
580.53	46503.23
580.73	47097.14
580.93	46982.45
581.13	46654.78
581.33	47197.49
581.53	47117.62
581.73	47416.62
581.93	46935.35
582.13	47072.56
582.33	47342.89
582.53	47543.59
582.73	47277.36
582.92	47111.47
583.12	47785.25
583.32	48057.63
583.52	47588.65
583.72	47846.69
583.92	47785.25
584.12	47516.97
584.32	48133.41
584.52	47760.68
584.72	47985.96
584.92	48010.53
585.11	48289.06
585.31	48174.37
585.51	48098.59
585.71	48235.81
585.91	48471.32
586.11	47969.57
586.31	48096.55
586.51	48528.67
586.71	48387.36
586.91	48616.73
587.10	48964.88
587.30	48842.01
587.50	48717.08
587.70	48858.39
587.90	48966.93
588.10	48823.58
588.30	49284.37
588.50	49118.48
