SpectraSuite Data File
++++++++++++++++++++++++++++++++++++
Date: Fri Jun 02 14:49:28 CEST 2017
User: INFO_000
Dark Spectrum Present: No
Reference Spectrum Present: No
Number of Sampled Component Spectra: 1
Spectrometers: USB4H00879
Integration Time (usec): 80000 (USB4H00879)
Spectra Averaged: 1 (USB4H00879)
Boxcar Smoothing: 0 (USB4H00879)
Correct for Electrical Dark: No (USB4H00879)
Strobe/Lamp Enabled: No (USB4H00879)
Correct for Detector Non-linearity: No (USB4H00879)
Correct for Stray Light: No (USB4H00879)
Number of Pixels in Processed Spectrum: 3648
>>>>>Begin Processed Spectral Data<<<<<
345.13	1267.69
345.34	1267.69
345.56	1267.69
345.78	1265.64
345.99	1279.98
346.21	1728.49
346.42	1724.39
346.64	1656.81
346.86	1798.12
347.07	1630.18
347.29	1679.33
347.50	1605.61
347.72	1722.34
347.94	1691.62
348.15	1617.90
348.37	1624.04
348.59	1710.05
348.80	1701.86
349.02	1726.44
349.23	1892.32
349.45	1812.45
349.67	1892.32
349.88	1753.06
350.10	1974.24
350.31	1804.26
350.53	1730.53
350.75	2021.35
350.96	1771.49
351.18	1877.99
351.39	1841.12
351.61	1796.07
351.82	1847.27
352.04	1859.56
352.26	1804.26
352.47	1898.47
352.69	1896.42
352.90	1785.83
353.12	1820.64
353.34	1820.64
353.55	1884.13
353.77	1871.84
353.98	1781.73
354.20	1804.26
354.41	1882.08
354.63	1939.43
354.85	2093.02
355.06	1906.66
355.28	1789.92
355.49	1923.04
355.71	1920.99
355.92	1880.04
356.14	1974.24
356.35	1841.12
356.57	1828.84
356.79	1931.23
357.00	1894.37
357.22	1994.72
357.43	1865.70
357.65	1927.14
357.86	1818.60
358.08	1888.23
358.29	1896.42
358.51	2031.58
358.72	1968.10
358.94	1949.67
359.16	1904.61
359.37	1978.34
359.59	2017.25
359.80	1994.72
360.02	1937.38
360.23	1886.18
360.45	1937.38
360.66	1933.28
360.88	1834.98
361.09	1964.00
361.31	1978.34
361.52	1996.77
361.74	2025.44
361.95	2033.63
362.17	1900.52
362.38	2133.98
362.60	2097.12
362.81	1947.62
363.03	1953.76
363.24	2031.58
363.46	2148.32
363.67	1906.66
363.89	1986.53
364.10	1970.15
364.32	2021.35
364.53	2039.78
364.75	1818.60
364.96	2076.64
365.18	2080.74
365.39	1968.10
365.61	2009.06
365.82	2107.36
366.04	1998.82
366.25	1923.04
366.47	2021.35
366.68	2000.87
366.90	1986.53
367.11	2129.89
367.33	2127.84
367.54	2047.97
367.76	1923.04
367.97	2037.73
368.19	1986.53
368.40	2013.15
368.62	1990.63
368.83	1968.10
369.05	2068.45
369.26	1925.09
369.48	2029.54
369.69	2033.63
369.91	1992.67
370.12	2080.74
370.33	2119.65
370.55	1978.34
370.76	1998.82
370.98	2127.84
371.19	2099.17
371.41	2029.54
371.62	2082.78
371.84	2009.06
372.05	2222.05
372.27	2039.78
372.48	2086.88
372.69	2119.65
372.91	2035.68
373.12	2170.85
373.34	2099.17
373.55	2230.24
373.77	2127.84
373.98	2080.74
374.20	2179.04
374.41	2234.33
374.62	2090.98
374.84	2156.51
375.05	2181.09
375.27	2168.80
375.48	2205.66
375.70	2199.52
375.91	2203.61
376.12	2269.15
376.34	2181.09
376.55	2211.81
376.77	2240.48
376.98	2076.64
377.19	2201.57
377.41	2123.74
377.62	2199.52
377.84	2338.78
378.05	2310.11
378.27	2170.85
378.48	2340.83
378.69	2357.21
378.91	2275.29
379.12	2183.13
379.34	2211.81
379.55	2236.38
379.76	2207.71
379.98	2166.75
380.19	2248.67
380.41	2260.96
380.62	2277.34
380.83	2265.05
381.05	2238.43
381.26	2394.08
381.47	2314.20
381.69	2250.72
381.90	2385.88
382.12	2371.55
382.33	2287.58
382.54	2248.67
382.76	2283.49
382.97	2330.59
383.19	2281.44
383.40	2342.88
383.61	2357.21
383.83	2197.47
384.04	2418.65
384.25	2367.45
384.47	2469.85
384.68	2414.56
384.89	2336.73
385.11	2334.68
385.32	2344.92
385.54	2330.59
385.75	2293.72
385.96	2396.12
386.18	2420.70
386.39	2361.31
386.60	2416.60
386.82	2430.94
387.03	2412.51
387.24	2387.93
387.46	2471.90
387.67	2451.42
387.88	2514.91
388.10	2412.51
388.31	2478.04
388.52	2578.39
388.74	2492.38
388.95	2482.14
389.16	2437.08
389.38	2557.91
389.59	2516.95
389.80	2508.76
390.02	2494.43
390.23	2596.82
390.44	2578.39
390.66	2600.92
390.87	2490.33
391.08	2533.34
391.30	2652.12
391.51	2559.96
391.72	2746.33
391.94	2652.12
392.15	2629.59
392.36	2580.44
392.58	2553.82
392.79	2615.26
393.00	2775.00
393.22	2670.55
393.43	2750.42
393.64	2764.76
393.85	2805.72
394.07	2633.69
394.28	2650.07
394.49	2734.04
394.71	2904.02
394.92	2787.29
395.13	2576.34
395.35	2746.33
395.56	2752.47
395.77	2813.91
395.98	2793.43
396.20	2795.48
396.41	2818.00
396.62	2856.92
396.84	2854.87
397.05	2865.11
397.26	2830.29
397.47	2897.88
397.69	2828.24
397.90	3114.96
398.11	2975.70
398.32	2830.29
398.54	2772.95
398.75	2879.44
398.96	2879.44
399.18	2981.84
399.39	2967.51
399.60	3022.80
399.81	2867.16
400.03	2936.79
400.24	3237.84
400.45	2994.13
400.66	3080.14
400.88	3028.95
401.09	3088.34
401.30	3065.81
401.51	3141.58
401.73	3047.38
401.94	3088.34
402.15	3217.36
402.36	3106.77
402.58	3190.74
402.79	3147.73
403.00	3078.10
403.21	3129.30
403.43	3248.08
403.64	3248.08
403.85	3112.91
404.06	3338.19
404.27	3098.58
404.49	3151.82
404.70	3137.49
404.91	3286.99
405.12	3207.12
405.34	3268.56
405.55	3504.07
405.76	3166.16
405.97	3258.32
406.19	3317.71
406.40	3291.09
406.61	3268.56
406.82	3383.24
407.03	3387.34
407.25	3334.09
407.46	3467.21
407.67	3321.81
407.88	3393.48
408.09	3430.35
408.31	3338.19
408.52	3422.16
408.73	3325.90
408.94	3213.26
409.15	3334.09
409.37	3397.58
409.58	3532.75
409.79	3407.82
410.00	3530.70
410.21	3368.91
410.43	3426.25
410.64	3385.29
410.85	3510.22
411.06	3526.60
411.27	3557.32
411.48	3694.54
411.70	3352.52
411.91	3655.62
412.12	3719.11
412.33	3602.38
412.54	3592.14
412.76	3622.86
412.97	3751.88
413.18	3493.83
413.39	3518.41
413.60	3631.05
413.81	3653.58
414.03	3551.18
414.24	3592.14
414.45	3778.50
414.66	3493.83
414.87	3717.06
415.08	3715.02
415.30	3737.54
415.51	3764.17
415.72	3672.01
415.93	3737.54
416.14	3815.37
416.35	3659.72
416.56	3819.46
416.78	3835.85
416.99	3852.23
417.20	3786.69
417.41	3837.89
417.62	3889.09
417.83	3837.89
418.04	3794.89
418.26	3876.80
418.47	3835.85
418.68	4048.83
418.89	3934.15
419.10	4132.80
419.31	4030.40
419.52	3956.68
419.73	3872.71
419.95	4032.45
420.16	3801.03
420.37	3887.04
420.58	4044.74
420.79	3860.42
421.00	3958.72
421.21	4093.89
421.42	3954.63
421.63	3985.35
421.85	4081.60
422.06	4067.27
422.27	4132.80
422.48	4118.47
422.69	4167.62
422.90	4192.19
423.11	4153.28
423.32	4227.01
423.53	4376.51
423.75	4317.12
423.96	4519.87
424.17	4353.98
424.38	4444.09
424.59	4181.95
424.80	4556.73
425.01	4431.80
425.22	4386.75
425.43	4419.52
425.64	4483.00
425.85	4599.74
426.06	4515.77
426.28	4526.01
426.49	4517.82
426.70	4509.63
426.91	4554.68
427.12	4595.64
427.33	4644.79
427.54	4591.55
427.75	4640.70
427.96	4695.99
428.17	4638.65
428.38	4749.24
428.59	4894.65
428.80	4833.21
429.01	4771.77
429.23	4843.45
429.44	4913.08
429.65	4949.94
429.86	4851.64
430.07	4771.77
430.28	4822.97
430.49	5011.38
430.70	5111.73
430.91	5093.30
431.12	4814.77
431.33	5085.11
431.54	5115.83
431.75	5117.87
431.96	5232.56
432.17	5076.91
432.38	5097.39
432.59	5341.10
432.80	5314.48
433.01	5398.45
433.22	5234.61
433.43	5169.07
433.64	5107.63
433.85	5238.70
434.06	5412.78
434.27	5140.40
434.49	5271.47
434.70	5472.17
434.91	5412.78
435.12	5590.95
435.33	5484.46
435.54	5468.08
435.75	5351.34
435.96	5445.55
436.17	5390.25
436.38	5658.54
436.59	5562.28
436.80	5484.46
437.01	5844.90
437.22	5842.85
437.43	5771.18
437.64	5494.70
437.85	5656.49
438.06	5801.90
438.27	5611.43
438.48	5695.40
438.69	5767.08
438.90	5826.47
439.11	5662.63
439.32	5754.79
439.53	5787.56
439.74	5877.67
439.95	5924.77
440.16	5949.35
440.37	5961.64
440.57	5930.92
440.78	6104.99
440.99	5973.92
441.20	5826.47
441.41	5951.40
441.62	6068.13
441.83	5853.09
442.04	6166.43
442.25	6016.93
442.46	6119.33
442.67	6219.68
442.88	6418.33
443.09	6082.47
443.30	6102.95
443.51	6104.99
443.72	6432.67
443.93	6215.59
444.14	6422.43
444.35	6117.28
444.56	6244.26
444.77	6207.39
444.98	6395.81
445.19	6342.56
445.40	6490.01
445.61	6346.66
445.81	6498.20
446.02	6471.58
446.23	6449.05
446.44	6342.56
446.65	6627.23
446.86	6539.16
447.07	6565.79
447.28	6639.51
447.49	6557.60
447.70	6330.27
447.91	6553.50
448.12	6565.79
448.33	6735.77
448.54	6834.07
448.74	6758.30
448.95	6715.29
449.16	6797.21
449.37	7131.03
449.58	6838.17
449.79	7053.20
450.00	6729.63
450.21	6840.22
450.42	6991.77
450.63	6848.41
450.84	7012.24
451.05	7092.12
451.25	6930.33
451.46	7022.48
451.67	7151.51
451.88	7061.40
452.09	7204.75
452.30	7083.92
452.51	7149.46
452.72	7374.74
452.93	7333.78
453.13	7112.60
453.34	7221.14
453.55	7380.88
453.76	7448.46
453.97	7528.33
454.18	7309.20
454.39	7477.13
454.60	7350.16
454.81	7372.69
455.01	7581.58
455.22	7380.88
455.43	7565.20
455.64	7622.54
455.85	7806.86
456.06	7772.04
456.27	7720.84
456.48	7640.97
456.68	7745.42
456.89	7841.67
457.10	7948.17
457.31	7794.57
457.52	7800.71
457.73	7860.10
457.94	8109.96
458.14	7784.33
458.35	8355.71
458.56	8030.09
458.77	8093.57
458.98	8238.98
459.19	8167.30
459.39	8445.82
459.60	8411.01
459.81	8200.07
460.02	8351.62
460.23	8284.03
460.44	8597.37
460.65	8619.90
460.85	8607.61
461.06	8742.78
461.27	8427.39
461.48	8605.56
461.69	8793.98
461.89	8617.85
462.10	8802.17
462.31	8656.76
462.52	8726.39
462.73	8810.36
462.94	9045.88
463.14	9097.08
463.35	8939.38
463.56	9281.39
463.77	9217.91
463.98	8974.20
464.18	9158.52
464.39	9213.81
464.60	9510.77
464.81	9404.27
465.02	9355.12
465.23	9650.03
465.43	9312.11
465.64	9672.56
465.85	9488.24
466.06	9635.69
466.27	9963.37
466.47	9815.91
466.68	9928.55
466.89	9723.76
467.10	9971.56
467.30	9883.50
467.51	10073.96
467.72	10186.60
467.93	9867.11
468.14	10110.82
468.34	10569.57
468.55	10456.93
468.76	10338.15
468.97	10104.68
469.17	10516.32
469.38	10370.91
469.59	10782.56
469.80	10590.05
470.01	10768.22
470.21	10688.35
470.42	10970.97
470.63	10991.45
470.84	10985.30
471.04	11229.01
471.25	10934.11
471.46	11249.49
471.67	11480.91
471.87	11491.15
472.08	11446.10
472.29	11761.48
472.50	11398.99
472.70	11554.64
472.91	11624.27
473.12	11761.48
473.33	11937.61
473.53	12048.20
473.74	11800.40
473.95	12400.45
474.16	12447.55
474.36	12242.76
474.57	12353.35
474.78	12699.45
474.99	12357.44
475.19	12511.04
475.40	12865.34
475.61	12781.37
475.81	12904.25
476.02	13322.04
476.23	13078.33
476.44	13332.28
476.64	13518.64
476.85	13614.90
477.06	13274.93
477.27	13715.25
477.47	13551.41
477.68	13694.77
477.89	13791.02
478.09	13895.47
478.30	14049.07
478.51	13971.24
478.71	14014.25
478.92	14333.73
479.13	14165.80
479.34	14329.64
479.54	14614.30
479.75	14688.03
479.96	14632.74
480.16	14696.22
480.37	15009.56
480.58	14954.27
480.78	15386.39
480.99	15116.06
481.20	15410.96
481.41	15582.99
481.61	15609.62
481.82	15677.20
482.03	15478.55
482.23	15730.45
482.44	15912.72
482.65	16099.08
482.85	16174.86
483.06	16115.47
483.27	16117.51
483.47	16203.53
483.68	16193.29
483.89	16480.00
484.09	16477.96
484.30	16537.35
484.51	16774.91
484.71	17012.48
484.92	16967.42
485.13	16940.80
485.33	16889.60
485.54	17082.11
485.75	17260.28
485.95	17147.64
486.16	17649.39
486.37	17846.00
486.57	17368.82
486.78	17776.37
486.98	17932.01
487.19	17985.26
487.40	17917.68
487.60	18177.77
487.81	18161.39
488.02	18120.43
488.22	18294.50
488.43	18394.86
488.64	18689.76
488.84	18644.71
489.05	18685.67
489.25	18722.53
489.46	18831.07
489.67	18915.04
489.87	19267.29
490.08	19173.08
490.29	19029.73
490.49	19691.22
490.70	19476.18
490.90	19439.32
491.11	19347.16
491.32	19730.13
491.52	19644.12
491.73	19746.51
491.94	19953.36
492.14	19738.32
492.35	20035.28
492.55	19988.18
492.76	20395.72
492.97	20123.34
493.17	20299.47
493.38	20393.67
493.58	20696.77
493.79	20473.54
494.00	20774.60
494.20	20633.29
494.41	20516.55
494.61	21030.59
494.82	20711.11
495.02	20782.79
495.23	21132.99
495.44	21204.67
495.64	21456.57
495.85	21472.95
496.05	21665.46
496.26	21374.65
496.47	21624.50
496.67	21558.97
496.88	21522.10
497.08	21505.72
497.29	21915.31
497.49	21898.93
497.70	22240.94
497.91	22345.39
498.11	21894.83
498.32	22617.77
498.52	22478.50
498.73	22824.61
498.93	22324.91
499.14	22578.86
499.34	22564.52
499.55	22668.97
499.76	22705.83
499.96	22814.37
500.17	22810.28
500.37	23033.50
500.58	22998.69
500.78	23115.42
500.99	23066.27
501.19	23322.27
501.40	23203.49
501.60	23371.42
501.81	23121.57
502.02	23504.54
502.22	23305.88
502.43	23662.23
502.63	23463.58
502.84	23871.12
503.04	23758.49
503.25	23928.47
503.45	23629.46
503.66	24006.29
503.86	24057.49
504.07	24323.72
504.27	24020.63
504.48	24350.35
504.68	24178.32
504.89	24604.30
505.09	24602.25
505.30	24419.98
505.50	24469.13
505.71	24637.06
505.91	24528.52
506.12	24858.24
506.32	24637.06
506.53	24989.31
506.73	24735.37
506.94	25112.19
507.14	25167.49
507.35	24954.50
507.55	25126.53
507.76	25022.08
507.96	25124.48
508.17	25400.96
508.37	25398.91
508.58	25398.91
508.78	25312.89
508.99	25869.94
509.19	25329.28
509.40	25579.13
509.60	25468.54
509.81	25781.88
510.01	25775.73
510.22	25925.24
510.42	25992.82
510.63	26271.34
510.83	25970.29
511.04	25884.28
511.24	25964.15
511.44	26160.75
511.65	26400.37
511.85	26140.27
512.06	26199.66
512.26	26508.91
512.47	26343.02
512.67	26416.75
512.88	26771.05
513.08	26594.92
513.29	26672.74
513.49	26861.16
513.69	26639.98
513.90	26863.21
514.10	26744.42
514.31	26859.11
514.51	27559.52
514.72	27252.32
514.92	27248.22
515.13	27172.45
515.33	27393.63
515.53	27348.57
515.74	27600.47
515.94	27301.47
516.15	27385.44
516.35	27364.96
516.56	27733.59
516.76	27475.55
516.96	27792.98
517.17	27831.90
517.37	28026.45
517.58	28130.90
517.78	28038.74
517.99	27778.65
518.19	28249.68
518.39	28272.21
518.60	28034.64
518.80	28419.66
519.01	28442.19
519.21	28634.70
519.41	28575.31
519.62	28526.16
519.82	28491.34
520.03	28989.00
520.23	29081.16
520.43	28665.42
520.64	29089.35
520.84	29130.31
521.05	29038.15
521.25	29189.70
521.45	29374.02
521.66	29640.25
521.86	29515.33
522.07	29740.60
522.27	29300.29
522.47	29496.89
522.68	30158.39
522.88	29556.28
523.08	30084.66
523.29	29894.20
523.49	30152.24
523.70	30137.91
523.90	30414.38
524.10	30305.84
524.31	30551.60
524.51	30142.00
524.71	30815.79
524.92	30699.05
525.12	31131.17
525.33	30832.17
525.53	30928.42
525.73	31039.01
525.94	31176.23
526.14	31290.91
526.34	31008.29
526.55	31290.91
526.75	31221.28
526.95	31661.60
527.16	31403.55
527.36	31585.82
527.56	32091.67
527.77	32097.81
527.97	31858.20
528.17	32071.19
528.38	32230.93
528.58	32265.75
528.78	32294.42
528.99	32499.22
529.19	32646.67
529.39	32374.29
529.60	32751.12
529.80	32919.05
530.00	32867.85
530.21	33121.80
530.41	33398.27
530.61	33177.09
530.82	32855.56
531.02	32970.25
531.22	33453.57
531.43	33521.15
531.63	33545.73
531.83	33887.74
532.04	34178.55
532.24	33404.42
532.44	34256.37
532.64	34559.47
532.85	34182.65
533.05	34409.97
533.25	34254.33
533.46	34465.27
533.66	34586.10
533.86	34444.79
534.07	34801.13
534.27	34674.16
534.47	34858.48
534.67	34987.50
534.88	34921.96
535.08	35218.92
535.28	35214.82
535.49	35470.82
535.69	35706.34
535.89	35558.88
536.09	35454.44
536.30	35673.57
536.50	35857.88
536.70	35970.52
536.91	35794.40
537.11	36199.90
537.31	36136.41
537.51	36339.16
537.72	36386.26
537.92	36574.67
538.12	37098.95
538.32	36265.43
538.53	36828.62
538.73	36789.71
538.93	36611.54
539.13	36656.59
539.34	36885.97
539.54	36855.25
539.74	37086.67
539.94	36943.31
540.15	37197.26
540.35	37537.22
540.55	37295.56
540.75	37123.53
540.96	37397.96
541.16	37508.55
541.36	37363.14
541.56	38127.03
541.77	37836.22
541.97	37555.65
542.17	37715.39
542.37	37719.49
542.58	37979.58
542.78	38041.02
542.98	38106.55
543.18	38016.44
543.38	38374.84
543.59	38614.45
543.79	38147.51
543.99	38165.95
544.19	38804.91
544.40	38507.96
544.60	39093.68
544.80	38974.89
545.00	39022.00
545.20	39251.37
545.41	38909.36
545.61	39036.33
545.81	39273.90
546.01	39275.94
546.21	39151.02
546.42	38815.15
546.62	39239.08
546.82	39028.14
547.02	39007.66
547.22	39540.13
547.43	39218.60
547.63	39617.96
547.83	40009.12
548.03	39110.06
548.23	39841.18
548.44	39472.55
548.64	39837.09
548.84	39617.96
549.04	39884.19
549.24	40039.84
549.45	40230.30
549.65	39687.59
549.85	39859.62
550.05	40607.12
550.25	40132.00
550.45	40398.23
550.66	40132.00
550.86	40140.19
551.06	40539.54
551.26	40136.09
551.46	40361.37
551.66	40299.93
551.87	40154.52
552.07	40512.92
552.27	40594.84
552.47	40631.70
552.67	40748.43
552.87	40324.50
553.07	40748.43
553.28	40766.87
553.48	41133.45
553.68	40523.16
553.88	41264.52
554.08	41174.41
554.28	40854.93
554.48	41176.46
554.69	41522.57
554.89	41278.86
555.09	41131.40
555.29	41186.70
555.49	41323.91
555.69	41448.84
555.89	41749.89
556.10	41713.03
556.30	41309.58
556.50	41268.62
556.70	41379.21
556.90	41723.27
557.10	41792.90
557.30	41495.94
557.50	41983.36
557.70	41579.91
557.91	42358.14
558.11	41586.05
558.31	41934.21
558.51	41692.55
558.71	41997.70
558.91	41842.05
559.11	41796.99
559.31	41936.26
559.51	41870.72
559.72	42024.32
559.92	41758.08
560.12	42202.49
560.32	41995.65
560.52	41985.41
560.72	42360.19
560.92	42351.99
561.12	42395.00
561.32	42702.20
561.52	41854.34
561.72	42521.98
561.93	42139.00
562.13	42114.43
562.33	42306.94
562.53	42759.54
562.73	42280.31
562.93	42732.92
563.13	42548.60
563.33	42476.92
563.53	42929.52
563.73	42415.48
563.93	42773.88
564.13	43631.97
564.33	42669.43
564.53	42974.58
564.74	42997.10
564.94	42726.77
565.14	43091.31
565.34	42351.99
565.54	43384.17
565.74	43101.55
565.94	43289.96
566.14	43054.45
566.34	42923.38
566.54	43466.09
566.74	43367.79
566.94	43677.03
567.14	43599.21
567.34	43642.21
567.54	43480.42
567.74	43728.23
567.94	43255.15
568.14	43668.84
568.34	43793.76
568.54	43634.02
568.74	43615.59
568.94	43670.89
569.14	43969.89
569.34	43392.36
569.54	43644.26
569.75	43609.45
569.95	44283.23
570.15	44215.65
570.35	44244.32
570.55	43873.63
570.75	44021.09
570.95	44225.89
571.15	43971.94
571.35	44008.80
571.55	44549.46
571.75	44133.73
571.95	44688.73
572.15	44342.62
572.35	44576.09
572.55	44494.17
572.75	44612.95
572.95	44893.52
573.15	44395.87
573.35	44959.06
573.55	44752.21
573.75	44647.77
573.95	45286.73
574.15	44772.69
574.35	44940.63
574.55	44983.63
574.75	44758.36
574.95	45018.45
575.15	45120.85
575.34	45124.94
575.54	45378.89
575.74	45108.56
575.94	45268.30
576.14	45327.69
576.34	45847.88
576.54	45978.95
576.74	45776.20
576.94	45284.68
577.14	45581.64
577.34	45679.94
577.54	45233.49
577.74	45964.61
577.94	46144.83
578.14	45847.88
578.34	46435.64
578.54	45653.32
578.74	46007.62
578.94	46783.80
579.14	45921.60
579.34	45987.14
579.54	45956.42
579.74	46521.66
579.94	46501.18
580.13	46535.99
580.33	46337.34
580.53	46771.51
580.73	46597.43
580.93	46832.95
581.13	46683.45
581.33	47363.37
581.53	47037.75
581.73	47072.56
581.93	47062.32
582.13	47056.18
582.33	46941.49
582.53	46816.57
582.73	47164.72
582.92	47744.30
583.12	47447.34
583.32	47926.56
583.52	47207.73
583.72	47705.38
583.92	47723.82
584.12	47828.26
584.32	48000.29
584.52	47928.61
584.72	48188.70
584.92	48078.11
585.11	48635.16
585.31	47961.38
585.51	48561.44
585.71	47805.73
585.91	48487.71
586.11	47684.90
586.31	48098.59
586.51	48610.59
586.71	48413.98
586.91	48358.69
587.10	48964.88
587.30	48788.76
587.50	48895.25
587.70	48973.08
587.90	48710.94
588.10	48575.77
588.30	48887.06
588.50	48948.50
588.69	49155.35
