SpectraSuite Data File
++++++++++++++++++++++++++++++++++++
Date: Fri Jun 02 14:49:27 CEST 2017
User: INFO_000
Dark Spectrum Present: No
Reference Spectrum Present: No
Number of Sampled Component Spectra: 1
Spectrometers: USB4H00879
Integration Time (usec): 80000 (USB4H00879)
Spectra Averaged: 1 (USB4H00879)
Boxcar Smoothing: 0 (USB4H00879)
Correct for Electrical Dark: No (USB4H00879)
Strobe/Lamp Enabled: No (USB4H00879)
Correct for Detector Non-linearity: No (USB4H00879)
Correct for Stray Light: No (USB4H00879)
Number of Pixels in Processed Spectrum: 3648
>>>>>Begin Processed Spectral Data<<<<<
345.13	1314.80
345.34	1314.80
345.56	1314.80
345.78	1298.41
345.99	1228.78
346.21	1777.64
346.42	1714.15
346.64	1648.61
346.86	1761.25
347.07	1691.62
347.29	1660.90
347.50	1583.08
347.72	1734.63
347.94	1748.97
348.15	1566.70
348.37	1634.28
348.59	1716.20
348.80	1658.85
349.02	1773.54
349.23	1818.60
349.45	1832.93
349.67	1916.90
349.88	1794.02
350.10	1984.48
350.31	1843.17
350.53	1773.54
350.75	1966.05
350.96	1771.49
351.18	1871.84
351.39	1941.47
351.61	1810.40
351.82	1908.71
352.04	1859.56
352.26	1804.26
352.47	1832.93
352.69	1900.52
352.90	1822.69
353.12	1873.89
353.34	1851.36
353.55	1945.57
353.77	1916.90
353.98	1822.69
354.20	1796.07
354.41	1826.79
354.63	1910.75
354.85	2023.39
355.06	1904.61
355.28	1755.11
355.49	1900.52
355.71	1959.91
355.92	1867.75
356.14	1906.66
356.35	1904.61
356.57	1888.23
356.79	1912.80
357.00	1808.36
357.22	2062.30
357.43	1869.80
357.65	2019.30
357.86	1925.09
358.08	1961.95
358.29	1904.61
358.51	2002.91
358.72	1902.56
358.94	1929.19
359.16	1923.04
359.37	1951.71
359.59	1828.84
359.80	2002.91
360.02	1843.17
360.23	1984.48
360.45	2064.35
360.66	1918.95
360.88	1900.52
361.09	1992.67
361.31	1994.72
361.52	1974.24
361.74	2066.40
361.95	1974.24
362.17	1953.76
362.38	2090.98
362.60	2066.40
362.81	1974.24
363.03	1920.99
363.24	2009.06
363.46	2138.08
363.67	1992.67
363.89	1974.24
364.10	1984.48
364.32	1953.76
364.53	2023.39
364.75	1886.18
364.96	2000.87
365.18	2007.01
365.39	2011.11
365.61	1961.95
365.82	2140.13
366.04	1959.91
366.25	1976.29
366.47	2011.11
366.68	2017.25
366.90	1945.57
367.11	2088.93
367.33	2086.88
367.54	2068.45
367.76	2007.01
367.97	2121.70
368.19	2056.16
368.40	2086.88
368.62	1861.60
368.83	1947.62
369.05	2027.49
369.26	1951.71
369.48	2039.78
369.69	2031.58
369.91	2047.97
370.12	2039.78
370.33	2101.22
370.55	1910.75
370.76	2056.16
370.98	2125.79
371.19	2037.73
371.41	2052.06
371.62	2101.22
371.84	2009.06
372.05	2217.95
372.27	1996.77
372.48	2103.26
372.69	2058.21
372.91	2119.65
373.12	2099.17
373.34	1992.67
373.55	2125.79
373.77	2174.94
373.98	2107.36
374.20	2105.31
374.41	2242.53
374.62	2105.31
374.84	2084.83
375.05	2238.43
375.27	2207.71
375.48	2121.70
375.70	2197.47
375.91	2170.85
376.12	2256.86
376.34	2195.42
376.55	2160.61
376.77	2179.04
376.98	2095.07
377.19	2230.24
377.41	2131.94
377.62	2269.15
377.84	2310.11
378.05	2289.63
378.27	2220.00
378.48	2260.96
378.69	2363.36
378.91	2258.91
379.12	2269.15
379.34	2316.25
379.55	2256.86
379.76	2398.17
379.98	2146.27
380.19	2127.84
380.41	2258.91
380.62	2240.48
380.83	2189.28
381.05	2086.88
381.26	2502.62
381.47	2215.90
381.69	2256.86
381.90	2336.73
382.12	2367.45
382.33	2342.88
382.54	2297.82
382.76	2312.16
382.97	2324.44
383.19	2205.66
383.40	2369.50
383.61	2263.01
383.83	2312.16
384.04	2363.36
384.25	2340.83
384.47	2387.93
384.68	2346.97
384.89	2289.63
385.11	2385.88
385.32	2318.30
385.54	2299.87
385.75	2324.44
385.96	2437.08
386.18	2381.79
386.39	2422.75
386.60	2359.26
386.82	2369.50
387.03	2385.88
387.24	2492.38
387.46	2373.60
387.67	2426.84
387.88	2469.85
388.10	2488.28
388.31	2424.80
388.52	2617.30
388.74	2449.37
388.95	2453.47
389.16	2664.41
389.38	2500.57
389.59	2521.05
389.80	2621.40
390.02	2539.48
390.23	2596.82
390.44	2621.40
390.66	2467.80
390.87	2445.27
391.08	2668.50
391.30	2727.89
391.51	2590.68
391.72	2617.30
391.94	2670.55
392.15	2621.40
392.36	2492.38
392.58	2557.91
392.79	2641.88
393.00	2627.54
393.22	2688.98
393.43	2787.29
393.64	2686.94
393.85	2813.91
394.07	2629.59
394.28	2703.32
394.49	2799.57
394.71	2688.98
394.92	2805.72
395.13	2707.41
395.35	2725.85
395.56	2670.55
395.77	2791.38
395.98	2779.09
396.20	2877.40
396.41	2811.86
396.62	2854.87
396.84	2785.24
397.05	2752.47
397.26	2899.92
397.47	2895.83
397.69	2740.18
397.90	3149.78
398.11	2826.20
398.32	2891.73
398.54	2867.16
398.75	2805.72
398.96	2932.69
399.18	3024.85
399.39	3006.42
399.60	2963.41
399.81	2879.44
400.03	2861.01
400.24	3209.17
400.45	3039.19
400.66	3047.38
400.88	3055.57
401.09	3200.98
401.30	2981.84
401.51	3131.34
401.73	3053.52
401.94	3160.02
402.15	3143.63
402.36	3028.95
402.58	3137.49
402.79	3319.76
403.00	3108.82
403.21	3184.59
403.43	3166.16
403.64	3143.63
403.85	3147.73
404.06	3147.73
404.27	3127.25
404.49	3094.48
404.70	3162.06
404.91	3370.96
405.12	3217.36
405.34	3178.45
405.55	3493.83
405.76	3241.93
405.97	3246.03
406.19	3397.58
406.40	3313.61
406.61	3377.10
406.82	3360.72
407.03	3248.08
407.25	3194.83
407.46	3391.44
407.67	3463.12
407.88	3473.36
408.09	3379.15
408.31	3327.95
408.52	3432.40
408.73	3411.92
408.94	3344.33
409.15	3491.79
409.37	3360.72
409.58	3481.55
409.79	3444.68
410.00	3510.22
410.21	3340.24
410.43	3383.24
410.64	3508.17
410.85	3477.45
411.06	3553.23
411.27	3553.23
411.48	3551.18
411.70	3467.21
411.91	3551.18
412.12	3682.25
412.33	3553.23
412.54	3639.24
412.76	3676.10
412.97	3626.95
413.18	3477.45
413.39	3608.52
413.60	3723.21
413.81	3626.95
414.03	3553.23
414.24	3694.54
414.45	3768.26
414.66	3493.83
414.87	3682.25
415.08	3655.62
415.30	3631.05
415.51	3784.65
415.72	3745.73
415.93	3727.30
416.14	3760.07
416.35	3805.13
416.56	3735.50
416.78	3839.94
416.99	3766.21
417.20	3772.36
417.41	3764.17
417.62	3778.50
417.83	3839.94
418.04	3825.61
418.26	4014.02
418.47	3725.26
418.68	4018.11
418.89	3885.00
419.10	4198.34
419.31	4001.73
419.52	4014.02
419.73	3934.15
419.95	4075.46
420.16	3903.43
420.37	3948.48
420.58	4016.07
420.79	3966.92
421.00	3940.29
421.21	4235.20
421.42	3995.59
421.63	4085.70
421.85	4091.84
422.06	4112.32
422.27	4050.88
422.48	4052.93
422.69	4130.75
422.90	4173.76
423.11	4173.76
423.32	4233.15
423.53	4345.79
423.75	4237.25
423.96	4399.04
424.17	4415.42
424.38	4401.08
424.59	4423.61
424.80	4530.11
425.01	4433.85
425.22	4251.58
425.43	4315.07
425.64	4698.04
425.85	4632.51
426.06	4558.78
426.28	4362.17
426.49	4345.79
426.70	4546.49
426.91	4550.59
427.12	4562.87
427.33	4630.46
427.54	4632.51
427.75	4515.77
427.96	4775.86
428.17	4652.98
428.38	4767.67
428.59	4796.34
428.80	4767.67
429.01	4837.30
429.23	4702.14
429.44	4929.46
429.65	4976.56
429.86	4958.13
430.07	4818.87
430.28	4847.54
430.49	4951.99
430.70	5140.40
430.91	5058.48
431.12	4855.73
431.33	5103.54
431.54	5064.63
431.75	5152.69
431.96	5136.31
432.17	4941.75
432.38	5005.24
432.59	5357.49
432.80	5199.79
433.01	5205.94
433.22	5289.90
433.43	5244.85
433.64	5146.55
433.85	5199.79
434.06	5394.35
434.27	5220.27
434.49	5244.85
434.70	5466.03
434.91	5451.69
435.12	5425.07
435.33	5447.60
435.54	5468.08
435.75	5162.93
435.96	5521.32
436.17	5392.30
436.38	5660.59
436.59	5545.90
436.80	5558.19
437.01	5787.56
437.22	5740.46
437.43	5631.91
437.64	5388.21
437.85	5656.49
438.06	5631.91
438.27	5582.76
438.48	5558.19
438.69	5748.65
438.90	5713.83
439.11	5681.07
439.32	5863.33
439.53	5846.95
439.74	5853.09
439.95	5818.28
440.16	5808.04
440.37	5750.70
440.57	5853.09
440.78	5975.97
440.99	5859.24
441.20	5937.06
441.41	5873.57
441.62	6008.74
441.83	5910.44
442.04	6070.18
442.25	6139.81
442.46	5969.83
442.67	6033.32
442.88	6485.92
443.09	5957.54
443.30	6109.09
443.51	6053.80
443.72	6373.28
443.93	6004.64
444.14	6297.50
444.35	6121.38
444.56	6209.44
444.77	6313.89
444.98	6358.94
445.19	6293.41
445.40	6363.04
445.61	6168.48
445.81	6324.13
446.02	6438.81
446.23	6428.57
446.44	6360.99
446.65	6332.32
446.86	6373.28
447.07	6541.21
447.28	6797.21
447.49	6666.14
447.70	6473.63
447.91	6520.73
448.12	6561.69
448.33	6713.24
448.54	6582.17
448.74	6567.84
448.95	6567.84
449.16	6592.41
449.37	6850.46
449.58	6754.20
449.79	6899.61
450.00	6565.79
450.21	6678.43
450.42	6782.87
450.63	6877.08
450.84	6909.85
451.05	7071.64
451.25	6862.74
451.46	6737.82
451.67	7196.56
451.88	7147.41
452.09	7088.02
452.30	6950.81
452.51	7110.55
452.72	7239.57
452.93	7540.62
453.13	7122.84
453.34	7133.08
453.55	7219.09
453.76	7372.69
453.97	7399.31
454.18	7497.61
454.39	7538.57
454.60	7391.12
454.81	7374.74
455.01	7593.87
455.22	7198.61
455.43	7341.97
455.64	7751.56
455.85	7683.98
456.06	7894.92
456.27	7593.87
456.48	7597.96
456.68	7722.89
456.89	7841.67
457.10	7796.62
457.31	7915.40
457.52	7829.38
457.73	7843.72
457.94	8234.88
458.14	7763.85
458.35	8195.97
458.56	7976.84
458.77	7944.07
458.98	8224.64
459.19	8099.72
459.39	8177.54
459.60	8253.31
459.81	8183.68
460.02	8408.96
460.23	8468.35
460.44	8634.24
460.65	8310.66
460.85	8619.90
461.06	8515.45
461.27	8341.38
461.48	8570.75
461.69	8828.79
461.89	8546.17
462.10	8763.26
462.31	8624.00
462.52	8855.42
462.73	8800.12
462.94	9074.55
463.14	9058.17
463.35	8920.95
463.56	9240.44
463.77	9389.94
463.98	9072.50
464.18	9043.83
464.39	9344.88
464.60	9500.53
464.81	9518.96
465.02	9445.23
465.23	9713.52
465.43	9512.81
465.64	9629.55
465.85	9729.90
466.06	9396.08
466.27	9961.32
466.47	9934.70
466.68	9875.31
466.89	9809.77
467.10	10166.12
467.30	9742.19
467.51	10186.60
467.72	10221.41
467.93	9897.83
468.14	10413.92
468.34	10479.46
468.55	10506.08
468.76	10508.13
468.97	10186.60
469.17	10608.48
469.38	10725.21
469.59	10866.52
469.80	10669.92
470.01	10651.49
470.21	10921.82
470.42	11085.65
470.63	11173.72
470.84	10911.58
471.04	11063.13
471.25	11237.20
471.46	11145.05
471.67	11536.21
471.87	11284.31
472.08	11575.12
472.29	11802.44
472.50	11544.40
472.70	11593.55
472.91	11876.17
473.12	11863.88
473.33	12056.39
473.53	12302.15
473.74	11986.76
473.95	12269.38
474.16	12267.33
474.36	12472.13
474.57	12455.75
474.78	12537.66
474.99	12406.59
475.19	12496.71
475.40	12830.52
475.61	12865.34
475.81	13086.52
476.02	13215.54
476.23	12881.72
476.44	13080.38
476.64	13418.29
476.85	13555.51
477.06	13350.71
477.27	13645.62
477.47	13584.18
477.68	13653.81
477.89	13877.04
478.09	13627.18
478.30	13895.47
478.51	13883.18
478.71	13913.90
478.92	14249.77
479.13	14184.23
479.34	14243.62
479.54	14325.54
479.75	14458.66
479.96	14479.14
480.16	14792.48
480.37	14720.80
480.58	15011.61
480.78	15150.87
480.99	14872.35
481.20	15171.35
481.41	15083.29
481.61	15376.15
481.82	15408.92
482.03	15466.26
482.23	15630.10
482.44	15666.96
482.65	15738.64
482.85	16144.14
483.06	16029.45
483.27	16252.68
483.47	16045.84
483.68	16305.93
483.89	16121.61
484.09	16166.67
484.30	16723.71
484.51	16510.72
484.71	16903.93
484.92	16566.02
485.13	16924.41
485.33	16926.46
485.54	16838.40
485.75	17157.88
485.95	17305.34
486.16	17192.70
486.37	17325.82
486.57	17514.23
486.78	17295.10
486.98	17405.69
487.19	17790.70
487.40	17800.94
487.60	17575.67
487.81	18022.12
488.02	17981.17
488.22	18106.09
488.43	18007.79
488.64	18110.19
488.84	18343.66
489.05	18654.95
489.25	18353.90
489.46	18501.35
489.67	18681.57
489.87	18947.81
490.08	18933.47
490.29	18849.50
490.49	19281.63
490.70	19175.13
490.90	19287.77
491.11	19355.35
491.32	19359.45
491.52	19513.05
491.73	19418.84
491.94	19416.79
492.14	19748.56
492.35	20043.47
492.55	19953.36
492.76	19738.32
492.97	20119.24
493.17	19986.13
493.38	20113.10
493.58	20326.09
493.79	20565.70
494.00	20033.23
494.20	20334.28
494.41	20750.02
494.61	20735.68
494.82	20713.16
495.02	20713.16
495.23	20805.31
495.44	20788.93
495.64	21028.54
495.85	21141.18
496.05	21470.90
496.26	21159.61
496.47	21315.26
496.67	21501.62
496.88	21907.12
497.08	21368.51
497.29	21569.21
497.49	21458.62
497.70	21868.21
497.91	21888.69
498.11	22191.79
498.32	21868.21
498.52	22240.94
498.73	22447.79
498.93	22187.69
499.14	22382.25
499.34	22580.90
499.55	22843.04
499.76	22429.35
499.96	22859.43
500.17	22634.15
500.37	22720.17
500.58	22716.07
500.78	22843.04
500.99	23008.93
501.19	23221.92
501.40	23275.16
501.60	23162.53
501.81	23234.21
502.02	22976.16
502.22	23084.70
502.43	23363.23
502.63	23611.03
502.84	23807.64
503.04	23402.14
503.25	23690.90
503.45	24006.29
503.66	23838.36
503.86	24116.88
504.07	24333.96
504.27	23967.38
504.48	24123.02
504.68	24034.96
504.89	24465.03
505.09	24508.04
505.30	24573.58
505.50	24413.84
505.71	24575.62
505.91	24520.33
506.12	24647.30
506.32	24485.51
506.53	24848.00
506.73	24958.60
506.94	25298.56
507.14	24891.01
507.35	24938.12
507.55	25147.01
507.76	25515.64
507.96	25108.10
508.17	25353.85
508.37	25476.73
508.58	25515.64
508.78	25503.35
508.99	25976.44
509.19	25624.18
509.40	25605.75
509.60	25527.93
509.81	26041.97
510.01	25796.21
510.22	25859.70
510.42	26130.03
510.63	26154.61
510.83	26199.66
511.04	26144.37
511.24	26611.31
511.44	26388.08
511.65	26330.73
511.85	26330.73
512.06	26381.93
512.26	26355.31
512.47	26682.98
512.67	26725.99
512.88	26721.90
513.08	26306.16
513.29	26758.76
513.49	26877.54
513.69	26766.95
513.90	26959.46
514.10	26971.75
514.31	26969.70
514.51	27450.97
514.72	27285.09
514.92	27233.89
515.13	27301.47
515.33	27565.66
515.53	27604.57
515.74	27631.19
515.94	27856.47
516.15	27606.62
516.35	27496.03
516.56	27872.85
516.76	27602.52
516.96	28059.22
517.17	28319.31
517.37	28276.30
517.58	27850.33
517.78	28282.45
517.99	27852.38
518.19	28409.42
518.39	28284.50
518.60	28483.15
518.80	28446.29
519.01	28657.23
519.21	28317.26
519.41	28773.96
519.62	28548.68
519.82	29038.15
520.03	29115.97
520.23	28769.86
520.43	28962.37
520.64	29269.57
520.84	29558.33
521.05	29390.40
521.25	29218.37
521.45	29228.61
521.66	29185.60
521.86	29484.61
522.07	29513.28
522.27	29664.83
522.47	30047.80
522.68	30008.89
522.88	29996.60
523.08	29847.10
523.29	29615.68
523.49	30119.48
523.70	29972.02
523.90	30299.70
524.10	30182.96
524.31	30395.95
524.51	30053.94
524.71	30641.71
524.92	30719.53
525.12	30875.18
525.33	30682.67
525.53	31317.54
525.73	31034.92
525.94	31411.74
526.14	31084.07
526.34	31487.52
526.55	31297.06
526.75	31438.37
526.95	31616.54
527.16	31389.22
527.36	31372.83
527.56	31626.78
527.77	31981.08
527.97	31649.31
528.17	32192.02
528.38	32126.49
528.58	32396.82
528.78	32130.58
528.99	31993.37
529.19	32622.09
529.39	31981.08
529.60	32558.61
529.80	32216.60
530.00	32566.80
530.21	32730.64
530.41	32978.44
530.61	32896.52
530.82	32632.33
531.02	32654.86
531.22	33070.60
531.43	32851.47
531.63	33617.41
531.83	33695.23
532.04	33564.16
532.24	33732.09
532.44	33908.22
532.64	33971.71
532.85	33928.70
533.05	34024.95
533.25	34024.95
533.46	34121.21
533.66	34143.74
533.86	34272.76
534.07	34455.03
534.27	34336.24
534.47	34706.93
534.67	34538.99
534.88	34797.04
535.08	34455.03
535.28	35069.42
535.49	35083.75
535.69	35108.33
535.89	35241.45
536.09	35239.40
536.30	35429.86
536.50	35429.86
536.70	35096.04
536.91	35517.92
537.11	35644.90
537.31	35749.34
537.51	35821.02
537.72	35780.06
537.92	36206.04
538.12	36347.35
538.32	36011.48
538.53	36009.43
538.73	36152.79
538.93	36191.70
539.13	36232.66
539.34	36617.68
539.54	36328.92
539.74	36672.98
539.94	36834.77
540.15	36439.51
540.35	36799.95
540.55	36636.11
540.75	36961.74
540.96	37125.58
541.16	37113.29
541.36	37060.04
541.56	37213.64
541.77	37582.27
541.97	37025.23
542.17	37414.34
542.37	37350.85
542.58	37402.05
542.78	37320.13
542.98	37494.21
543.18	37754.30
543.38	38124.99
543.59	37942.72
543.79	37760.45
543.99	37473.73
544.19	38323.64
544.40	37916.09
544.60	38290.87
544.80	38217.14
545.00	38380.98
545.20	38716.85
545.41	38233.53
545.61	38522.29
545.81	38870.45
546.01	38981.04
546.21	38634.93
546.42	38321.59
546.62	39097.77
546.82	38632.88
547.02	38940.08
547.22	39081.39
547.43	38583.73
547.63	38843.82
547.83	38981.04
548.03	38870.45
548.23	39056.81
548.44	39003.56
548.64	39615.91
548.84	39163.31
549.04	39185.83
549.24	39501.22
549.45	39900.58
549.65	39574.95
549.85	39640.48
550.05	39861.66
550.25	39679.39
550.45	39982.49
550.66	39777.70
550.86	39867.81
551.06	40275.35
551.26	39701.92
551.46	40007.07
551.66	39945.63
551.87	40261.02
552.07	40318.36
552.27	40062.36
552.47	40574.36
552.67	40582.55
552.87	40392.09
553.07	40689.04
553.28	40687.00
553.48	40553.88
553.68	40310.17
553.88	40539.54
554.08	40910.22
554.28	40998.29
554.48	40603.03
554.69	40920.46
554.89	41016.72
555.09	40850.83
555.29	40951.18
555.49	41248.14
555.69	40979.85
555.89	41176.46
556.10	41016.72
556.30	40873.36
556.50	40879.50
556.70	41125.26
556.90	41588.10
557.10	41647.49
557.30	41147.79
557.50	41237.90
557.70	41639.30
557.91	41891.20
558.11	41336.20
558.31	41702.79
558.51	41764.23
558.71	42005.89
558.91	41878.91
559.11	42044.80
559.31	41973.12
559.51	41303.43
559.72	41887.10
559.92	41842.05
560.12	42022.27
560.32	42214.78
560.52	41686.40
560.72	41958.78
560.92	42294.65
561.12	42347.90
561.32	42564.98
561.52	41960.83
561.72	42630.52
561.93	42315.13
562.13	42407.29
562.33	42204.54
562.53	42601.85
562.73	42554.74
562.93	42468.73
563.13	42882.42
563.33	42593.65
563.53	42644.85
563.73	43081.07
563.93	42665.33
564.13	43490.66
564.33	43076.97
564.53	42968.43
564.74	42847.60
564.94	42694.00
565.14	43054.45
565.34	42632.57
565.54	42812.79
565.74	42927.47
565.94	43210.09
566.14	43027.82
566.34	43185.52
566.54	43703.65
566.74	43173.23
566.94	43607.40
567.14	43720.04
567.34	43558.25
567.54	44307.80
567.74	43638.12
567.94	43660.65
568.14	43806.05
568.34	43636.07
568.54	43785.57
568.74	44021.09
568.94	43793.76
569.14	44334.43
569.34	43705.70
569.54	44248.41
569.75	43744.61
569.95	43904.35
570.15	44338.52
570.35	44029.28
570.55	44168.54
570.75	44506.46
570.95	44555.61
571.15	44750.17
571.35	44858.71
571.55	44604.76
571.75	44717.40
571.95	44739.93
572.15	44481.88
572.35	45000.02
572.55	44827.99
572.75	44660.05
572.95	44754.26
573.15	44465.50
573.35	44727.64
573.55	44717.40
573.75	44993.87
573.95	45002.07
574.15	45282.64
574.35	45112.66
574.55	45270.35
574.75	44901.71
574.95	45278.54
575.15	45530.44
575.34	45544.78
575.54	45659.46
575.74	45847.88
575.94	45559.11
576.14	45593.93
576.34	46144.83
576.54	46404.92
576.74	45790.53
576.94	45833.54
577.14	46046.53
577.34	46351.68
577.54	45856.07
577.74	46458.17
577.94	45800.77
578.14	46083.39
578.34	46556.47
578.54	45757.77
578.74	45778.25
578.94	46335.29
579.14	46110.02
579.34	46515.51
579.54	46656.82
579.74	46929.20
579.94	46656.82
580.13	46863.67
580.33	46695.74
580.53	46728.50
580.73	47084.85
580.93	46826.81
581.13	47281.45
581.33	47301.93
581.53	47273.26
581.73	47394.09
581.93	47422.76
582.13	47269.17
582.33	47467.82
582.53	47508.78
582.73	47668.52
582.92	47437.10
583.12	48031.01
583.32	47572.27
583.52	47527.21
583.72	47748.39
583.92	47627.56
584.12	48155.94
584.32	48330.01
584.52	47928.61
584.72	47617.32
584.92	48014.63
585.11	48121.12
585.31	48233.76
585.51	48309.53
585.71	48383.26
585.91	48520.48
586.11	48282.91
586.31	48182.56
586.51	48063.78
586.71	48436.51
586.91	49022.23
587.10	48690.46
587.30	48438.56
587.50	49042.71
587.70	48864.53
587.90	48803.10
588.10	48755.99
588.30	48590.11
588.50	49034.52
