SpectraSuite Data File
++++++++++++++++++++++++++++++++++++
Date: Fri Jun 02 14:49:27 CEST 2017
User: INFO_000
Dark Spectrum Present: No
Reference Spectrum Present: No
Number of Sampled Component Spectra: 1
Spectrometers: USB4H00879
Integration Time (usec): 80000 (USB4H00879)
Spectra Averaged: 1 (USB4H00879)
Boxcar Smoothing: 0 (USB4H00879)
Correct for Electrical Dark: No (USB4H00879)
Strobe/Lamp Enabled: No (USB4H00879)
Correct for Detector Non-linearity: No (USB4H00879)
Correct for Stray Light: No (USB4H00879)
Number of Pixels in Processed Spectrum: 3648
>>>>>Begin Processed Spectral Data<<<<<
345.13	1222.64
345.34	1222.64
345.56	1222.64
345.78	1310.70
345.99	1273.84
346.21	1738.73
346.42	1769.44
346.64	1652.71
346.86	1800.16
347.07	1699.81
347.29	1769.44
347.50	1640.42
347.72	1710.05
347.94	1769.44
348.15	1611.75
348.37	1593.32
348.59	1716.20
348.80	1624.04
349.02	1738.73
349.23	1853.41
349.45	1849.32
349.67	1855.46
349.88	1744.87
350.10	1937.38
350.31	1802.21
350.53	1869.80
350.75	2007.01
350.96	1783.78
351.18	1906.66
351.39	1849.32
351.61	1832.93
351.82	1929.19
352.04	1957.86
352.26	1814.50
352.47	1818.60
352.69	1904.61
352.90	1810.40
353.12	1816.55
353.34	1884.13
353.55	1951.71
353.77	1927.14
353.98	1787.88
354.20	1867.75
354.41	1929.19
354.63	1912.80
354.85	1935.33
355.06	1925.09
355.28	1785.83
355.49	1824.74
355.71	1884.13
355.92	1843.17
356.14	1920.99
356.35	1812.45
356.57	1898.47
356.79	1953.76
357.00	1888.23
357.22	1976.29
357.43	1886.18
357.65	2009.06
357.86	1937.38
358.08	1886.18
358.29	1951.71
358.51	1961.95
358.72	2011.11
358.94	1953.76
359.16	1902.56
359.37	1939.43
359.59	1976.29
359.80	2058.21
360.02	1923.04
360.23	1986.53
360.45	2037.73
360.66	1884.13
360.88	1918.95
361.09	1929.19
361.31	1988.58
361.52	1964.00
361.74	2011.11
361.95	2033.63
362.17	1953.76
362.38	2013.15
362.60	2029.54
362.81	1986.53
363.03	1964.00
363.24	1988.58
363.46	2117.60
363.67	1990.63
363.89	1994.72
364.10	1964.00
364.32	1953.76
364.53	2082.78
364.75	1888.23
364.96	2017.25
365.18	2011.11
365.39	2060.26
365.61	1916.90
365.82	2121.70
366.04	1964.00
366.25	1904.61
366.47	2084.83
366.68	2056.16
366.90	1959.91
367.11	2109.41
367.33	2064.35
367.54	2035.68
367.76	2023.39
367.97	2105.31
368.19	2037.73
368.40	2045.92
368.62	2037.73
368.83	1939.43
369.05	2088.93
369.26	2029.54
369.48	2027.49
369.69	1961.95
369.91	2015.20
370.12	2076.64
370.33	2093.02
370.55	1953.76
370.76	2027.49
370.98	2074.59
371.19	2076.64
371.41	2047.97
371.62	2084.83
371.84	2039.78
372.05	2160.61
372.27	1992.67
372.48	2068.45
372.69	1984.48
372.91	2050.02
373.12	2164.70
373.34	2043.87
373.55	2119.65
373.77	2179.04
373.98	2045.92
374.20	2213.85
374.41	2273.25
374.62	2047.97
374.84	2111.46
375.05	2211.81
375.27	2160.61
375.48	2105.31
375.70	2142.18
375.91	2222.05
376.12	2310.11
376.34	2113.50
376.55	2076.64
376.77	2176.99
376.98	2150.37
377.19	2064.35
377.41	2158.56
377.62	2215.90
377.84	2236.38
378.05	2435.03
378.27	2207.71
378.48	2324.44
378.69	2396.12
378.91	2281.44
379.12	2203.61
379.34	2220.00
379.55	2357.21
379.76	2265.05
379.98	2138.08
380.19	2279.39
380.41	2334.68
380.62	2301.92
380.83	2308.06
381.05	2187.23
381.26	2375.64
381.47	2215.90
381.69	2275.29
381.90	2353.12
382.12	2205.66
382.33	2273.25
382.54	2236.38
382.76	2306.01
382.97	2340.83
383.19	2213.85
383.40	2349.02
383.61	2320.35
383.83	2306.01
384.04	2344.92
384.25	2316.25
384.47	2394.08
384.68	2418.65
384.89	2377.69
385.11	2293.72
385.32	2387.93
385.54	2334.68
385.75	2392.03
385.96	2324.44
386.18	2461.66
386.39	2420.70
386.60	2432.99
386.82	2422.75
387.03	2412.51
387.24	2494.43
387.46	2439.13
387.67	2437.08
387.88	2469.85
388.10	2412.51
388.31	2525.15
388.52	2512.86
388.74	2467.80
388.95	2525.15
389.16	2424.80
389.38	2412.51
389.59	2519.00
389.80	2500.57
390.02	2459.61
390.23	2672.60
390.44	2502.62
390.66	2486.23
390.87	2455.51
391.08	2559.96
391.30	2721.75
391.51	2664.41
391.72	2703.32
391.94	2635.74
392.15	2619.35
392.36	2508.76
392.58	2531.29
392.79	2645.98
393.00	2674.65
393.22	2711.51
393.43	2637.78
393.64	2740.18
393.85	2764.76
394.07	2609.11
394.28	2695.13
394.49	2736.09
394.71	2738.13
394.92	2824.15
395.13	2754.52
395.35	2668.50
395.56	2801.62
395.77	2836.44
395.98	2754.52
396.20	2676.70
396.41	2813.91
396.62	2785.24
396.84	2762.71
397.05	2840.53
397.26	2906.07
397.47	2901.97
397.69	2779.09
397.90	2951.12
398.11	2893.78
398.32	2930.64
398.54	2719.70
398.75	2797.53
398.96	2828.24
399.18	3002.32
399.39	2992.08
399.60	3100.62
399.81	2883.54
400.03	2891.73
400.24	3223.50
400.45	2895.83
400.66	3092.43
400.88	2971.60
401.09	3182.54
401.30	3098.58
401.51	3203.02
401.73	3139.54
401.94	3108.82
402.15	3084.24
402.36	3125.20
402.58	3162.06
402.79	3114.96
403.00	3147.73
403.21	3141.58
403.43	3186.64
403.64	3276.75
403.85	3135.44
404.06	3110.86
404.27	3102.67
404.49	3250.13
404.70	3100.62
404.91	3338.19
405.12	3239.89
405.34	3227.60
405.55	3360.72
405.76	3246.03
405.97	3289.04
406.19	3334.09
406.40	3248.08
406.61	3268.56
406.82	3399.63
407.03	3303.37
407.25	3282.89
407.46	3418.06
407.67	3499.98
407.88	3442.64
408.09	3379.15
408.31	3340.24
408.52	3393.48
408.73	3323.85
408.94	3407.82
409.15	3450.83
409.37	3524.55
409.58	3553.23
409.79	3532.75
410.00	3608.52
410.21	3364.81
410.43	3405.77
410.64	3522.51
410.85	3508.17
411.06	3561.42
411.27	3542.99
411.48	3776.45
411.70	3506.12
411.91	3506.12
412.12	3508.17
412.33	3653.58
412.54	3485.64
412.76	3735.50
412.97	3723.21
413.18	3557.32
413.39	3674.06
413.60	3592.14
413.81	3669.96
414.03	3528.65
414.24	3577.80
414.45	3737.54
414.66	3506.12
414.87	3731.40
415.08	3751.88
415.30	3694.54
415.51	3659.72
415.72	3774.41
415.93	3680.20
416.14	3837.89
416.35	3753.93
416.56	3745.73
416.78	3823.56
416.99	3768.26
417.20	3745.73
417.41	3917.76
417.62	3870.66
417.83	3975.11
418.04	3919.81
418.26	3872.71
418.47	3958.72
418.68	3997.64
418.89	3971.01
419.10	3991.49
419.31	3995.59
419.52	4036.55
419.73	3952.58
419.95	4069.31
420.16	4026.31
420.37	4091.84
420.58	3958.72
420.79	3870.66
421.00	3977.16
421.21	4075.46
421.42	3960.77
421.63	4059.07
421.85	4097.99
422.06	4173.76
422.27	4116.42
422.48	4108.23
422.69	4169.66
422.90	4190.14
423.11	4116.42
423.32	4308.93
423.53	4353.98
423.75	4175.81
423.96	4376.51
424.17	4327.36
424.38	4442.04
424.59	4272.06
424.80	4394.94
425.01	4222.91
425.22	4339.65
425.43	4489.15
425.64	4454.33
425.85	4579.26
426.06	4493.24
426.28	4483.00
426.49	4501.44
426.70	4380.61
426.91	4503.48
427.12	4552.63
427.33	4509.63
427.54	4437.95
427.75	4607.93
427.96	4638.65
428.17	4663.22
428.38	4745.14
428.59	4804.53
428.80	4675.51
429.01	4794.29
429.23	4706.23
429.44	5058.48
429.65	4939.70
429.86	4802.49
430.07	4825.01
430.28	4673.46
430.49	4906.93
430.70	4923.32
430.91	4978.61
431.12	5009.33
431.33	5021.62
431.54	5011.38
431.75	5126.07
431.96	4974.52
432.17	5029.81
432.38	5009.33
432.59	5230.51
432.80	5091.25
433.01	5113.78
433.22	5179.31
433.43	5224.37
433.64	5236.66
433.85	5259.18
434.06	5363.63
434.27	5093.30
434.49	5294.00
434.70	5410.73
434.91	5404.59
435.12	5312.43
435.33	5445.55
435.54	5410.73
435.75	5371.82
435.96	5275.57
436.17	5330.86
436.38	5492.65
436.59	5521.32
436.80	5504.94
437.01	5611.43
437.22	5640.11
437.43	5556.14
437.64	5445.55
437.85	5760.94
438.06	5709.74
438.27	5562.28
438.48	5582.76
438.69	5633.96
438.90	5707.69
439.11	5728.17
439.32	5873.57
439.53	5713.83
439.74	5894.05
439.95	5859.24
440.16	5849.00
440.37	5932.97
440.57	5822.38
440.78	5965.73
440.99	5853.09
441.20	6051.75
441.41	5844.90
441.62	6102.95
441.83	5869.48
442.04	6135.71
442.25	6143.91
442.46	6068.13
442.67	6004.64
442.88	6307.74
443.09	5975.97
443.30	6102.95
443.51	6066.08
443.72	6539.16
443.93	6143.91
444.14	6375.33
444.35	6082.47
444.56	6166.43
444.77	6268.83
444.98	6262.69
445.19	6393.76
445.40	6479.77
445.61	6264.74
445.81	6569.88
446.02	6631.32
446.23	6467.49
446.44	6244.26
446.65	6336.42
446.86	6545.31
447.07	6590.36
447.28	6805.40
447.49	6584.22
447.70	6582.17
447.91	6600.60
448.12	6774.68
448.33	6768.54
448.54	6793.11
448.74	6629.27
448.95	6827.93
449.16	6709.15
449.37	6889.37
449.58	6573.98
449.79	6924.18
450.00	6633.37
450.21	6965.14
450.42	7032.72
450.63	7030.68
450.84	7002.01
451.05	6959.00
451.25	7008.15
451.46	6973.33
451.67	7045.01
451.88	7022.48
452.09	7188.37
452.30	7102.36
452.51	7120.79
452.72	7335.82
452.93	7585.68
453.13	7073.68
453.34	7327.63
453.55	7194.51
453.76	7188.37
453.97	7503.76
454.18	7423.89
454.39	7450.51
454.60	7288.72
454.81	7440.27
455.01	7511.95
455.22	7479.18
455.43	7497.61
455.64	7683.98
455.85	7954.31
456.06	7905.16
456.27	7745.42
456.48	7669.64
456.68	7813.00
456.89	7847.82
457.10	7737.23
457.31	7808.90
457.52	7827.34
457.73	8071.04
457.94	8187.78
458.14	7890.82
458.35	8255.36
458.56	8032.13
458.77	8046.47
458.98	8210.31
459.19	8146.82
459.39	8298.37
459.60	8396.67
459.81	8269.70
460.02	8380.29
460.23	8484.73
460.44	8574.85
460.65	8785.79
460.85	8499.07
461.06	8728.44
461.27	8492.93
461.48	8873.85
461.69	8773.50
461.89	8490.88
462.10	8761.21
462.31	8570.75
462.52	8636.28
462.73	8859.51
462.94	9107.32
463.14	8972.15
463.35	8968.06
463.56	9434.99
463.77	9265.01
463.98	8931.19
464.18	9166.71
464.39	9273.20
464.60	9371.50
464.81	9334.64
465.02	9203.57
465.23	9684.84
465.43	9408.37
465.64	9774.95
465.85	9553.77
466.06	9422.70
466.27	9914.22
466.47	9711.47
466.68	9752.43
466.89	9998.18
467.10	9867.11
467.30	9723.76
467.51	10026.86
467.72	10184.55
467.93	9918.31
468.14	10037.09
468.34	10258.28
468.55	10334.05
468.76	10356.58
468.97	10186.60
469.17	10487.65
469.38	10450.78
469.59	10612.57
469.80	10430.30
470.01	10508.13
470.21	10698.59
470.42	10835.80
470.63	10829.66
470.84	10811.23
471.04	11095.89
471.25	11284.31
471.46	11030.36
471.67	11296.60
471.87	11497.30
472.08	11231.06
472.29	11462.48
472.50	11269.97
472.70	11343.70
472.91	11497.30
473.12	11765.58
473.33	11919.18
473.53	11790.16
473.74	11798.35
473.95	11898.70
474.16	12087.11
474.36	12261.19
474.57	12238.66
474.78	12625.73
474.99	12332.87
475.19	12183.37
475.40	12578.62
475.61	12724.03
475.81	12859.20
476.02	13041.46
476.23	12965.69
476.44	13160.25
476.64	13203.25
476.85	13242.17
477.06	13174.58
477.27	13461.30
477.47	13631.28
477.68	13336.37
477.89	13465.39
478.09	13633.33
478.30	13662.00
478.51	13549.36
478.71	13930.28
478.92	13993.77
479.13	14069.55
479.34	14157.61
479.54	14415.65
479.75	14382.88
479.96	14573.35
480.16	14452.52
480.37	14608.16
480.58	14782.24
480.78	14888.73
480.99	14819.10
481.20	15245.08
481.41	15310.61
481.61	15433.49
481.82	15470.36
482.03	15376.15
482.23	15357.72
482.44	15687.44
482.65	15767.31
482.85	15763.22
483.06	16125.71
483.27	16123.66
483.47	15767.31
483.68	16174.86
483.89	16381.70
484.09	16172.81
484.30	16129.80
484.51	16547.59
484.71	16908.03
484.92	16512.77
485.13	16994.04
485.33	17086.20
485.54	16695.04
485.75	17217.27
485.95	17030.91
486.16	17278.71
486.37	17663.73
486.57	17354.49
486.78	17405.69
486.98	17483.51
487.19	17567.48
487.40	17796.85
487.60	17778.42
487.81	18200.30
488.02	18093.80
488.22	17999.60
488.43	18325.22
488.64	18314.98
488.84	18515.69
489.05	18503.40
489.25	18568.93
489.46	18810.59
489.67	18640.61
489.87	18972.38
490.08	19021.53
490.29	19179.23
490.49	19461.85
490.70	19316.44
490.90	19416.79
491.11	19259.10
491.32	19637.97
491.52	19578.58
491.73	19887.82
491.94	19947.22
492.14	19992.27
492.35	20086.48
492.55	20205.26
492.76	20270.79
492.97	20543.17
493.17	20448.97
493.38	20580.04
493.58	20549.32
493.79	20975.30
494.00	20692.68
494.20	20831.94
494.41	20842.18
494.61	20778.69
494.82	21087.93
495.02	20948.67
495.23	20944.58
495.44	21544.63
495.64	21536.44
495.85	21413.56
496.05	21687.99
496.26	21487.29
496.47	21640.89
496.67	21700.28
496.88	22030.00
497.08	21667.51
497.29	21677.75
497.49	22095.53
497.70	22083.25
497.91	22316.72
498.11	22654.63
498.32	22367.91
498.52	22431.40
498.73	22724.26
498.93	22628.01
499.14	22609.58
499.34	22769.32
499.55	23070.37
499.76	22650.53
499.96	23002.78
500.17	23023.26
500.37	22959.78
500.58	23187.10
500.78	23043.74
500.99	23482.01
501.19	23402.14
501.40	23420.57
501.60	23324.32
501.81	23529.11
502.02	23287.45
502.22	23400.09
502.43	23600.79
502.63	23781.01
502.84	23848.60
503.04	23690.90
503.25	24342.16
503.45	24133.26
503.66	24211.09
503.86	24161.94
504.07	24366.73
504.27	24098.45
504.48	24604.30
504.68	24430.22
504.89	25044.61
505.09	24618.63
505.30	24417.93
505.50	24415.88
505.71	24913.54
505.91	24809.09
506.12	24729.22
506.32	24743.56
506.53	25007.75
506.73	25013.89
506.94	25153.15
507.14	24919.68
507.35	25249.41
507.55	25400.96
507.76	24972.93
507.96	25460.35
508.17	25257.60
508.37	25450.11
508.58	25540.22
508.78	25476.73
508.99	25624.18
509.19	25503.35
509.40	25747.06
509.60	25919.09
509.81	25691.77
510.01	25683.58
510.22	25665.14
510.42	25837.17
510.63	26457.71
510.83	25919.09
511.04	26330.73
511.24	26170.99
511.44	26365.55
511.65	26592.87
511.85	26187.38
512.06	26627.69
512.26	26154.61
512.47	26463.85
512.67	26367.60
512.88	26623.59
513.08	26240.62
513.29	27088.48
513.49	26396.27
513.69	26689.13
513.90	26662.51
514.10	27022.95
514.31	27192.93
514.51	26834.53
514.72	27065.96
514.92	27004.52
515.13	27025.00
515.33	26908.26
515.53	27084.39
515.74	27389.53
515.94	26977.89
516.15	27287.14
516.35	26852.97
516.56	27450.97
516.76	27022.95
516.96	27557.47
517.17	27561.56
517.37	27473.50
517.58	27954.77
517.78	27827.80
517.99	27741.78
518.19	28030.55
518.39	27940.44
518.60	28298.83
518.80	28178.00
519.01	28145.23
519.21	28157.52
519.41	28395.09
519.62	28149.33
519.82	28452.43
520.03	28507.72
520.23	28575.31
520.43	28425.81
520.64	28724.81
520.84	28982.85
521.05	28759.63
521.25	29060.68
521.45	29087.30
521.66	29279.81
521.86	29242.95
522.07	29156.93
522.27	29582.91
522.47	29251.14
522.68	29263.43
522.88	29326.91
523.08	29750.84
523.29	29572.67
523.49	29666.88
523.70	29568.57
523.90	29967.93
524.10	29976.12
524.31	29967.93
524.51	30117.43
524.71	30541.36
524.92	29900.34
525.12	30678.57
525.33	30414.38
525.53	30783.02
525.73	30944.81
525.94	30891.56
526.14	30686.76
526.34	30946.86
526.55	30989.86
526.75	30998.06
526.95	31301.15
527.16	31186.47
527.36	31286.82
527.56	31295.01
527.77	31407.65
527.97	31405.60
528.17	31700.51
528.38	31845.91
528.58	31630.88
528.78	32099.86
528.99	31833.63
529.19	32253.46
529.39	31841.82
529.60	32206.36
529.80	32318.99
530.00	32355.86
530.21	32599.57
530.41	33050.12
530.61	32531.98
530.82	32669.20
531.02	32755.21
531.22	32771.60
531.43	32931.34
531.63	33525.25
531.83	33723.90
532.04	33580.54
532.24	33101.32
532.44	33664.51
532.64	33754.62
532.85	33584.64
533.05	33932.79
533.25	33924.60
533.46	34020.86
533.66	34309.62
533.86	34072.06
534.07	34682.35
534.27	34477.55
534.47	34608.62
534.67	34881.00
534.88	34532.85
535.08	34729.45
535.28	34831.85
535.49	34948.59
535.69	35315.17
535.89	35321.32
536.09	35225.06
536.30	35532.26
536.50	35212.77
536.70	35825.12
536.91	35702.24
537.11	35601.89
537.31	35837.41
537.51	35591.65
537.72	36218.33
537.92	35780.06
538.12	36228.57
538.32	36052.44
538.53	36302.29
538.73	36189.66
538.93	36787.66
539.13	36435.41
539.34	36345.30
539.54	36320.73
539.74	37068.23
539.94	36812.24
540.15	36885.97
540.35	37252.55
540.55	37109.19
540.75	37025.23
540.96	37287.37
541.16	37467.59
541.36	37301.70
541.56	37592.51
541.77	37684.67
541.97	37649.86
542.17	37737.92
542.37	37739.97
542.58	37797.31
542.78	37567.94
542.98	37803.46
543.18	38061.50
543.38	38575.54
543.59	38088.12
543.79	37993.92
543.99	38256.06
544.19	38446.52
544.40	38129.08
544.60	38618.55
544.80	38467.00
545.00	38299.06
545.20	38909.36
545.41	38802.86
545.61	38741.42
545.81	39148.97
546.01	39347.62
546.21	38671.79
546.42	38766.00
546.62	38921.65
546.82	39095.72
547.02	39253.42
547.22	39073.20
547.43	39267.75
547.63	39531.94
547.83	39163.31
548.03	39001.52
548.23	39769.51
548.44	39310.76
548.64	39329.19
548.84	40037.79
549.04	39464.36
549.24	39789.98
549.45	40045.98
549.65	39525.80
549.85	40013.21
550.05	40500.63
550.25	40000.93
550.45	40637.84
550.66	40353.18
550.86	40189.34
551.06	40494.49
551.26	40107.42
551.46	40715.67
551.66	40629.65
551.87	40553.88
552.07	40727.95
552.27	40609.17
552.47	40648.08
552.67	40791.44
552.87	40836.50
553.07	40727.95
553.28	40957.33
553.48	40594.84
553.68	40861.07
553.88	41211.28
554.08	41127.31
554.28	41254.28
554.48	40699.28
554.69	41067.92
554.89	40994.19
555.09	41604.49
555.29	40932.75
555.49	41426.31
555.69	41444.74
555.89	41512.33
556.10	41788.80
556.30	41682.31
556.50	41776.51
556.70	41172.36
556.90	41530.76
557.10	42038.65
557.30	41467.27
557.50	41651.59
557.70	42106.24
557.91	42390.91
558.11	41809.28
558.31	42196.35
558.51	41981.31
558.71	42440.06
558.91	42386.81
559.11	42141.05
559.31	41979.26
559.51	41956.74
559.72	42128.77
559.92	42179.96
560.12	42630.52
560.32	42435.96
560.52	42227.07
560.72	42478.97
560.92	42380.67
561.12	42401.14
561.32	42538.36
561.52	42235.26
561.72	42792.31
561.93	42163.58
562.13	42798.45
562.33	42610.04
562.53	42929.52
562.73	42507.64
562.93	42622.33
563.13	42759.54
563.33	42349.95
563.53	42771.83
563.73	42460.54
563.93	42677.62
564.13	43201.90
564.33	42597.75
564.53	42931.57
564.74	43312.49
564.94	43038.06
565.14	43165.04
565.34	42644.85
565.54	43160.94
565.74	43005.30
565.94	43226.48
566.14	43402.60
566.34	43015.54
566.54	43717.99
566.74	43083.12
566.94	43562.34
567.14	43963.75
567.34	43418.99
567.54	43605.35
567.74	43425.13
567.94	43394.41
568.14	43804.00
568.34	44000.61
568.54	43812.20
568.74	43973.98
568.94	43754.85
569.14	44414.30
569.34	43824.48
569.54	44016.99
569.75	43879.78
569.95	44139.87
570.15	44227.93
570.35	44250.46
570.55	44072.29
570.75	44455.26
570.95	44520.79
571.15	44291.42
571.35	44154.21
571.55	44627.29
571.75	44565.85
571.95	44387.67
572.15	44524.89
572.35	44592.47
572.55	44260.70
572.75	44467.55
572.95	44723.54
573.15	44791.12
573.35	44524.89
573.55	44672.34
573.75	44615.00
573.95	45069.65
574.15	45028.69
574.35	45397.32
574.55	45147.47
574.75	44770.64
574.95	44784.98
575.15	44858.71
575.34	45159.76
575.54	45524.30
575.74	45366.60
575.94	45495.63
576.14	45321.55
576.34	45509.96
576.54	45520.20
576.74	45565.26
576.94	45466.95
577.14	45481.29
577.34	45753.67
577.54	45585.74
577.74	45575.50
577.94	46021.95
578.14	46353.72
578.34	45997.38
578.54	45632.84
578.74	45536.59
578.94	46093.63
579.14	45972.80
579.34	46112.06
579.54	46032.19
579.74	46286.14
579.94	46421.31
580.13	46781.75
580.33	46253.37
580.53	46572.86
580.73	46775.61
580.93	46714.17
581.13	46685.50
581.33	47254.83
581.53	46900.53
581.73	46884.15
581.93	46961.97
582.13	47052.08
582.33	46966.07
582.53	46767.41
582.73	47193.39
582.92	47357.23
583.12	47797.54
583.32	47068.47
583.52	46921.01
583.72	47439.15
583.92	47189.30
584.12	47265.07
584.32	47600.94
584.52	47592.75
584.72	47844.65
584.92	47697.19
585.11	48280.86
585.31	47639.85
585.51	47822.12
585.71	47801.64
585.91	48207.14
586.11	47953.19
586.31	47762.73
586.51	48162.08
586.71	48131.36
586.91	48168.22
587.10	48190.75
587.30	48327.97
587.50	48491.80
587.70	48420.13
587.90	48567.58
588.10	48543.00
588.30	48508.19
588.50	49261.84
588.69	48424.22
