SpectraSuite Data File
++++++++++++++++++++++++++++++++++++
Date: Fri Jun 02 14:49:30 CEST 2017
User: INFO_000
Dark Spectrum Present: No
Reference Spectrum Present: No
Number of Sampled Component Spectra: 1
Spectrometers: USB4H00879
Integration Time (usec): 80000 (USB4H00879)
Spectra Averaged: 1 (USB4H00879)
Boxcar Smoothing: 0 (USB4H00879)
Correct for Electrical Dark: No (USB4H00879)
Strobe/Lamp Enabled: No (USB4H00879)
Correct for Detector Non-linearity: No (USB4H00879)
Correct for Stray Light: No (USB4H00879)
Number of Pixels in Processed Spectrum: 3648
>>>>>Begin Processed Spectral Data<<<<<
345.13	1296.36
345.34	1296.36
345.56	1296.36
345.78	1271.79
345.99	1241.07
346.21	1697.77
346.42	1712.10
346.64	1667.05
346.86	1839.08
347.07	1660.90
347.29	1789.92
347.50	1638.38
347.72	1683.43
347.94	1722.34
348.15	1581.03
348.37	1589.22
348.59	1626.09
348.80	1665.00
349.02	1773.54
349.23	1886.18
349.45	1769.44
349.67	1978.34
349.88	1757.16
350.10	1908.71
350.31	1837.03
350.53	1779.68
350.75	1966.05
350.96	1841.12
351.18	1837.03
351.39	1918.95
351.61	1769.44
351.82	1904.61
352.04	1892.32
352.26	1814.50
352.47	1867.75
352.69	1791.97
352.90	1767.40
353.12	1808.36
353.34	1826.79
353.55	1892.32
353.77	1812.45
353.98	1814.50
354.20	1812.45
354.41	1953.76
354.63	1918.95
354.85	2072.54
355.06	1904.61
355.28	1816.55
355.49	1898.47
355.71	1812.45
355.92	1949.67
356.14	1871.84
356.35	1849.32
356.57	1798.12
356.79	1990.63
357.00	1904.61
357.22	1929.19
357.43	1869.80
357.65	2062.30
357.86	1902.56
358.08	2004.96
358.29	1943.52
358.51	2004.96
358.72	1970.15
358.94	1847.27
359.16	1910.75
359.37	1933.28
359.59	1904.61
359.80	2035.68
360.02	1900.52
360.23	1990.63
360.45	2002.91
360.66	1951.71
360.88	1925.09
361.09	1896.42
361.31	1970.15
361.52	2045.92
361.74	1978.34
361.95	2060.26
362.17	2050.02
362.38	2021.35
362.60	2009.06
362.81	1994.72
363.03	1980.39
363.24	1933.28
363.46	2127.84
363.67	1918.95
363.89	1980.39
364.10	1961.95
364.32	1953.76
364.53	2121.70
364.75	1959.91
364.96	2007.01
365.18	2119.65
365.39	2017.25
365.61	1994.72
365.82	2095.07
366.04	1998.82
366.25	1978.34
366.47	1994.72
366.68	2021.35
366.90	1931.23
367.11	2058.21
367.33	2117.60
367.54	2093.02
367.76	2002.91
367.97	2054.11
368.19	2056.16
368.40	2068.45
368.62	2002.91
368.83	2082.78
369.05	2041.82
369.26	2007.01
369.48	2009.06
369.69	2080.74
369.91	1957.86
370.12	2011.11
370.33	2160.61
370.55	1988.58
370.76	2035.68
370.98	2154.46
371.19	2086.88
371.41	2027.49
371.62	2076.64
371.84	1939.43
372.05	2244.57
372.27	2107.36
372.48	1982.43
372.69	2164.70
372.91	2187.23
373.12	2152.42
373.34	2062.30
373.55	2125.79
373.77	2189.28
373.98	2062.30
374.20	2211.81
374.41	2248.67
374.62	2168.80
374.84	2123.74
375.05	2183.13
375.27	2082.78
375.48	2113.50
375.70	2203.61
375.91	2199.52
376.12	2281.44
376.34	2234.33
376.55	2258.91
376.77	2193.37
376.98	2041.82
377.19	2174.94
377.41	2201.57
377.62	2193.37
377.84	2236.38
378.05	2222.05
378.27	2170.85
378.48	2334.68
378.69	2316.25
378.91	2248.67
379.12	2263.01
379.34	2228.19
379.55	2394.08
379.76	2246.62
379.98	2179.04
380.19	2240.48
380.41	2281.44
380.62	2287.58
380.83	2289.63
381.05	2228.19
381.26	2351.07
381.47	2191.33
381.69	2222.05
381.90	2418.65
382.12	2303.96
382.33	2295.77
382.54	2273.25
382.76	2273.25
382.97	2404.32
383.19	2170.85
383.40	2359.26
383.61	2342.88
383.83	2273.25
384.04	2355.16
384.25	2383.84
384.47	2359.26
384.68	2312.16
384.89	2291.68
385.11	2447.32
385.32	2351.07
385.54	2367.45
385.75	2377.69
385.96	2437.08
386.18	2519.00
386.39	2336.73
386.60	2392.03
386.82	2471.90
387.03	2478.04
387.24	2496.47
387.46	2412.51
387.67	2496.47
387.88	2490.33
388.10	2504.67
388.31	2451.42
388.52	2473.95
388.74	2551.77
388.95	2465.75
389.16	2492.38
389.38	2426.84
389.59	2562.01
389.80	2541.53
390.02	2535.39
390.23	2709.46
390.44	2469.85
390.66	2584.54
390.87	2463.71
391.08	2660.31
391.30	2783.19
391.51	2768.85
391.72	2736.09
391.94	2582.49
392.15	2596.82
392.36	2611.16
392.58	2568.15
392.79	2682.84
393.00	2727.89
393.22	2729.94
393.43	2770.90
393.64	2846.68
393.85	2756.57
394.07	2582.49
394.28	2727.89
394.49	2711.51
394.71	2748.37
394.92	2742.23
395.13	2805.72
395.35	2711.51
395.56	2824.15
395.77	2719.70
395.98	2856.92
396.20	2861.01
396.41	2846.68
396.62	2953.17
396.84	2803.67
397.05	2789.33
397.26	2791.38
397.47	2922.45
397.69	2791.38
397.90	2959.31
398.11	2889.68
398.32	2869.20
398.54	2842.58
398.75	2848.72
398.96	2936.79
399.18	3047.38
399.39	2897.88
399.60	3024.85
399.81	2969.55
400.03	2992.08
400.24	3235.79
400.45	2936.79
400.66	3074.00
400.88	3102.67
401.09	3299.28
401.30	3106.77
401.51	3053.52
401.73	3084.24
401.94	3108.82
402.15	3213.26
402.36	3139.54
402.58	3164.11
402.79	3143.63
403.00	3133.39
403.21	3174.35
403.43	3217.36
403.64	3223.50
403.85	3088.34
404.06	3229.65
404.27	3114.96
404.49	3274.70
404.70	3170.26
404.91	3133.39
405.12	3268.56
405.34	3239.89
405.55	3399.63
405.76	3088.34
405.97	3346.38
406.19	3383.24
406.40	3239.89
406.61	3225.55
406.82	3221.45
407.03	3307.47
407.25	3198.93
407.46	3370.96
407.67	3426.25
407.88	3426.25
408.09	3268.56
408.31	3373.00
408.52	3395.53
408.73	3418.06
408.94	3360.72
409.15	3311.57
409.37	3530.70
409.58	3483.59
409.79	3436.49
410.00	3524.55
410.21	3319.76
410.43	3385.29
410.64	3391.44
410.85	3620.81
411.06	3522.51
411.27	3626.95
411.48	3641.29
411.70	3450.83
411.91	3522.51
412.12	3727.30
412.33	3538.89
412.54	3616.71
412.76	3661.77
412.97	3624.90
413.18	3530.70
413.39	3569.61
413.60	3798.98
413.81	3629.00
414.03	3690.44
414.24	3731.40
414.45	3784.65
414.66	3645.38
414.87	3776.45
415.08	3735.50
415.30	3731.40
415.51	3788.74
415.72	3715.02
415.93	3760.07
416.14	3833.80
416.35	3700.68
416.56	3706.82
416.78	3768.26
416.99	3809.22
417.20	3747.78
417.41	3973.06
417.62	3887.04
417.83	4108.23
418.04	3727.30
418.26	4038.59
418.47	3948.48
418.68	3971.01
418.89	4016.07
419.10	4108.23
419.31	3958.72
419.52	4075.46
419.73	4032.45
419.95	4128.70
420.16	4026.31
420.37	4067.27
420.58	3997.64
420.79	3962.82
421.00	3995.59
421.21	4151.23
421.42	3985.35
421.63	4095.94
421.85	4206.53
422.06	4218.82
422.27	4108.23
422.48	4245.44
422.69	4310.97
422.90	4173.76
423.11	4327.36
423.32	4310.97
423.53	4366.27
423.75	4257.73
423.96	4450.24
424.17	4356.03
424.38	4517.82
424.59	4450.24
424.80	4652.98
425.01	4431.80
425.22	4403.13
425.43	4370.37
425.64	4474.81
425.85	4708.28
426.06	4552.63
426.28	4530.11
426.49	4452.28
426.70	4548.54
426.91	4591.55
427.12	4552.63
427.33	4509.63
427.54	4655.03
427.75	4681.66
427.96	4722.62
428.17	4691.90
428.38	4833.21
428.59	4747.19
428.80	4714.42
429.01	4775.86
429.23	4853.69
429.44	4974.52
429.65	4921.27
429.86	4853.69
430.07	4788.15
430.28	4755.38
430.49	4868.02
430.70	5048.24
430.91	5058.48
431.12	4960.18
431.33	5101.49
431.54	5140.40
431.75	5117.87
431.96	5066.67
432.17	5085.11
432.38	5007.28
432.59	5218.22
432.80	5228.46
433.01	5351.34
433.22	5345.20
433.43	5193.65
433.64	5218.22
433.85	5183.41
434.06	5382.06
434.27	5197.74
434.49	5433.26
434.70	5470.12
434.91	5455.79
435.12	5435.31
435.33	5476.27
435.54	5410.73
435.75	5302.19
435.96	5423.02
436.17	5296.05
436.38	5504.94
436.59	5476.27
436.80	5496.75
437.01	5687.21
437.22	5851.05
437.43	5619.63
437.64	5373.87
437.85	5597.10
438.06	5640.11
438.27	5543.85
438.48	5633.96
438.69	5861.29
438.90	5859.24
439.11	5664.68
439.32	5785.51
439.53	5709.74
439.74	5855.14
439.95	5877.67
440.16	5924.77
440.37	5900.20
440.57	5603.24
440.78	5914.53
440.99	6039.46
441.20	5797.80
441.41	5812.14
441.62	5951.40
441.83	5826.47
442.04	5959.59
442.25	5889.96
442.46	5959.59
442.67	6068.13
442.88	6428.57
443.09	5869.48
443.30	6111.14
443.51	6004.64
443.72	6238.11
443.93	6143.91
444.14	6418.33
444.35	6113.19
444.56	6330.27
444.77	6309.79
444.98	6274.98
445.19	6451.10
445.40	6285.22
445.61	6262.69
445.81	6387.61
446.02	6307.74
446.23	6344.61
446.44	6279.07
446.65	6616.99
446.86	6295.46
447.07	6692.76
447.28	6696.86
447.49	6700.95
447.70	6500.25
447.91	6637.47
448.12	6795.16
448.33	6657.95
448.54	6741.91
448.74	6520.73
448.95	6758.30
449.16	6762.39
449.37	6868.89
449.58	6672.28
449.79	6866.84
450.00	6723.48
450.21	6959.00
450.42	7092.12
450.63	7094.16
450.84	6854.55
451.05	6848.41
451.25	7118.74
451.46	6948.76
451.67	7149.46
451.88	7241.62
452.09	6989.72
452.30	6995.86
452.51	7108.50
452.72	7327.63
452.93	7569.29
453.13	7174.03
453.34	7208.85
453.55	7266.19
453.76	7276.43
453.97	7823.24
454.18	7309.20
454.39	7446.41
454.60	7440.27
454.81	7251.86
455.01	7546.76
455.22	7260.05
455.43	7483.28
455.64	7718.79
455.85	7813.00
456.06	7921.54
456.27	7737.23
456.48	7872.39
456.68	7866.25
456.89	7841.67
457.10	7880.58
457.31	7862.15
457.52	7925.64
457.73	7982.98
457.94	8224.64
458.14	7831.43
458.35	8238.98
458.56	8105.86
458.77	8087.43
458.98	8462.21
459.19	8376.19
459.39	8394.62
459.60	8556.41
459.81	8281.99
460.02	8628.09
460.23	8298.37
460.44	8697.72
460.65	8626.04
460.85	8877.94
461.06	8732.54
461.27	8503.17
461.48	9015.16
461.69	9138.04
461.89	8644.48
462.10	8902.52
462.31	8578.94
462.52	8992.63
462.73	8857.46
462.94	9183.09
463.14	8961.91
463.35	9113.46
463.56	9406.32
463.77	9537.39
463.98	9179.00
464.18	9215.86
464.39	9449.33
464.60	9744.24
464.81	9617.26
465.02	9324.40
465.23	9842.54
465.43	9588.59
465.64	9836.39
465.85	9889.64
466.06	9752.43
466.27	10133.35
466.47	10151.78
466.68	10055.53
466.89	10033.00
467.10	10178.40
467.30	9967.46
467.51	10159.97
467.72	10473.31
467.93	10184.55
468.14	10258.28
468.34	10350.43
468.55	10553.18
468.76	10420.06
468.97	10393.44
469.17	10516.32
469.38	10682.20
469.59	10895.19
469.80	10524.51
470.01	10876.76
470.21	11005.78
470.42	11272.02
470.63	11065.18
470.84	11044.70
471.04	11304.79
471.25	11398.99
471.46	11202.39
471.67	11429.71
471.87	11442.00
472.08	11501.39
472.29	11669.33
472.50	11331.41
472.70	11663.18
472.91	11734.86
473.12	11718.48
473.33	11732.81
473.53	11994.95
473.74	11816.78
473.95	12222.28
474.16	12332.87
474.36	12191.56
474.57	12404.55
474.78	12658.49
474.99	12627.78
475.19	12369.73
475.40	12668.73
475.61	12697.41
475.81	12748.61
476.02	12887.87
476.23	12973.88
476.44	12918.59
476.64	13379.38
476.85	13406.00
477.06	13338.42
477.27	13543.22
477.47	13848.36
477.68	13674.29
477.89	13944.62
478.09	13596.46
478.30	13809.45
478.51	13633.33
478.71	14108.46
478.92	14030.63
479.13	14020.39
479.34	14419.75
479.54	14313.25
479.75	14321.45
479.96	14524.19
480.16	14546.72
480.37	14667.55
480.58	14806.81
480.78	15105.82
480.99	14939.93
481.20	15036.19
481.41	15181.59
481.61	15283.99
481.82	15341.33
482.03	15275.80
482.23	15331.09
482.44	15662.86
482.65	15834.89
482.85	15988.49
483.06	15884.05
483.27	16035.60
483.47	15937.29
483.68	16047.88
483.89	16158.47
484.09	16205.58
484.30	16283.40
484.51	16756.48
484.71	16451.33
484.92	16723.71
485.13	16762.62
485.33	16783.10
485.54	16883.45
485.75	17123.07
485.95	17180.41
486.16	17217.27
486.37	17190.65
486.57	16996.09
486.78	17506.04
486.98	17581.81
487.19	17755.89
487.40	17977.07
487.60	17776.37
487.81	17874.67
488.02	18046.70
488.22	18120.43
488.43	18026.22
488.64	18255.59
488.84	18294.50
489.05	18226.92
489.25	18661.09
489.46	18728.67
489.67	18841.31
489.87	19009.25
490.08	18882.27
490.29	18779.87
490.49	19371.74
490.70	19308.25
490.90	19480.28
491.11	19255.00
491.32	19306.20
491.52	19619.54
491.73	19261.15
491.94	19822.29
492.14	19787.47
492.35	20078.29
492.55	20029.13
492.76	20043.47
492.97	20205.26
493.17	20117.20
493.38	20225.74
493.58	20543.17
493.79	20461.26
494.00	20473.54
494.20	20635.33
494.41	20629.19
494.61	20817.60
494.82	20885.19
495.02	21069.50
495.23	21300.92
495.44	21083.84
495.64	21333.69
495.85	21409.47
496.05	21540.54
496.26	21505.72
496.47	21589.69
496.67	21567.16
496.88	21989.04
497.08	21575.35
497.29	22027.95
497.49	21952.18
497.70	21948.08
497.91	22255.28
498.11	22417.07
498.32	22208.17
498.52	22419.11
498.73	22578.86
498.93	22886.05
499.14	22836.90
499.34	22636.20
499.55	22845.09
499.76	22826.66
499.96	23017.12
500.17	23254.69
500.37	23101.09
500.58	23152.29
500.78	23451.29
500.99	23447.19
501.19	23443.10
501.40	23625.37
501.60	23633.56
501.81	23426.71
502.02	23717.53
502.22	23312.03
502.43	24047.25
502.63	24053.39
502.84	24039.06
503.04	23903.89
503.25	24010.39
503.45	24233.61
503.66	24219.28
503.86	24465.03
504.07	24714.89
504.27	24297.10
504.48	24639.11
504.68	24460.94
504.89	24753.80
505.09	24698.50
505.30	24708.74
505.50	24776.33
505.71	24823.43
505.91	24747.65
506.12	24913.54
506.32	24805.00
506.53	25394.81
506.73	25071.23
506.94	25048.71
507.14	25511.55
507.35	25792.12
507.55	25534.07
507.76	25632.38
507.96	25628.28
508.17	25796.21
508.37	25706.10
508.58	25681.53
508.78	25941.62
508.99	26093.17
509.19	26001.01
509.40	26160.75
509.60	26166.90
509.81	26058.35
510.01	26093.17
510.22	26437.23
510.42	26470.00
510.63	26281.58
510.83	26832.49
511.04	26594.92
511.24	26838.63
511.44	26275.44
511.65	26625.64
511.85	26599.02
512.06	26588.78
512.26	26979.94
512.47	26938.98
512.67	27006.56
512.88	26828.39
513.08	26844.77
513.29	27354.72
513.49	27106.91
513.69	27098.72
513.90	27467.36
514.10	27625.05
514.31	27450.97
514.51	27465.31
514.72	27547.23
514.92	27385.44
515.13	27395.68
515.33	27580.00
515.53	27809.37
515.74	27569.76
515.94	27606.62
516.15	27815.51
516.35	27672.15
516.56	27919.96
516.76	28001.88
516.96	27985.49
517.17	27876.95
517.37	28100.18
517.58	28116.56
517.78	28194.39
517.99	28423.76
518.19	28229.20
518.39	28722.76
518.60	28546.64
518.80	28513.87
519.01	28788.30
519.21	28536.40
519.41	28921.41
519.62	28771.91
519.82	28984.90
520.03	29400.64
520.23	29079.11
520.43	29060.68
520.64	29036.10
520.84	29247.04
521.05	29095.49
521.25	29326.91
521.45	29169.22
521.66	29779.51
521.86	29462.08
522.07	29392.45
522.27	29478.46
522.47	29636.16
522.68	29843.00
522.88	29709.88
523.08	29845.05
523.29	29976.12
523.49	29855.29
523.70	30387.76
523.90	30250.55
524.10	30465.58
524.31	30420.53
524.51	30207.54
524.71	30610.99
524.92	30461.49
525.12	30744.11
525.33	30502.45
525.53	30596.65
525.73	30834.22
525.94	31069.73
526.14	30774.83
526.34	31010.34
526.55	31069.73
526.75	31002.15
526.95	31196.71
527.16	31303.20
527.36	31417.89
527.56	31604.25
527.77	31657.50
527.97	31620.64
528.17	31706.65
528.38	31931.93
528.58	32065.05
528.78	32206.36
528.99	31796.76
529.19	32149.01
529.39	31931.93
529.60	32392.72
529.80	32507.41
530.00	32546.32
530.21	32796.17
530.41	32609.81
530.61	32880.14
530.82	32843.27
531.02	32869.90
531.22	32933.39
531.43	32765.45
531.63	33111.56
531.83	33254.92
532.04	33338.88
532.24	33150.47
532.44	33351.17
532.64	33869.31
532.85	33963.51
533.05	33807.87
533.25	33895.93
533.46	33711.61
533.66	34059.77
533.86	34334.20
534.07	34416.11
534.27	34354.68
534.47	34733.55
534.67	34385.40
534.88	34186.74
535.08	34549.23
535.28	34803.18
535.49	34852.33
535.69	35059.18
535.89	35292.65
536.09	35108.33
536.30	35415.52
536.50	35026.41
536.70	35388.90
536.91	35194.34
537.11	35507.68
537.31	35689.95
537.51	35728.86
537.72	35921.37
537.92	35849.69
538.12	36392.40
538.32	35718.62
538.53	36285.91
538.73	36097.50
538.93	36072.92
539.13	36251.09
539.34	36410.84
539.54	36484.56
539.74	36713.94
539.94	36365.78
540.15	36730.32
540.35	36986.32
540.55	36799.95
540.75	36902.35
540.96	37139.91
541.16	37135.82
541.36	37393.86
541.56	37006.80
541.77	37561.79
541.97	37215.69
542.17	37696.96
542.37	37299.65
542.58	37324.23
542.78	37778.88
542.98	37985.72
543.18	37993.92
543.38	38507.96
543.59	38467.00
543.79	38077.88
543.99	38110.65
544.19	38067.64
544.40	38360.50
544.60	38729.14
544.80	38501.81
545.00	38540.72
545.20	38790.58
545.41	38796.72
545.61	39069.10
545.81	38852.02
546.01	38989.23
546.21	38532.53
546.42	38970.80
546.62	39089.58
546.82	39263.66
547.02	39122.35
547.22	39685.54
547.43	39466.41
547.63	39130.54
547.83	39259.56
548.03	39335.34
548.23	39673.25
548.44	39550.37
548.64	39658.91
548.84	39447.97
549.04	39310.76
549.24	39787.94
549.45	39941.53
549.65	39998.88
549.85	39976.35
550.05	40230.30
550.25	39937.44
550.45	40885.65
550.66	40203.67
550.86	40023.45
551.06	40351.13
551.26	40703.38
551.46	40555.93
551.66	40541.59
551.87	40261.02
552.07	40488.34
552.27	40529.30
552.47	40742.29
552.67	41061.77
552.87	40588.69
553.07	40779.15
553.28	40942.99
553.48	41338.25
553.68	41033.10
553.88	41174.41
554.08	41528.71
554.28	41518.47
554.48	41436.55
554.69	41358.73
554.89	41594.25
555.09	41629.06
555.29	41321.87
555.49	41522.57
555.69	41624.96
555.89	41627.01
556.10	42163.58
556.30	41674.12
556.50	41932.16
556.70	41670.02
556.90	42016.13
557.10	41923.97
557.30	41530.76
557.50	41919.87
557.70	42165.63
557.91	42317.18
558.11	42409.34
558.31	42278.27
558.51	42329.47
558.71	41952.64
558.91	43015.54
559.11	42351.99
559.31	42435.96
559.51	42374.52
559.72	42546.55
559.92	42558.84
560.12	42292.60
560.32	42941.81
560.52	42407.29
560.72	42534.26
560.92	42929.52
561.12	43011.44
561.32	42956.14
561.52	42618.23
561.72	43353.45
561.93	43015.54
562.13	43369.83
562.33	42888.56
562.53	43763.04
562.73	43349.35
562.93	43013.49
563.13	43480.42
563.33	43619.69
563.53	43267.44
563.73	42906.99
563.93	43539.82
564.13	43873.63
564.33	43410.79
564.53	43367.79
564.74	43677.03
564.94	43253.10
565.14	43464.04
565.34	43392.36
565.54	43808.10
565.74	43789.67
565.94	44148.06
566.14	43863.39
566.34	43509.10
566.54	44588.38
566.74	43867.49
566.94	44066.14
567.14	43892.07
567.34	43711.84
567.54	44293.47
567.74	44197.21
567.94	44127.58
568.14	44375.39
568.34	44610.90
568.54	43816.29
568.74	44635.48
568.94	44170.59
569.14	44576.09
569.34	44778.84
569.54	44592.47
569.75	44524.89
569.95	44596.57
570.15	44893.52
570.35	44615.00
570.55	44766.55
570.75	44969.30
570.95	44762.45
571.15	44688.73
571.35	44715.35
571.55	45131.09
571.75	44907.86
571.95	45395.28
572.15	44729.69
572.35	45342.03
572.55	45231.44
572.75	45362.51
572.95	45331.79
573.15	45241.68
573.35	45569.35
573.55	45116.75
573.75	45327.69
573.95	45282.64
574.15	45172.05
574.35	45610.31
574.55	45393.23
574.75	45466.95
574.95	45559.11
575.15	45544.78
575.34	45786.44
575.54	45628.74
575.74	45778.25
575.94	45933.89
576.14	45880.64
576.34	46087.49
576.54	46546.23
576.74	46585.15
576.94	46114.11
577.14	46851.38
577.34	46490.94
577.54	46218.56
577.74	46374.20
577.94	46241.09
578.14	46294.33
578.34	46665.02
578.54	45860.16
578.74	46089.54
578.94	46650.68
579.14	46218.56
579.34	46652.73
579.54	46665.02
579.74	46814.52
579.94	46941.49
580.13	47236.40
580.33	47230.26
580.53	47394.09
580.73	46871.86
580.93	46970.16
581.13	46773.56
581.33	47433.00
581.53	47205.68
581.73	47252.78
581.93	47453.48
582.13	47457.58
582.33	47324.46
582.53	47228.21
582.73	47310.13
582.92	47641.90
583.12	47727.91
583.32	47682.86
583.52	47160.62
583.72	47723.82
583.92	47519.02
584.12	48078.11
584.32	48207.14
584.52	47451.44
584.72	47887.65
584.92	48229.66
585.11	48284.96
585.31	47891.75
585.51	48022.82
585.71	47945.00
585.91	48264.48
586.11	48121.12
586.31	48274.72
586.51	48289.06
586.71	47953.19
586.91	48635.16
587.10	48164.13
587.30	48583.96
587.50	48549.15
587.70	48747.80
587.90	48973.08
588.10	48581.91
588.30	48545.05
588.50	48686.36
