SpectraSuite Data File
++++++++++++++++++++++++++++++++++++
Date: Fri Jun 02 14:49:28 CEST 2017
User: INFO_000
Dark Spectrum Present: No
Reference Spectrum Present: No
Number of Sampled Component Spectra: 1
Spectrometers: USB4H00879
Integration Time (usec): 80000 (USB4H00879)
Spectra Averaged: 1 (USB4H00879)
Boxcar Smoothing: 0 (USB4H00879)
Correct for Electrical Dark: No (USB4H00879)
Strobe/Lamp Enabled: No (USB4H00879)
Correct for Detector Non-linearity: No (USB4H00879)
Correct for Stray Light: No (USB4H00879)
Number of Pixels in Processed Spectrum: 3648
>>>>>Begin Processed Spectral Data<<<<<
345.13	1296.36
345.34	1296.36
345.56	1296.36
345.78	1282.03
345.99	1241.07
346.21	1699.81
346.42	1636.33
346.64	1607.66
346.86	1777.64
347.07	1673.19
347.29	1724.39
347.50	1671.14
347.72	1679.33
347.94	1869.80
348.15	1617.90
348.37	1671.14
348.59	1644.52
348.80	1671.14
349.02	1748.97
349.23	1884.13
349.45	1800.16
349.67	1953.76
349.88	1837.03
350.10	1918.95
350.31	1824.74
350.53	1902.56
350.75	1972.19
350.96	1828.84
351.18	1892.32
351.39	1877.99
351.61	1794.02
351.82	1863.65
352.04	1888.23
352.26	1849.32
352.47	1929.19
352.69	1898.47
352.90	1779.68
353.12	1869.80
353.34	1822.69
353.55	1898.47
353.77	1910.75
353.98	1773.54
354.20	1806.31
354.41	1888.23
354.63	1957.86
354.85	1992.67
355.06	1927.14
355.28	1839.08
355.49	1906.66
355.71	1849.32
355.92	1843.17
356.14	1937.38
356.35	1861.60
356.57	1896.42
356.79	1939.43
357.00	1851.36
357.22	1978.34
357.43	1830.88
357.65	2023.39
357.86	1830.88
358.08	1863.65
358.29	1945.57
358.51	2041.82
358.72	2035.68
358.94	1937.38
359.16	1918.95
359.37	1966.05
359.59	1859.56
359.80	2035.68
360.02	1918.95
360.23	1910.75
360.45	2027.49
360.66	1957.86
360.88	1830.88
361.09	1986.53
361.31	2056.16
361.52	2000.87
361.74	2062.30
361.95	2043.87
362.17	1957.86
362.38	2121.70
362.60	2054.11
362.81	2007.01
363.03	1978.34
363.24	1998.82
363.46	2041.82
363.67	2037.73
363.89	1970.15
364.10	1951.71
364.32	1959.91
364.53	2109.41
364.75	1896.42
364.96	2023.39
365.18	1990.63
365.39	2000.87
365.61	1892.32
365.82	2164.70
366.04	1912.80
366.25	1968.10
366.47	2068.45
366.68	1982.43
366.90	1912.80
367.11	2076.64
367.33	2133.98
367.54	2052.06
367.76	2054.11
367.97	2133.98
368.19	1992.67
368.40	2074.59
368.62	1972.19
368.83	2033.63
369.05	2013.15
369.26	1976.29
369.48	1986.53
369.69	1978.34
369.91	2093.02
370.12	2066.40
370.33	2117.60
370.55	2058.21
370.76	2093.02
370.98	2066.40
371.19	2133.98
371.41	2000.87
371.62	2131.94
371.84	2029.54
372.05	2203.61
372.27	2080.74
372.48	2058.21
372.69	2117.60
372.91	2111.46
373.12	2107.36
373.34	2090.98
373.55	2082.78
373.77	2183.13
373.98	2086.88
374.20	2154.46
374.41	2279.39
374.62	2166.75
374.84	2109.41
375.05	2133.98
375.27	2131.94
375.48	2183.13
375.70	2154.46
375.91	2111.46
376.12	2318.30
376.34	2107.36
376.55	2215.90
376.77	2174.94
376.98	2111.46
377.19	2168.80
377.41	2066.40
377.62	2138.08
377.84	2234.33
378.05	2373.60
378.27	2211.81
378.48	2355.16
378.69	2342.88
378.91	2314.20
379.12	2166.75
379.34	2213.85
379.55	2269.15
379.76	2263.01
379.98	2185.18
380.19	2279.39
380.41	2228.19
380.62	2320.35
380.83	2260.96
381.05	2195.42
381.26	2379.74
381.47	2267.10
381.69	2330.59
381.90	2400.22
382.12	2363.36
382.33	2254.81
382.54	2252.77
382.76	2299.87
382.97	2303.96
383.19	2215.90
383.40	2318.30
383.61	2338.78
383.83	2408.41
384.04	2291.68
384.25	2267.10
384.47	2445.27
384.68	2275.29
384.89	2246.62
385.11	2324.44
385.32	2398.17
385.54	2303.96
385.75	2273.25
385.96	2435.03
386.18	2373.60
386.39	2496.47
386.60	2465.75
386.82	2394.08
387.03	2389.98
387.24	2420.70
387.46	2416.60
387.67	2570.20
387.88	2510.81
388.10	2420.70
388.31	2422.75
388.52	2574.30
388.74	2547.67
388.95	2486.23
389.16	2453.47
389.38	2498.52
389.59	2613.21
389.80	2613.21
390.02	2588.63
390.23	2594.78
390.44	2523.10
390.66	2557.91
390.87	2412.51
391.08	2688.98
391.30	2693.08
391.51	2619.35
391.72	2650.07
391.94	2648.02
392.15	2592.73
392.36	2541.53
392.58	2547.67
392.79	2678.74
393.00	2602.97
393.22	2633.69
393.43	2715.61
393.64	2787.29
393.85	2725.85
394.07	2609.11
394.28	2723.80
394.49	2721.75
394.71	2684.89
394.92	2723.80
395.13	2795.48
395.35	2721.75
395.56	2719.70
395.77	2705.37
395.98	2772.95
396.20	2906.07
396.41	2809.81
396.62	2858.96
396.84	2834.39
397.05	2754.52
397.26	2895.83
397.47	2904.02
397.69	2807.77
397.90	3067.86
398.11	2869.20
398.32	2822.10
398.54	2828.24
398.75	2877.40
398.96	2914.26
399.18	3030.99
399.39	2987.99
399.60	3045.33
399.81	2994.13
400.03	3000.27
400.24	3211.22
400.45	2895.83
400.66	3035.09
400.88	3020.75
401.09	3164.11
401.30	2944.98
401.51	3096.53
401.73	2947.03
401.94	3168.21
402.15	3180.50
402.36	3051.47
402.58	3198.93
402.79	3119.06
403.00	3117.01
403.21	3213.26
403.43	3203.02
403.64	3215.31
403.85	3119.06
404.06	3221.45
404.27	3026.90
404.49	3192.78
404.70	3194.83
404.91	3284.94
405.12	3276.75
405.34	3139.54
405.55	3258.32
405.76	3272.65
405.97	3200.98
406.19	3364.81
406.40	3270.61
406.61	3434.44
406.82	3289.04
407.03	3280.85
407.25	3297.23
407.46	3450.83
407.67	3471.31
407.88	3454.92
408.09	3309.52
408.31	3383.24
408.52	3405.77
408.73	3354.57
408.94	3325.90
409.15	3395.53
409.37	3502.03
409.58	3454.92
409.79	3407.82
410.00	3477.45
410.21	3311.57
410.43	3475.40
410.64	3411.92
410.85	3518.41
411.06	3485.64
411.27	3563.47
411.48	3606.47
411.70	3510.22
411.91	3553.23
412.12	3602.38
412.33	3631.05
412.54	3516.36
412.76	3608.52
412.97	3647.43
413.18	3555.27
413.39	3637.19
413.60	3672.01
413.81	3555.27
414.03	3710.92
414.24	3631.05
414.45	3829.70
414.66	3598.28
414.87	3698.63
415.08	3674.06
415.30	3596.23
415.51	3798.98
415.72	3801.03
415.93	3809.22
416.14	3745.73
416.35	3772.36
416.56	3764.17
416.78	3690.44
416.99	3831.75
417.20	3796.93
417.41	3780.55
417.62	3801.03
417.83	3905.48
418.04	3887.04
418.26	3911.62
418.47	3889.09
418.68	3997.64
418.89	4007.87
419.10	4032.45
419.31	4026.31
419.52	4063.17
419.73	4003.78
419.95	3991.49
420.16	3876.80
420.37	3999.68
420.58	3870.66
420.79	3977.16
421.00	4110.27
421.21	4120.51
421.42	4091.84
421.63	4042.69
421.85	3960.77
422.06	4149.18
422.27	4165.57
422.48	4171.71
422.69	4235.20
422.90	4138.94
423.11	4288.45
423.32	4261.82
423.53	4411.32
423.75	4296.64
423.96	4380.61
424.17	4249.54
424.38	4476.86
424.59	4462.52
424.80	4622.27
425.01	4380.61
425.22	4327.36
425.43	4370.37
425.64	4628.41
425.85	4650.94
426.06	4521.92
426.28	4581.31
426.49	4394.94
426.70	4497.34
426.91	4544.44
427.12	4562.87
427.33	4700.09
427.54	4423.61
427.75	4693.94
427.96	4806.58
428.17	4681.66
428.38	4728.76
428.59	4749.24
428.80	4790.20
429.01	4749.24
429.23	4880.31
429.44	5017.52
429.65	4923.32
429.86	4853.69
430.07	4827.06
430.28	4827.06
430.49	4968.37
430.70	4927.41
430.91	5042.10
431.12	5001.14
431.33	5197.74
431.54	5015.48
431.75	5085.11
431.96	5089.20
432.17	5048.24
432.38	5056.43
432.59	5199.79
432.80	5275.57
433.01	5201.84
433.22	5248.94
433.43	5171.12
433.64	5294.00
433.85	5107.63
434.06	5263.28
434.27	5312.43
434.49	5291.95
434.70	5504.94
434.91	5316.53
435.12	5463.98
435.33	5599.15
435.54	5480.36
435.75	5431.21
435.96	5418.93
436.17	5369.77
436.38	5674.92
436.59	5674.92
436.80	5478.32
437.01	5877.67
437.22	5867.43
437.43	5781.42
437.64	5515.18
437.85	5765.03
438.06	5832.62
438.27	5687.21
438.48	5697.45
438.69	5683.11
438.90	5851.05
439.11	5748.65
439.32	5799.85
439.53	5803.94
439.74	5785.51
439.95	5791.66
440.16	5937.06
440.37	5984.16
440.57	5939.11
440.78	6000.55
440.99	6178.72
441.20	5953.45
441.41	5961.64
441.62	6006.69
441.83	5937.06
442.04	6127.52
442.25	5994.40
442.46	6014.88
442.67	6145.95
442.88	6539.16
443.09	5980.07
443.30	6102.95
443.51	6207.39
443.72	6342.56
443.93	6201.25
444.14	6453.15
444.35	6068.13
444.56	6315.94
444.77	6373.28
444.98	6295.46
445.19	6412.19
445.40	6479.77
445.61	6279.07
445.81	6483.87
446.02	6422.43
446.23	6455.20
446.44	6260.64
446.65	6375.33
446.86	6442.91
447.07	6569.88
447.28	6610.84
447.49	6619.04
447.70	6459.29
447.91	6555.55
448.12	6533.02
448.33	6698.91
448.54	6604.70
448.74	6739.87
448.95	6688.67
449.16	6659.99
449.37	6842.26
449.58	6684.57
449.79	6938.52
450.00	6743.96
450.21	6971.29
450.42	6961.05
450.63	6897.56
450.84	6838.17
451.05	7038.87
451.25	7028.63
451.46	6905.75
451.67	6969.24
451.88	7161.75
452.09	7055.25
452.30	6946.71
452.51	7212.95
452.72	7217.04
452.93	7427.98
453.13	7128.98
453.34	7155.60
453.55	7266.19
453.76	7210.90
453.97	7495.57
454.18	7344.02
454.39	7444.37
454.60	7427.98
454.81	7368.59
455.01	7423.89
455.22	7348.11
455.43	7589.77
455.64	7763.85
455.85	7851.91
456.06	7856.01
456.27	7780.23
456.48	7647.12
456.68	7847.82
456.89	7827.34
457.10	7827.34
457.31	7815.05
457.52	7745.42
457.73	7874.44
457.94	8247.17
458.14	7813.00
458.35	8202.11
458.56	8134.53
458.77	8097.67
458.98	8005.51
459.19	8191.88
459.39	8292.23
459.60	8417.15
459.81	8210.31
460.02	8429.44
460.23	8402.82
460.44	8511.36
460.65	8591.23
460.85	8689.53
461.06	8675.20
461.27	8374.14
461.48	8738.68
461.69	8816.51
461.89	8511.36
462.10	8804.22
462.31	8669.05
462.52	8644.48
462.73	8728.44
462.94	9219.96
463.14	8966.01
463.35	9019.25
463.56	9381.74
463.77	9383.79
463.98	8996.73
464.18	9219.96
464.39	9342.83
464.60	9541.49
464.81	9561.97
465.02	9373.55
465.23	9627.50
465.43	9506.67
465.64	9652.08
465.85	9580.40
466.06	9744.24
466.27	9957.22
466.47	9824.11
466.68	9877.35
466.89	9754.48
467.10	10033.00
467.30	9799.53
467.51	9963.37
467.72	10184.55
467.93	9838.44
468.14	10254.18
468.34	10598.24
468.55	10297.19
468.76	10493.79
468.97	10225.51
469.17	10551.14
469.38	10669.92
469.59	10661.73
469.80	10643.29
470.01	10704.73
470.21	10676.06
470.42	11095.89
470.63	11095.89
470.84	11032.41
471.04	11218.77
471.25	11093.85
471.46	11083.61
471.67	11403.09
471.87	11294.55
472.08	11439.95
472.29	11890.51
472.50	11339.60
472.70	11638.61
472.91	11591.50
473.12	11779.92
473.33	11722.57
473.53	12011.34
473.74	11900.75
473.95	12171.08
474.16	12283.72
474.36	12435.27
474.57	12656.45
474.78	12660.54
474.99	12449.60
475.19	12545.86
475.40	12805.95
475.61	12945.21
475.81	12977.98
476.02	13100.86
476.23	12947.26
476.44	13074.23
476.64	13287.22
476.85	13465.39
477.06	13379.38
477.27	13707.05
477.47	13524.79
477.68	13670.19
477.89	13788.97
478.09	13696.82
478.30	13795.12
478.51	13920.04
478.71	14266.15
478.92	14212.90
479.13	14305.06
479.34	14468.90
479.54	14257.96
479.75	14608.16
479.96	14683.94
480.16	14677.79
480.37	14915.36
480.58	14896.92
480.78	15306.52
480.99	15210.26
481.20	15306.52
481.41	15552.27
481.61	15273.75
481.82	15380.25
482.03	15523.60
482.23	15417.11
482.44	15843.09
482.65	15828.75
482.85	16037.64
483.06	16011.02
483.27	16047.88
483.47	16170.76
483.68	16170.76
483.89	16582.40
484.09	16336.65
484.30	16705.28
484.51	16711.42
484.71	16862.97
484.92	16795.39
485.13	17053.44
485.33	17051.39
485.54	16766.72
485.75	17194.75
485.95	17633.01
486.16	17540.85
486.37	17557.24
486.57	17428.21
486.78	17442.55
486.98	17714.93
487.19	17919.73
487.40	17889.01
487.60	17919.73
487.81	17913.58
488.02	18118.38
488.22	18194.15
488.43	18372.33
488.64	18450.15
488.84	18591.46
489.05	18599.65
489.25	18695.91
489.46	18689.76
489.67	19001.05
489.87	18917.09
490.08	19162.84
490.29	19205.85
490.49	19400.41
490.70	19379.93
490.90	19560.15
491.11	19437.27
491.32	19502.81
491.52	19539.67
491.73	19394.26
491.94	19590.87
492.14	19789.52
492.35	20094.67
492.55	20055.76
492.76	19922.64
492.97	20317.90
493.17	20096.72
493.38	20387.53
493.58	20487.88
493.79	20721.35
494.00	20606.66
494.20	20813.51
494.41	20766.40
494.61	20924.10
494.82	20848.32
495.02	21305.02
495.23	20993.73
495.44	21096.13
495.64	21237.44
495.85	21294.78
496.05	21481.14
496.26	21327.55
496.47	21696.18
496.67	21286.59
496.88	21888.69
497.08	21567.16
497.29	22015.66
497.49	21763.76
497.70	21978.80
497.91	21995.18
498.11	22015.66
498.32	22099.63
498.52	22533.80
498.73	22861.48
498.93	22406.83
499.14	22402.73
499.34	22488.74
499.55	22853.28
499.76	22441.64
499.96	22771.36
500.17	22814.37
500.37	22875.81
500.58	23023.26
500.78	23158.43
500.99	23299.74
501.19	23443.10
501.40	23119.52
501.60	23203.49
501.81	23391.90
502.02	23434.91
502.22	23140.00
502.43	23346.84
502.63	23973.52
502.84	23891.60
503.04	23436.95
503.25	23791.25
503.45	23862.93
503.66	24080.02
503.86	23615.13
504.07	24080.02
504.27	23983.76
504.48	24657.54
504.68	24485.51
504.89	24727.17
505.09	24596.10
505.30	24462.99
505.50	24575.62
505.71	24575.62
505.91	24508.04
506.12	24630.92
506.32	24782.47
506.53	24809.09
506.73	24833.67
506.94	24995.46
507.14	24817.29
507.35	25228.93
507.55	25116.29
507.76	25331.33
507.96	25063.04
508.17	25403.00
508.37	25568.89
508.58	25575.03
508.78	25560.70
508.99	25980.53
509.19	25515.64
509.40	25835.13
509.60	25704.06
509.81	25716.34
510.01	25919.09
510.22	25777.78
510.42	25747.06
510.63	25988.72
510.83	26293.87
511.04	26064.50
511.24	26138.23
511.44	26107.51
511.65	26551.91
511.85	26306.16
512.06	26523.24
512.26	26603.11
512.47	26646.12
512.67	26752.62
512.88	26412.65
513.08	26214.00
513.29	27029.09
513.49	26728.04
513.69	26887.78
513.90	26846.82
514.10	27082.34
514.31	26945.12
514.51	27534.94
514.72	27135.59
514.92	27025.00
515.13	27129.44
515.33	27158.11
515.53	27356.77
515.74	27371.10
515.94	27569.76
516.15	27684.44
516.35	27721.30
516.56	27926.10
516.76	27594.33
516.96	27819.61
517.17	27844.18
517.37	27987.54
517.58	28040.79
517.78	28073.56
517.99	27934.29
518.19	28399.18
518.39	28407.37
518.60	28534.35
518.80	28085.84
519.01	28307.02
519.21	28495.44
519.41	28616.27
519.62	28669.51
519.82	28739.15
520.03	28943.94
520.23	28855.88
520.43	28784.20
520.64	29230.66
520.84	29197.89
521.05	29111.88
521.25	29445.69
521.45	29705.79
521.66	29294.14
521.86	29251.14
522.07	29742.65
522.27	29773.37
522.47	29697.59
522.68	30053.94
522.88	29675.07
523.08	30111.28
523.29	30002.74
523.49	30209.59
523.70	30328.37
523.90	30301.75
524.10	30359.09
524.31	30664.24
524.51	30285.36
524.71	30615.08
524.92	30715.44
525.12	31057.45
525.33	30817.83
525.53	31161.89
525.73	31102.50
525.94	31079.97
526.14	31098.41
526.34	31172.13
526.55	31409.70
526.75	31442.46
526.95	31508.00
527.16	31510.05
527.36	31684.12
527.56	32048.66
527.77	31880.73
527.97	31854.11
528.17	32165.40
528.38	31999.51
528.58	32159.25
528.78	32568.85
528.99	32052.76
529.19	32544.27
529.39	32366.10
529.60	32677.39
529.80	33037.83
530.00	32718.35
530.21	32761.36
530.41	32892.43
530.61	32820.75
530.82	33412.61
531.02	33166.85
531.22	33314.31
531.43	33490.43
531.63	33521.15
531.83	33865.21
532.04	33943.03
532.24	33613.31
532.44	33904.12
532.64	34100.73
532.85	34209.27
533.05	34149.88
533.25	34129.40
533.46	34072.06
533.66	34764.27
533.86	34592.24
534.07	34682.35
534.27	34498.03
534.47	34940.39
534.67	34944.49
534.88	34878.96
535.08	35245.54
535.28	35202.53
535.49	35700.19
535.69	35722.72
535.89	35386.85
536.09	35515.87
536.30	35810.78
536.50	35653.09
536.70	35970.52
536.91	35747.29
537.11	36042.20
537.31	36253.14
537.51	35919.32
537.72	36345.30
537.92	36562.39
538.12	36685.26
538.32	36632.02
538.53	36679.12
538.73	36308.44
538.93	36851.15
539.13	36965.84
539.34	36695.50
539.54	36861.39
539.74	37127.63
539.94	37025.23
540.15	37322.18
540.35	37094.86
540.55	37014.99
540.75	37367.24
540.96	37498.31
541.16	37404.10
541.36	37705.15
541.56	37647.81
541.77	37811.65
541.97	37592.51
542.17	38084.03
542.37	37868.99
542.58	37946.81
542.78	38290.87
542.98	37860.80
543.18	37918.14
543.38	38374.84
543.59	38247.86
543.79	38116.79
543.99	38454.71
544.19	38596.02
544.40	38792.62
544.60	38510.00
544.80	38376.89
545.00	38593.97
545.20	38784.43
545.41	38577.59
545.61	38960.56
545.81	39132.59
546.01	38958.51
546.21	38909.36
546.42	39015.85
546.62	39237.03
546.82	39194.03
547.02	39517.60
547.22	39298.47
547.43	39175.59
547.63	39454.12
547.83	39445.93
548.03	39460.26
548.23	39339.43
548.44	39454.12
548.64	39806.37
548.84	39722.40
549.04	39732.64
549.24	40041.88
549.45	40273.31
549.65	39884.19
549.85	39814.56
550.05	40146.33
550.25	39894.43
550.45	40533.40
550.66	40447.38
550.86	40150.43
551.06	40445.33
551.26	40224.15
551.46	40377.75
551.66	40187.29
551.87	40115.61
552.07	40877.46
552.27	40480.15
552.47	40965.52
552.67	41026.96
552.87	40934.80
553.07	40611.22
553.28	40730.00
553.48	40932.75
553.68	40557.97
553.88	41350.54
554.08	40762.77
554.28	40639.89
554.48	40740.24
554.69	41088.40
554.89	41188.75
555.09	41170.32
555.29	41067.92
555.49	41018.77
555.69	41139.60
555.89	41446.79
556.10	41252.23
556.30	41448.84
556.50	41827.71
556.70	41518.47
556.90	41796.99
557.10	41497.99
557.30	41336.20
557.50	41868.67
557.70	41901.44
557.91	41948.54
558.11	41567.62
558.31	41977.22
558.51	41817.47
558.71	42075.52
558.91	42083.71
559.11	42259.84
559.31	41893.25
559.51	42104.19
559.72	41768.32
559.92	41983.36
560.12	42030.46
560.32	42016.13
560.52	41960.83
560.72	42100.09
560.92	42292.60
561.12	42141.05
561.32	42769.78
561.52	42134.91
561.72	42493.30
561.93	42278.27
562.13	42321.27
562.33	42376.57
562.53	43181.42
562.73	42540.41
562.93	42313.08
563.13	42429.82
563.33	42538.36
563.53	43214.19
563.73	42509.69
563.93	42988.91
564.13	43249.00
564.33	43076.97
564.53	42976.62
564.74	43103.60
564.94	42863.99
565.14	43367.79
565.34	42622.33
565.54	43103.60
565.74	43132.27
565.94	43828.58
566.14	43969.89
566.34	43119.98
566.54	43466.09
566.74	43195.76
566.94	43695.46
567.14	43246.96
567.34	43277.68
567.54	43572.58
567.74	43926.88
567.94	43484.52
568.14	43621.73
568.34	43961.70
568.54	43697.51
568.74	43646.31
568.94	43406.70
569.14	43914.59
569.34	43967.84
569.54	44057.95
569.75	43765.09
569.95	43836.77
570.15	44559.70
570.35	44207.45
570.55	44277.08
570.75	43984.22
570.95	44012.90
571.15	44469.59
571.35	44311.90
571.55	44428.63
571.75	44375.39
571.95	44361.05
572.15	44438.87
572.35	44801.36
572.55	44320.09
572.75	44680.53
572.95	44365.15
573.15	45028.69
573.35	44787.03
573.55	44676.44
573.75	44668.25
573.95	44782.93
574.15	44639.57
574.35	45012.31
574.55	44784.98
574.75	45010.26
574.95	45180.24
575.15	44868.95
575.34	45354.32
575.54	45690.18
575.74	45706.57
575.94	45624.65
576.14	45569.35
576.34	45555.02
576.54	45804.87
576.74	45913.41
576.94	45149.52
577.14	45808.96
577.34	46370.11
577.54	45649.22
577.74	46339.39
577.94	46150.98
578.14	45931.84
578.34	46249.28
578.54	45677.90
578.74	45638.98
578.94	46380.35
579.14	46110.02
579.34	46277.95
579.54	46310.72
579.74	46906.68
579.94	46562.62
580.13	46769.46
580.33	46695.74
580.53	46918.96
580.73	46953.78
580.93	47105.33
581.13	46886.20
581.33	47166.77
581.53	47320.37
581.73	47256.88
581.93	47273.26
582.13	47314.22
582.33	47469.87
582.53	47256.88
582.73	47568.17
582.92	47277.36
583.12	47768.87
583.32	47486.25
583.52	47402.28
583.72	48174.37
583.92	47324.46
584.12	47820.07
584.32	48227.62
584.52	48100.64
584.72	48016.68
584.92	48338.21
585.11	48373.02
585.31	48006.44
585.51	48182.56
585.71	48114.98
585.91	48758.04
586.11	48438.56
586.31	48368.93
586.51	48618.78
586.71	48559.39
586.91	49014.04
587.10	48506.14
587.30	48719.13
587.50	48964.88
587.70	49005.84
587.90	48911.64
588.10	49091.86
588.30	48706.84
588.50	48842.01
588.69	49192.21
