SpectraSuite Data File
++++++++++++++++++++++++++++++++++++
Date: Fri Jun 02 14:44:34 CEST 2017
User: INFO_000
Dark Spectrum Present: No
Reference Spectrum Present: No
Number of Sampled Component Spectra: 1
Spectrometers: USB4H00879
Integration Time (usec): 80000 (USB4H00879)
Spectra Averaged: 1 (USB4H00879)
Boxcar Smoothing: 0 (USB4H00879)
Correct for Electrical Dark: No (USB4H00879)
Strobe/Lamp Enabled: No (USB4H00879)
Correct for Detector Non-linearity: No (USB4H00879)
Correct for Stray Light: No (USB4H00879)
Number of Pixels in Processed Spectrum: 3648
>>>>>Begin Processed Spectral Data<<<<<
345.13	1284.08
345.34	1284.08
345.56	1284.08
345.78	1249.26
345.99	1265.64
346.21	1689.57
346.42	1710.05
346.64	1650.66
346.86	1753.06
347.07	1667.05
347.29	1671.14
347.50	1597.42
347.72	1677.29
347.94	1703.91
348.15	1630.18
348.37	1593.32
348.59	1728.49
348.80	1642.47
349.02	1804.26
349.23	1902.56
349.45	1781.73
349.67	1814.50
349.88	1771.49
350.10	1939.43
350.31	1910.75
350.53	1886.18
350.75	1984.48
350.96	1816.55
351.18	1855.46
351.39	1839.08
351.61	1816.55
351.82	1863.65
352.04	1912.80
352.26	1816.55
352.47	1894.37
352.69	1875.94
352.90	1822.69
353.12	1847.27
353.34	1884.13
353.55	1935.33
353.77	1884.13
353.98	1828.84
354.20	1857.51
354.41	1904.61
354.63	1890.28
354.85	2060.26
355.06	1896.42
355.28	1802.21
355.49	1886.18
355.71	1929.19
355.92	1902.56
356.14	1955.81
356.35	1855.46
356.57	1804.26
356.79	1925.09
357.00	1888.23
357.22	1986.53
357.43	1765.35
357.65	1918.95
357.86	1923.04
358.08	1830.88
358.29	1964.00
358.51	1972.19
358.72	1908.71
358.94	1859.56
359.16	1966.05
359.37	1910.75
359.59	1892.32
359.80	1964.00
360.02	1871.84
360.23	1925.09
360.45	2027.49
360.66	1906.66
360.88	1959.91
361.09	1976.29
361.31	2007.01
361.52	1935.33
361.74	2066.40
361.95	2039.78
362.17	1943.52
362.38	2090.98
362.60	2025.44
362.81	1955.81
363.03	1968.10
363.24	1972.19
363.46	2070.50
363.67	1972.19
363.89	2002.91
364.10	2002.91
364.32	1986.53
364.53	2060.26
364.75	1974.24
364.96	1990.63
365.18	2029.54
365.39	2039.78
365.61	1920.99
365.82	2121.70
366.04	1972.19
366.25	1929.19
366.47	2041.82
366.68	2031.58
366.90	1966.05
367.11	2162.66
367.33	2082.78
367.54	2045.92
367.76	2068.45
367.97	2117.60
368.19	1992.67
368.40	2060.26
368.62	2027.49
368.83	2027.49
369.05	2031.58
369.26	1978.34
369.48	2019.30
369.69	2000.87
369.91	1951.71
370.12	2084.83
370.33	2107.36
370.55	2050.02
370.76	2011.11
370.98	2066.40
371.19	2013.15
371.41	1961.95
371.62	2090.98
371.84	2054.11
372.05	2156.51
372.27	2150.37
372.48	2078.69
372.69	2066.40
372.91	2117.60
373.12	2142.18
373.34	2105.31
373.55	2197.47
373.77	2185.18
373.98	2086.88
374.20	2158.56
374.41	2236.38
374.62	2109.41
374.84	2133.98
375.05	2164.70
375.27	2238.43
375.48	2129.89
375.70	2152.42
375.91	2250.72
376.12	2287.58
376.34	2191.33
376.55	2148.32
376.77	2179.04
376.98	2129.89
377.19	2103.26
377.41	2183.13
377.62	2236.38
377.84	2279.39
378.05	2285.53
378.27	2138.08
378.48	2285.53
378.69	2371.55
378.91	2277.34
379.12	2170.85
379.34	2166.75
379.55	2256.86
379.76	2265.05
379.98	2228.19
380.19	2273.25
380.41	2217.95
380.62	2246.62
380.83	2297.82
381.05	2197.47
381.26	2312.16
381.47	2277.34
381.69	2283.49
381.90	2441.18
382.12	2283.49
382.33	2306.01
382.54	2250.72
382.76	2310.11
382.97	2256.86
383.19	2250.72
383.40	2428.89
383.61	2342.88
383.83	2346.97
384.04	2387.93
384.25	2306.01
384.47	2420.70
384.68	2293.72
384.89	2291.68
385.11	2453.47
385.32	2295.77
385.54	2365.40
385.75	2396.12
385.96	2428.89
386.18	2414.56
386.39	2367.45
386.60	2383.84
386.82	2473.95
387.03	2469.85
387.24	2516.95
387.46	2381.79
387.67	2410.46
387.88	2533.34
388.10	2465.75
388.31	2416.60
388.52	2461.66
388.74	2502.62
388.95	2564.06
389.16	2537.43
389.38	2469.85
389.59	2600.92
389.80	2721.75
390.02	2602.97
390.23	2617.30
390.44	2527.19
390.66	2588.63
390.87	2533.34
391.08	2611.16
391.30	2740.18
391.51	2731.99
391.72	2605.02
391.94	2719.70
392.15	2668.50
392.36	2688.98
392.58	2566.10
392.79	2600.92
393.00	2650.07
393.22	2783.19
393.43	2709.46
393.64	2883.54
393.85	2820.05
394.07	2738.13
394.28	2807.77
394.49	2764.76
394.71	2750.42
394.92	2881.49
395.13	2668.50
395.35	2662.36
395.56	2703.32
395.77	2785.24
395.98	2824.15
396.20	2869.20
396.41	2838.48
396.62	2869.20
396.84	2885.59
397.05	2885.59
397.26	2916.31
397.47	2867.16
397.69	2861.01
397.90	3000.27
398.11	2879.44
398.32	2830.29
398.54	2881.49
398.75	2865.11
398.96	2914.26
399.18	3065.81
399.39	2926.55
399.60	3051.47
399.81	2895.83
400.03	2887.64
400.24	3307.47
400.45	2955.22
400.66	3024.85
400.88	2965.46
401.09	3297.23
401.30	3082.19
401.51	3112.91
401.73	3110.86
401.94	3131.34
402.15	3180.50
402.36	3153.87
402.58	3227.60
402.79	3090.38
403.00	3098.58
403.21	3264.46
403.43	3231.69
403.64	3293.13
403.85	3000.27
404.06	3264.46
404.27	3067.86
404.49	3264.46
404.70	3276.75
404.91	3356.62
405.12	3301.33
405.34	3258.32
405.55	3432.40
405.76	3215.31
405.97	3348.43
406.19	3370.96
406.40	3178.45
406.61	3336.14
406.82	3260.37
407.03	3293.13
407.25	3254.22
407.46	3428.30
407.67	3379.15
407.88	3465.16
408.09	3235.79
408.31	3358.67
408.52	3370.96
408.73	3303.37
408.94	3330.00
409.15	3485.64
409.37	3430.35
409.58	3459.02
409.79	3518.41
410.00	3573.71
410.21	3555.27
410.43	3481.55
410.64	3416.01
410.85	3573.71
411.06	3655.62
411.27	3549.13
411.48	3690.44
411.70	3618.76
411.91	3555.27
412.12	3674.06
412.33	3661.77
412.54	3649.48
412.76	3807.17
412.97	3741.64
413.18	3514.31
413.39	3641.29
413.60	3643.34
413.81	3678.15
414.03	3667.91
414.24	3674.06
414.45	3774.41
414.66	3694.54
414.87	3745.73
415.08	3727.30
415.30	3702.73
415.51	3780.55
415.72	3715.02
415.93	3712.97
416.14	3772.36
416.35	3872.71
416.56	3733.45
416.78	3786.69
416.99	3878.85
417.20	3848.13
417.41	3819.46
417.62	3889.09
417.83	3991.49
418.04	3905.48
418.26	3928.00
418.47	3899.33
418.68	4038.59
418.89	4036.55
419.10	4128.70
419.31	4100.03
419.52	4149.18
419.73	4179.90
419.95	4280.25
420.16	3878.85
420.37	4032.45
420.58	4069.31
420.79	3995.59
421.00	4120.51
421.21	4165.57
421.42	4071.36
421.63	4097.99
421.85	4181.95
422.06	4255.68
422.27	4210.62
422.48	4091.84
422.69	4247.49
422.90	4177.86
423.11	4222.91
423.32	4294.59
423.53	4421.56
423.75	4263.87
423.96	4517.82
424.17	4343.74
424.38	4517.82
424.59	4362.17
424.80	4591.55
425.01	4487.10
425.22	4280.25
425.43	4399.04
425.64	4616.12
425.85	4546.49
426.06	4628.41
426.28	4587.45
426.49	4464.57
426.70	4624.31
426.91	4726.71
427.12	4704.18
427.33	4607.93
427.54	4657.08
427.75	4710.33
427.96	4777.91
428.17	4767.67
428.38	4822.97
428.59	4777.91
428.80	4829.11
429.01	4937.65
429.23	4724.66
429.44	4956.08
429.65	4915.12
429.86	4880.31
430.07	4921.27
430.28	4976.56
430.49	4935.60
430.70	5068.72
430.91	5212.08
431.12	5021.62
431.33	5218.22
431.54	5189.55
431.75	5136.31
431.96	5124.02
432.17	5056.43
432.38	5228.46
432.59	5189.55
432.80	5341.10
433.01	5263.28
433.22	5449.64
433.43	5287.86
433.64	5132.21
433.85	5480.36
434.06	5406.64
434.27	5351.34
434.49	5498.80
434.70	5539.76
434.91	5365.68
435.12	5480.36
435.33	5543.85
435.54	5433.26
435.75	5394.35
435.96	5562.28
436.17	5439.40
436.38	5787.56
436.59	5525.42
436.80	5496.75
437.01	5689.26
437.22	5799.85
437.43	5697.45
437.64	5588.91
437.85	5906.34
438.06	5740.46
438.27	5699.50
438.48	5746.60
438.69	5783.46
438.90	5857.19
439.11	5701.54
439.32	5922.73
439.53	5916.58
439.74	5828.52
439.95	5849.00
440.16	6006.69
440.37	6072.23
440.57	5846.95
440.78	6004.64
440.99	6201.25
441.20	6066.08
441.41	5943.21
441.62	5916.58
441.83	5978.02
442.04	6289.31
442.25	6070.18
442.46	5965.73
442.67	6311.84
442.88	6467.49
443.09	6025.12
443.30	6324.13
443.51	6223.78
443.72	6449.05
443.93	6209.44
444.14	6582.17
444.35	6107.04
444.56	6311.84
444.77	6371.23
444.98	6401.95
445.19	6565.79
445.40	6449.05
445.61	6553.50
445.81	6510.49
446.02	6721.43
446.23	6678.43
446.44	6449.05
446.65	6543.26
446.86	6561.69
447.07	6680.47
447.28	6733.72
447.49	6791.06
447.70	6645.66
447.91	6784.92
448.12	6762.39
448.33	7006.10
448.54	6782.87
448.74	6621.08
448.95	6805.40
449.16	6748.06
449.37	7098.26
449.58	6893.46
449.79	7141.27
450.00	6961.05
450.21	6883.22
450.42	7024.53
450.63	7049.11
450.84	6954.90
451.05	7182.23
451.25	7061.40
451.46	7147.41
451.67	7147.41
451.88	7307.15
452.09	7270.29
452.30	7116.69
452.51	7124.88
452.72	7456.65
452.93	7501.71
453.13	7165.84
453.34	7536.52
453.55	7436.17
453.76	7352.21
453.97	7665.55
454.18	7509.90
454.39	7628.68
454.60	7516.05
454.81	7628.68
455.01	7673.74
455.22	7356.30
455.43	7694.22
455.64	8003.46
455.85	7882.63
456.06	8003.46
456.27	7784.33
456.48	7845.77
456.68	7677.83
456.89	7942.02
457.10	8097.67
457.31	7974.79
457.52	7982.98
457.73	8183.68
457.94	8370.05
458.14	7870.34
458.35	8417.15
458.56	8249.22
458.77	8265.60
458.98	8302.47
459.19	8191.88
459.39	8531.84
459.60	8441.73
459.81	8542.08
460.02	8687.48
460.23	8566.65
460.44	8814.46
460.65	8597.37
460.85	8796.03
461.06	8963.96
461.27	8611.71
461.48	8712.06
461.69	8966.01
461.89	8576.89
462.10	8896.38
462.31	8769.40
462.52	8984.44
462.73	9047.93
462.94	9123.70
463.14	9105.27
463.35	9199.48
463.56	9512.81
463.77	9355.12
463.98	9224.05
464.18	9291.63
464.39	9402.22
464.60	9473.90
464.81	9559.92
465.02	9488.24
465.23	9795.43
465.43	9684.84
465.64	9946.98
465.85	9854.83
466.06	9820.01
466.27	10010.47
466.47	9912.17
466.68	10076.01
466.89	10116.97
467.10	10252.13
467.30	10133.35
467.51	10401.63
467.72	10518.37
467.93	10098.53
468.14	10454.88
468.34	10700.64
468.55	10506.08
468.76	10628.96
468.97	10534.75
469.17	10956.63
469.38	11018.07
469.59	11075.42
469.80	10817.37
470.01	11028.31
470.21	10997.59
470.42	11143.00
470.63	11229.01
470.84	11269.97
471.04	11374.42
471.25	11358.03
471.46	11421.52
471.67	11620.17
471.87	11548.50
472.08	11712.33
472.29	12101.45
472.50	11560.78
472.70	11753.29
472.91	11884.36
473.12	11958.09
473.33	12158.79
473.53	12320.58
473.74	11982.67
473.95	12420.93
474.16	12492.61
474.36	12648.26
474.57	12560.19
474.78	12752.70
474.99	12527.42
475.19	12646.21
475.40	12961.59
475.61	13098.81
475.81	13209.40
476.02	13403.96
476.23	13346.61
476.44	13178.68
476.64	13551.41
476.85	13682.48
477.06	13770.54
477.27	13987.63
477.47	13897.52
477.68	13750.06
477.89	13948.72
478.09	13924.14
478.30	14221.10
478.51	14354.21
478.71	14413.60
478.92	14575.39
479.13	14731.04
479.34	14722.85
479.54	14800.67
479.75	14659.36
479.96	14837.53
480.16	15077.15
480.37	15187.74
480.58	15193.88
480.78	15396.63
480.99	15365.91
481.20	15220.50
481.41	15662.86
481.61	15769.36
481.82	15779.60
482.03	15697.68
482.23	15818.51
482.44	15900.43
482.65	15982.35
482.85	16299.78
483.06	16156.43
483.27	16400.13
483.47	16273.16
483.68	16213.77
483.89	16572.16
484.09	16510.72
484.30	16539.40
484.51	17065.72
484.71	17004.28
484.92	16920.32
485.13	17250.04
485.33	17121.02
485.54	17168.12
485.75	17583.86
485.95	17587.96
486.16	17602.29
486.37	18034.41
486.57	17594.10
486.78	17921.77
486.98	17948.40
487.19	18042.60
487.40	18185.96
487.60	18200.30
487.81	18407.14
488.02	18536.17
488.22	18536.17
488.43	18538.21
488.64	18583.27
488.84	18714.34
489.05	18863.84
489.25	18933.47
489.46	19185.37
489.67	19154.65
489.87	19070.68
490.08	19336.92
490.29	19451.61
490.49	19711.70
490.70	19537.62
490.90	19601.11
491.11	19476.18
491.32	19793.62
491.52	19658.45
491.73	19934.93
491.94	20184.78
492.14	20104.91
492.35	20385.48
492.55	20240.08
492.76	20278.99
492.97	20715.20
493.17	20735.68
493.38	20778.69
493.58	20698.82
493.79	20891.33
494.00	21079.74
494.20	20778.69
494.41	21143.23
494.61	21231.29
494.82	21235.39
495.02	21384.89
495.23	21450.42
495.44	21534.39
495.64	21614.26
495.85	21612.21
496.05	21997.23
496.26	21690.04
496.47	22234.80
496.67	21827.25
496.88	21995.18
497.08	21829.30
497.29	22216.36
497.49	22359.72
497.70	22378.15
497.91	22437.55
498.11	22533.80
498.32	22673.06
498.52	22765.22
498.73	22988.45
498.93	22804.13
499.14	22994.59
499.34	22937.25
499.55	22988.45
499.76	23096.99
499.96	23396.00
500.17	23178.91
500.37	23187.10
500.58	23594.65
500.78	23131.81
500.99	23791.25
501.19	23836.31
501.40	23971.47
501.60	23676.57
501.81	23783.06
502.02	24088.21
502.22	23772.82
502.43	23907.99
502.63	24520.33
502.84	24116.88
503.04	24080.02
503.25	24256.14
503.45	24475.27
503.66	24784.52
503.86	24696.46
504.07	24864.39
504.27	24583.82
504.48	25001.60
504.68	25087.62
504.89	25112.19
505.09	24850.05
505.30	25288.32
505.50	24985.22
505.71	25179.78
505.91	25327.23
506.12	25407.10
506.32	25337.47
506.53	25456.25
506.73	25497.21
506.94	25554.55
507.14	25618.04
507.35	25728.63
507.55	25906.80
507.76	26252.91
507.96	25689.72
508.17	26166.90
508.37	25892.47
508.58	26130.03
508.78	26087.03
508.99	26467.95
509.19	26232.43
509.40	26123.89
509.60	26392.17
509.81	26574.44
510.01	26359.41
510.22	26701.42
510.42	26637.93
510.63	26840.68
510.83	26705.51
511.04	26904.17
511.24	27010.66
511.44	26750.57
511.65	26902.12
511.85	26945.12
512.06	27125.35
512.26	27029.09
512.47	27135.59
512.67	27006.56
512.88	27225.70
513.08	26846.82
513.29	27428.45
513.49	27461.21
513.69	27043.43
513.90	27534.94
514.10	27799.13
514.31	27643.48
514.51	27723.35
514.72	27580.00
514.92	27616.86
515.13	27854.42
515.33	27723.35
515.53	27889.24
515.74	27651.67
515.94	28194.39
516.15	27760.22
516.35	27932.25
516.56	28268.11
516.76	28096.08
516.96	28386.89
517.17	28483.15
517.37	28571.21
517.58	28694.09
517.78	28728.91
517.99	28491.34
518.19	28943.94
518.39	28882.50
518.60	29210.18
518.80	29124.16
519.01	29005.38
519.21	29093.44
519.41	29300.29
519.62	29345.34
519.82	29148.74
520.03	29546.05
520.23	29308.48
520.43	29443.65
520.64	29926.97
520.84	29693.50
521.05	29560.38
521.25	29795.90
521.45	30107.19
521.66	29836.86
521.86	29843.00
522.07	30158.39
522.27	30035.51
522.47	30033.46
522.68	30367.28
522.88	30432.82
523.08	30531.12
523.29	30692.91
523.49	30780.97
523.70	30410.29
523.90	30797.35
524.10	30666.28
524.31	31047.21
524.51	30666.28
524.71	31286.82
524.92	31133.22
525.12	31114.79
525.33	31071.78
525.53	31694.36
525.73	31661.60
525.94	31571.49
526.14	31331.87
526.34	31577.63
526.55	31643.17
526.75	31817.24
526.95	31913.50
527.16	31788.57
527.36	32089.62
527.56	32144.92
527.77	32273.94
527.97	32321.04
528.17	32505.36
528.38	32673.29
528.58	32792.08
528.78	32929.29
528.99	32595.47
529.19	32869.90
529.39	32937.48
529.60	33009.16
529.80	32939.53
530.00	33074.70
530.21	33162.76
530.41	33287.68
530.61	33355.27
530.82	33459.71
531.02	33318.40
531.22	33562.11
531.43	33928.70
531.63	33725.95
531.83	33768.96
532.04	34063.86
532.24	33586.69
532.44	34221.56
532.64	34547.18
532.85	34532.85
533.05	34565.62
533.25	34590.19
533.46	34203.13
533.66	34936.30
533.86	34625.01
534.07	35075.56
534.27	34764.27
534.47	35263.97
534.67	35317.22
534.88	35235.30
535.08	35243.49
535.28	35735.01
535.49	35634.66
535.69	35642.85
535.89	35849.69
536.09	35796.45
536.30	35982.81
536.50	36138.46
536.70	36001.24
536.91	35927.52
537.11	36337.11
537.31	36371.92
537.51	36376.02
537.72	36472.28
537.92	36670.93
538.12	37049.80
538.32	36687.31
538.53	36877.77
538.73	36933.07
538.93	36847.05
539.13	37125.58
539.34	37326.28
539.54	36941.26
539.74	37490.12
539.94	37299.65
540.15	37313.99
540.35	37363.14
540.55	37471.68
540.75	37701.06
540.96	37500.36
541.16	37615.04
541.36	38114.75
541.56	38098.36
541.77	37717.44
541.97	38161.85
542.17	38176.19
542.37	38372.79
542.58	38456.76
542.78	38376.89
542.98	38630.83
543.18	38532.53
543.38	38876.59
543.59	38772.14
543.79	38421.94
543.99	38931.89
544.19	39028.14
544.40	38892.97
544.60	39282.09
544.80	39036.33
545.00	39400.87
545.20	39157.16
545.41	39026.09
545.61	39462.31
545.81	39617.96
546.01	39482.79
546.21	39785.89
546.42	39587.24
546.62	39804.32
546.82	39466.41
547.02	39595.43
547.22	39970.21
547.43	39667.11
547.63	39910.82
547.83	40523.16
548.03	40019.36
548.23	40261.02
548.44	39876.00
548.64	40191.39
548.84	40674.71
549.04	40213.91
549.24	40467.86
549.45	40750.48
549.65	40412.57
549.85	40775.06
550.05	40684.95
550.25	40361.37
550.45	41131.40
550.66	40748.43
550.86	40770.96
551.06	41088.40
551.26	41246.09
551.46	40951.18
551.66	40938.90
551.87	41065.87
552.07	41301.39
552.27	41168.27
552.47	41373.06
552.67	41368.97
552.87	41407.88
553.07	41272.71
553.28	41411.98
553.48	41452.94
553.68	41307.53
553.88	41850.24
554.08	42079.61
554.28	41915.78
554.48	41399.69
554.69	42020.22
554.89	41958.78
555.09	41764.23
555.29	41766.27
555.49	42042.75
555.69	42276.22
555.89	42085.76
556.10	42190.20
556.30	42241.40
556.50	42200.44
556.70	42157.44
556.90	42642.81
557.10	42593.65
557.30	42440.06
557.50	42612.09
557.70	42945.90
557.91	42765.68
558.11	42728.82
558.31	42806.64
558.51	42906.99
558.71	42638.71
558.91	43081.07
559.11	42956.14
559.31	42890.61
559.51	42868.08
559.72	43103.60
559.92	43236.72
560.12	43087.21
560.32	43224.43
560.52	43287.92
560.72	43230.57
560.92	43347.31
561.12	43480.42
561.32	43505.00
561.52	43193.71
561.72	43890.02
561.93	43472.23
562.13	43623.78
562.33	43445.61
562.53	43935.07
562.73	43222.38
562.93	43717.99
563.13	43785.57
563.33	43707.75
563.53	43822.44
563.73	43599.21
563.93	43959.65
564.13	44098.91
564.33	44094.82
564.53	44066.14
564.74	44342.62
564.94	43814.24
565.14	44250.46
565.34	44094.82
565.54	44180.83
565.74	44416.35
565.94	44701.01
566.14	44240.22
566.34	44727.64
566.54	45143.38
566.74	44490.07
566.94	44662.10
567.14	44803.41
567.34	44125.53
567.54	45266.25
567.74	44619.10
567.94	44522.84
568.14	45206.86
568.34	44756.31
568.54	45036.88
568.74	44762.45
568.94	44856.66
569.14	45475.15
569.34	45425.99
569.54	45321.55
569.75	44733.78
569.95	45208.91
570.15	45550.92
570.35	45319.50
570.55	45094.22
570.75	45536.59
570.95	45421.90
571.15	45720.90
571.35	45487.43
571.55	45665.61
571.75	45620.55
571.95	45696.33
572.15	45737.29
572.35	45307.21
572.55	45604.17
572.75	45976.90
572.95	45735.24
573.15	46216.51
573.35	45976.90
573.55	46083.39
573.75	45675.85
573.95	46265.66
574.15	46003.52
574.35	46353.72
574.55	46236.99
574.75	45993.28
574.95	46202.18
575.15	46267.71
575.34	46415.16
575.54	46163.26
575.74	46724.41
575.94	46243.13
576.14	46585.15
576.34	46894.39
576.54	47263.02
576.74	47037.75
576.94	46419.26
577.14	46929.20
577.34	47379.76
577.54	46998.83
577.74	47035.70
577.94	46904.63
578.14	46826.81
578.34	47142.19
578.54	46527.80
578.74	46880.05
578.94	46961.97
579.14	46826.81
579.34	47203.63
579.54	47082.80
579.74	47482.16
579.94	47791.40
580.13	47639.85
580.33	47363.37
580.53	47584.55
580.73	47938.85
580.93	47672.62
581.13	47623.47
581.33	48020.77
581.53	47940.90
581.73	47815.97
581.93	48170.27
582.13	47822.12
582.33	48207.14
582.53	48258.34
582.73	47830.31
582.92	48184.61
583.12	48391.45
583.32	48053.54
583.52	47981.86
583.72	48321.82
583.92	48133.41
584.12	47969.57
584.32	48805.14
584.52	48575.77
584.72	48604.44
584.92	48672.03
585.11	48844.05
585.31	48850.20
585.51	48862.49
585.71	48755.99
585.91	49227.02
586.11	48850.20
586.31	48837.91
586.51	48633.11
586.71	48895.25
586.91	49141.01
587.10	49192.21
587.30	48776.47
587.50	48719.13
587.70	49261.84
587.90	49286.42
588.10	49329.42
588.30	49028.37
588.50	49399.05
