SpectraSuite Data File
++++++++++++++++++++++++++++++++++++
Date: Fri Jun 02 14:44:34 CEST 2017
User: INFO_000
Dark Spectrum Present: No
Reference Spectrum Present: No
Number of Sampled Component Spectra: 1
Spectrometers: USB4H00879
Integration Time (usec): 80000 (USB4H00879)
Spectra Averaged: 1 (USB4H00879)
Boxcar Smoothing: 0 (USB4H00879)
Correct for Electrical Dark: No (USB4H00879)
Strobe/Lamp Enabled: No (USB4H00879)
Correct for Detector Non-linearity: No (USB4H00879)
Correct for Stray Light: No (USB4H00879)
Number of Pixels in Processed Spectrum: 3648
>>>>>Begin Processed Spectral Data<<<<<
345.13	1265.64
345.34	1265.64
345.56	1265.64
345.78	1245.16
345.99	1224.69
346.21	1726.44
346.42	1765.35
346.64	1658.85
346.86	1738.73
347.07	1683.43
347.29	1703.91
347.50	1603.56
347.72	1658.85
347.94	1740.77
348.15	1581.03
348.37	1626.09
348.59	1691.62
348.80	1589.22
349.02	1765.35
349.23	1837.03
349.45	1814.50
349.67	1871.84
349.88	1832.93
350.10	1970.15
350.31	1738.73
350.53	1769.44
350.75	1929.19
350.96	1818.60
351.18	1830.88
351.39	1908.71
351.61	1753.06
351.82	1902.56
352.04	1898.47
352.26	1880.04
352.47	1867.75
352.69	1886.18
352.90	1724.39
353.12	1837.03
353.34	1789.92
353.55	1935.33
353.77	1927.14
353.98	1828.84
354.20	1824.74
354.41	1839.08
354.63	1949.67
354.85	1953.76
355.06	1880.04
355.28	1787.88
355.49	1894.37
355.71	1880.04
355.92	1867.75
356.14	1916.90
356.35	1949.67
356.57	1822.69
356.79	1951.71
357.00	1912.80
357.22	1953.76
357.43	1773.54
357.65	1945.57
357.86	1820.64
358.08	1894.37
358.29	1871.84
358.51	1929.19
358.72	1953.76
358.94	1912.80
359.16	1961.95
359.37	1877.99
359.59	1982.43
359.80	1890.28
360.02	1957.86
360.23	1951.71
360.45	2033.63
360.66	1904.61
360.88	1839.08
361.09	1927.14
361.31	2052.06
361.52	1961.95
361.74	2007.01
361.95	2109.41
362.17	1886.18
362.38	2088.93
362.60	2082.78
362.81	2029.54
363.03	1920.99
363.24	2041.82
363.46	2050.02
363.67	2019.30
363.89	1984.48
364.10	2009.06
364.32	1959.91
364.53	2039.78
364.75	1847.27
364.96	2023.39
365.18	2011.11
365.39	2033.63
365.61	1970.15
365.82	2138.08
366.04	2013.15
366.25	1931.23
366.47	2043.87
366.68	2062.30
366.90	2039.78
367.11	2140.13
367.33	2023.39
367.54	2131.94
367.76	1996.77
367.97	2060.26
368.19	2027.49
368.40	2109.41
368.62	2047.97
368.83	1994.72
369.05	2039.78
369.26	1990.63
369.48	2007.01
369.69	2023.39
369.91	2039.78
370.12	2043.87
370.33	2166.75
370.55	1892.32
370.76	2093.02
370.98	2144.22
371.19	2070.50
371.41	2058.21
371.62	2029.54
371.84	2000.87
372.05	2164.70
372.27	2086.88
372.48	2045.92
372.69	2125.79
372.91	2088.93
373.12	2170.85
373.34	2050.02
373.55	2148.32
373.77	2162.66
373.98	2136.03
374.20	2232.29
374.41	2242.53
374.62	2166.75
374.84	2246.62
375.05	2220.00
375.27	2179.04
375.48	2295.77
375.70	2195.42
375.91	2183.13
376.12	2277.34
376.34	2107.36
376.55	2224.09
376.77	2260.96
376.98	2119.65
377.19	2109.41
377.41	2090.98
377.62	2230.24
377.84	2252.77
378.05	2234.33
378.27	2117.60
378.48	2353.12
378.69	2412.51
378.91	2250.72
379.12	2291.68
379.34	2164.70
379.55	2353.12
379.76	2224.09
379.98	2228.19
380.19	2322.40
380.41	2322.40
380.62	2207.71
380.83	2211.81
381.05	2179.04
381.26	2373.60
381.47	2256.86
381.69	2246.62
381.90	2357.21
382.12	2301.92
382.33	2330.59
382.54	2252.77
382.76	2314.20
382.97	2287.58
383.19	2277.34
383.40	2330.59
383.61	2328.54
383.83	2265.05
384.04	2271.20
384.25	2326.49
384.47	2392.03
384.68	2453.47
384.89	2336.73
385.11	2310.11
385.32	2306.01
385.54	2334.68
385.75	2351.07
385.96	2324.44
386.18	2373.60
386.39	2414.56
386.60	2363.36
386.82	2463.71
387.03	2396.12
387.24	2469.85
387.46	2394.08
387.67	2494.43
387.88	2453.47
388.10	2521.05
388.31	2426.84
388.52	2629.59
388.74	2566.10
388.95	2523.10
389.16	2467.80
389.38	2543.58
389.59	2613.21
389.80	2662.36
390.02	2519.00
390.23	2668.50
390.44	2633.69
390.66	2564.06
390.87	2539.48
391.08	2625.50
391.30	2688.98
391.51	2637.78
391.72	2738.13
391.94	2629.59
392.15	2686.94
392.36	2562.01
392.58	2662.36
392.79	2678.74
393.00	2729.94
393.22	2777.05
393.43	2760.66
393.64	2863.06
393.85	2764.76
394.07	2723.80
394.28	2721.75
394.49	2764.76
394.71	2838.48
394.92	2842.58
395.13	2750.42
395.35	2740.18
395.56	2772.95
395.77	2803.67
395.98	2850.77
396.20	2936.79
396.41	2867.16
396.62	2877.40
396.84	2840.53
397.05	2820.05
397.26	2955.22
397.47	2924.50
397.69	2891.73
397.90	3028.95
398.11	2990.03
398.32	2854.87
398.54	2871.25
398.75	2924.50
398.96	2998.23
399.18	3123.15
399.39	3026.90
399.60	3063.76
399.81	3018.71
400.03	2953.17
400.24	3348.43
400.45	2889.68
400.66	3061.71
400.88	2990.03
401.09	3123.15
401.30	3092.43
401.51	3069.91
401.73	3125.20
401.94	3082.19
402.15	3215.31
402.36	3174.35
402.58	3137.49
402.79	3182.54
403.00	3194.83
403.21	3157.97
403.43	3176.40
403.64	3139.54
403.85	3184.59
404.06	3293.13
404.27	3137.49
404.49	3254.22
404.70	3149.78
404.91	3192.78
405.12	3237.84
405.34	3215.31
405.55	3362.76
405.76	3053.52
405.97	3272.65
406.19	3370.96
406.40	3276.75
406.61	3348.43
406.82	3342.28
407.03	3313.61
407.25	3215.31
407.46	3481.55
407.67	3258.32
407.88	3526.60
408.09	3366.86
408.31	3416.01
408.52	3350.48
408.73	3395.53
408.94	3303.37
409.15	3387.34
409.37	3536.84
409.58	3502.03
409.79	3559.37
410.00	3581.90
410.21	3411.92
410.43	3465.16
410.64	3424.20
410.85	3622.86
411.06	3495.88
411.27	3538.89
411.48	3579.85
411.70	3594.19
411.91	3540.94
412.12	3624.90
412.33	3510.22
412.54	3522.51
412.76	3684.30
412.97	3674.06
413.18	3641.29
413.39	3567.56
413.60	3721.16
413.81	3755.97
414.03	3631.05
414.24	3717.06
414.45	3846.09
414.66	3639.24
414.87	3813.32
415.08	3715.02
415.30	3704.78
415.51	3850.18
415.72	3837.89
415.93	3821.51
416.14	3819.46
416.35	3829.70
416.56	3798.98
416.78	3874.76
416.99	3891.14
417.20	3897.28
417.41	3870.66
417.62	3872.71
417.83	3991.49
418.04	3860.42
418.26	3997.64
418.47	4005.83
418.68	4042.69
418.89	4050.88
419.10	4161.47
419.31	4001.73
419.52	4114.37
419.73	3971.01
419.95	4130.75
420.16	3940.29
420.37	4057.03
420.58	4016.07
420.79	4032.45
421.00	4147.14
421.21	4177.86
421.42	4173.76
421.63	4100.03
421.85	4130.75
422.06	4243.39
422.27	4192.19
422.48	4179.90
422.69	4335.55
422.90	4263.87
423.11	4243.39
423.32	4337.60
423.53	4390.84
423.75	4319.17
423.96	4378.56
424.17	4347.84
424.38	4591.55
424.59	4489.15
424.80	4612.03
425.01	4390.84
425.22	4491.20
425.43	4437.95
425.64	4681.66
425.85	4655.03
426.06	4501.44
426.28	4571.07
426.49	4505.53
426.70	4523.96
426.91	4464.57
427.12	4685.75
427.33	4644.79
427.54	4562.87
427.75	4730.81
427.96	4894.65
428.17	4734.90
428.38	4898.74
428.59	4829.11
428.80	4806.58
429.01	4872.12
429.23	4863.93
429.44	5089.20
429.65	5052.34
429.86	4964.28
430.07	4913.08
430.28	4876.21
430.49	5005.24
430.70	5062.58
430.91	5089.20
431.12	5081.01
431.33	5062.58
431.54	5195.70
431.75	5171.12
431.96	5189.55
432.17	5214.13
432.38	5115.83
432.59	5367.73
432.80	5318.57
433.01	5357.49
433.22	5480.36
433.43	5259.18
433.64	5246.90
433.85	5230.51
434.06	5466.03
434.27	5384.11
434.49	5433.26
434.70	5431.21
434.91	5490.60
435.12	5541.80
435.33	5527.47
435.54	5480.36
435.75	5347.25
435.96	5480.36
436.17	5498.80
436.38	5609.39
436.59	5568.43
436.80	5554.09
437.01	5742.50
437.22	5767.08
437.43	5644.20
437.64	5568.43
437.85	5754.79
438.06	5717.93
438.27	5734.31
438.48	5672.87
438.69	5894.05
438.90	5826.47
439.11	5738.41
439.32	5959.59
439.53	5869.48
439.74	5865.38
439.95	5953.45
440.16	5949.35
440.37	5947.30
440.57	5834.66
440.78	6086.56
440.99	5939.11
441.20	5955.49
441.41	5941.16
441.62	5877.67
441.83	5922.73
442.04	6213.54
442.25	6154.15
442.46	6066.08
442.67	6211.49
442.88	6561.69
443.09	6051.75
443.30	6236.06
443.51	6287.26
443.72	6356.90
443.93	6250.40
444.14	6670.23
444.35	6170.53
444.56	6467.49
444.77	6354.85
444.98	6358.94
445.19	6487.96
445.40	6481.82
445.61	6344.61
445.81	6588.32
446.02	6553.50
446.23	6533.02
446.44	6408.09
446.65	6633.37
446.86	6580.12
447.07	6705.05
447.28	6700.95
447.49	6625.18
447.70	6807.45
447.91	6848.41
448.12	6723.48
448.33	6913.94
448.54	6952.85
448.74	6733.72
448.95	6784.92
449.16	6782.87
449.37	7020.44
449.58	6836.12
449.79	7163.79
450.00	6858.65
450.21	7131.03
450.42	7020.44
450.63	7288.72
450.84	7008.15
451.05	7114.64
451.25	7131.03
451.46	7075.73
451.67	7090.07
451.88	7288.72
452.09	7225.23
452.30	7214.99
452.51	7143.32
452.72	7382.93
452.93	7651.21
453.13	7126.93
453.34	7227.28
453.55	7454.61
453.76	7505.81
453.97	7741.32
454.18	7434.13
454.39	7626.64
454.60	7700.36
454.81	7524.24
455.01	7876.49
455.22	7497.61
455.43	7600.01
455.64	7995.27
455.85	7882.63
456.06	7894.92
456.27	7774.09
456.48	8011.65
456.68	7827.34
456.89	8023.94
457.10	8079.24
457.31	8181.64
457.52	7989.13
457.73	8128.39
457.94	8372.10
458.14	7997.32
458.35	8537.98
458.56	8226.69
458.77	8193.92
458.98	8281.99
459.19	8433.54
459.39	8374.14
459.60	8427.39
459.81	8451.97
460.02	8591.23
460.23	8456.06
460.44	8806.27
460.65	8656.76
460.85	8773.50
461.06	8726.39
461.27	8587.13
461.48	8857.46
461.69	9154.42
461.89	8685.44
462.10	9019.25
462.31	8871.80
462.52	8943.48
462.73	9133.94
462.94	9340.79
463.14	9269.11
463.35	8996.73
463.56	9604.97
463.77	9518.96
463.98	9224.05
464.18	9453.42
464.39	9369.46
464.60	9838.44
464.81	9668.46
465.02	9621.36
465.23	9846.63
465.43	9944.94
465.64	10002.28
465.85	9736.04
466.06	9830.25
466.27	10184.55
466.47	9852.78
466.68	10063.72
466.89	10100.58
467.10	10334.05
467.30	10121.06
467.51	10252.13
467.72	10276.71
467.93	10176.36
468.14	10389.35
468.34	10565.47
468.55	10477.41
468.76	10581.85
468.97	10557.28
469.17	10835.80
469.38	10786.65
469.59	11079.51
469.80	10684.25
470.01	10911.58
470.21	11001.69
470.42	11253.59
470.63	11204.44
470.84	11106.13
471.04	11407.19
471.25	11444.05
471.46	11214.68
471.67	11661.13
471.87	11423.57
472.08	11634.51
472.29	11808.59
472.50	11407.19
472.70	11835.21
472.91	11904.84
473.12	11992.90
473.33	12115.78
473.53	12140.36
473.74	12013.38
473.95	12367.68
474.16	12416.83
474.36	12468.03
474.57	12508.99
474.78	12670.78
474.99	12511.04
475.19	12476.23
475.40	12939.07
475.61	13041.46
475.81	13223.73
476.02	13111.10
476.23	13236.02
476.44	13315.89
476.64	13461.30
476.85	13559.60
477.06	13410.10
477.27	13877.04
477.47	13985.58
477.68	13911.85
477.89	13936.43
478.09	14108.46
478.30	13952.81
478.51	14282.53
478.71	14335.78
478.92	14337.83
479.13	14522.15
479.34	14626.59
479.54	14731.04
479.75	14642.98
479.96	14739.23
480.16	14970.65
480.37	15197.98
480.58	15234.84
480.78	15224.60
480.99	15327.00
481.20	15521.56
481.41	15585.04
481.61	15654.67
481.82	15767.31
482.03	15968.01
482.23	15863.57
482.44	15920.91
482.65	16277.26
482.85	16068.36
483.06	16381.70
483.27	16461.57
483.47	16586.50
483.68	16574.21
483.89	16936.70
484.09	16701.19
484.30	16547.59
484.51	16971.52
484.71	17127.16
484.92	16885.50
485.13	17051.39
485.33	17346.30
485.54	17309.43
485.75	17690.35
485.95	17637.11
486.16	17587.96
486.37	17889.01
486.57	17782.51
486.78	18161.39
486.98	18079.47
487.19	17852.14
487.40	18177.77
487.60	18585.32
487.81	18423.53
488.02	18634.47
488.22	18644.71
488.43	18757.35
488.64	18921.18
488.84	18933.47
489.05	19023.58
489.25	18900.70
489.46	19240.67
489.67	19136.22
489.87	19404.50
490.08	19453.66
490.29	19500.76
490.49	19842.77
490.70	19785.43
490.90	19893.97
491.11	19834.58
491.32	19891.92
491.52	19994.32
491.73	20033.23
491.94	20170.44
492.14	20039.37
492.35	20365.00
492.55	20512.46
492.76	20508.36
492.97	20747.97
493.17	20956.86
493.38	21075.65
493.58	20991.68
493.79	21028.54
494.00	21092.03
494.20	21329.59
494.41	21368.51
494.61	21323.45
494.82	21354.17
495.02	21085.89
495.23	21524.15
495.44	21558.97
495.64	21679.80
495.85	21536.44
496.05	22103.73
496.26	21626.55
496.47	22124.21
496.67	22126.25
496.88	22097.58
497.08	22087.34
497.29	22263.47
497.49	21972.66
497.70	22472.36
497.91	22623.91
498.11	22349.48
498.32	22789.80
498.52	22707.88
498.73	23008.93
498.93	23062.18
499.14	22933.15
499.34	22941.35
499.55	23426.71
499.76	23250.59
499.96	23246.49
500.17	23158.43
500.37	23312.03
500.58	23072.42
500.78	23477.91
500.99	23377.56
501.19	23742.10
501.40	23627.42
501.60	23658.14
501.81	23776.92
502.02	23332.51
502.22	23705.24
502.43	24231.57
502.63	24258.19
502.84	24221.33
503.04	24508.04
503.25	24151.70
503.45	24379.02
503.66	24735.37
503.86	24319.63
504.07	24780.42
504.27	24503.95
504.48	24716.93
504.68	24829.57
504.89	25028.23
505.09	25081.47
505.30	24981.12
505.50	24819.33
505.71	25069.19
505.91	25265.79
506.12	25329.28
506.32	25226.88
506.53	25583.23
506.73	25333.37
506.94	25458.30
507.14	25132.67
507.35	25550.46
507.55	25611.90
507.76	25712.25
507.96	25421.44
508.17	25695.86
508.37	25755.26
508.58	25865.85
508.78	25923.19
508.99	26328.69
509.19	26426.99
509.40	26371.69
509.60	26177.14
509.81	26490.48
510.01	26146.42
510.22	26046.07
510.42	26248.82
510.63	26746.47
510.83	26510.96
511.04	26687.08
511.24	26984.04
511.44	26506.86
511.65	26920.55
511.85	26355.31
512.06	27094.63
512.26	27240.03
512.47	26900.07
512.67	26994.28
512.88	27229.79
513.08	26938.98
513.29	27307.62
513.49	27223.65
513.69	27545.18
513.90	27459.16
514.10	27244.13
514.31	27885.14
514.51	27643.48
514.72	27598.43
514.92	27426.40
515.13	27971.16
515.33	27846.23
515.53	27983.44
515.74	27799.13
515.94	28057.17
516.15	27967.06
516.35	28028.50
516.56	28108.37
516.76	28061.27
516.96	28149.33
517.17	28477.01
517.37	28487.25
517.58	28436.05
517.78	28556.88
517.99	28995.14
518.19	28575.31
518.39	28886.60
518.60	29161.03
518.80	28741.19
519.01	29118.02
519.21	28866.12
519.41	29349.44
519.62	29083.20
519.82	29226.56
520.03	29877.82
520.23	29660.73
520.43	29107.78
520.64	29990.45
520.84	29908.54
521.05	29601.34
521.25	29646.40
521.45	29746.75
521.66	30459.44
521.86	30006.84
522.07	30264.88
522.27	30342.70
522.47	30103.09
522.68	30813.74
522.88	30201.40
523.08	30451.25
523.29	30365.23
523.49	30613.04
523.70	30682.67
523.90	31256.10
524.10	31094.31
524.31	31520.29
524.51	30774.83
524.71	31036.97
524.92	31190.56
525.12	31391.26
525.33	31299.11
525.53	31495.71
525.73	31833.63
525.94	31663.64
526.14	31510.05
526.34	31708.70
526.55	32108.05
526.75	32208.40
526.95	32335.38
527.16	32208.40
527.36	31954.46
527.56	32331.28
527.77	32708.11
527.97	32603.66
528.17	32755.21
528.38	32441.87
528.58	32613.90
528.78	32396.82
528.99	33033.74
529.19	33254.92
529.39	32873.99
529.60	33097.22
529.80	32994.82
530.00	33469.95
530.21	33656.32
530.41	33676.80
530.61	33625.60
530.82	33814.01
531.02	33656.32
531.22	33943.03
531.43	33930.75
531.63	34162.17
531.83	34471.41
532.04	34436.59
532.24	34440.69
532.44	34334.20
532.64	34436.59
532.85	34823.66
533.05	34170.36
533.25	34688.49
533.46	34504.18
533.66	35110.38
533.86	34600.43
534.07	35220.97
534.27	34973.16
534.47	35433.96
534.67	35495.39
534.88	35223.01
535.08	35352.04
535.28	35366.37
535.49	35423.72
535.69	35950.04
535.89	35831.26
536.09	36160.98
536.30	36101.59
536.50	35911.13
536.70	36296.15
536.91	36101.59
537.11	36574.67
537.31	36548.05
537.51	36443.60
537.72	37004.75
537.92	37041.61
538.12	36812.24
538.32	37017.04
538.53	36828.62
538.73	36740.56
538.93	36617.68
539.13	36912.59
539.34	37225.93
539.54	37391.81
539.74	37266.89
539.94	37320.13
540.15	37295.56
540.35	37883.33
540.55	37637.57
540.75	37739.97
540.96	37512.64
541.16	37438.92
541.36	37905.85
541.56	37713.34
541.77	37985.72
541.97	37660.10
542.17	38630.83
542.37	38063.55
542.58	37938.62
542.78	38260.15
542.98	38114.75
543.18	38774.19
543.38	38819.25
543.59	38739.38
543.79	38581.68
543.99	38499.76
544.19	38749.62
544.40	38745.52
544.60	39198.12
544.80	39050.67
545.00	38718.90
545.20	39247.27
545.41	39050.67
545.61	39116.20
545.81	39126.44
546.01	39271.85
546.21	39105.96
546.42	39077.29
546.62	39667.11
546.82	39703.97
547.02	39624.10
547.22	39564.71
547.43	39335.34
547.63	39679.39
547.83	40002.97
548.03	39945.63
548.23	40211.87
548.44	39892.38
548.64	39949.73
548.84	40183.19
549.04	39830.94
549.24	40349.08
549.45	40492.44
549.65	40390.04
549.85	40220.06
550.05	40795.54
550.25	40066.46
550.45	40979.85
550.66	40787.35
550.86	40541.59
551.06	40617.36
551.26	40488.34
551.46	40496.53
551.66	41133.45
551.87	40889.74
552.07	40650.13
552.27	41235.85
552.47	40920.46
552.67	41411.98
552.87	41385.35
553.07	41276.81
553.28	41702.79
553.48	41334.15
553.68	41205.13
553.88	41344.39
554.08	41385.35
554.28	41465.22
554.48	41831.81
554.69	41342.35
554.89	41856.39
555.09	41737.60
555.29	41592.20
555.49	41952.64
555.69	41803.14
555.89	41823.62
556.10	42323.32
556.30	42370.43
556.50	42065.28
556.70	42079.61
556.90	42376.57
557.10	42263.93
557.30	42304.89
557.50	42124.67
557.70	42521.98
557.91	42548.60
558.11	42315.13
558.31	42640.76
558.51	42567.03
558.71	42296.70
558.91	43021.68
559.11	42884.47
559.31	42599.80
559.51	42593.65
559.72	43156.85
559.92	43218.28
560.12	42845.55
560.32	43138.41
560.52	43158.89
560.72	43367.79
560.92	43246.96
561.12	43216.24
561.32	43789.67
561.52	43296.11
561.72	43943.27
561.93	43253.10
562.13	43476.33
562.33	43472.23
562.53	44356.96
562.73	43259.24
562.93	43875.68
563.13	43701.61
563.33	43275.63
563.53	43818.34
563.73	44014.94
563.93	43951.46
564.13	44510.55
564.33	43922.79
564.53	44229.98
564.74	44217.69
564.94	44004.70
565.14	44516.70
565.34	44016.99
565.54	44215.65
565.74	44123.49
565.94	44561.75
566.14	44602.71
566.34	44440.92
566.54	44782.93
566.74	44651.86
566.94	45200.72
567.14	44746.07
567.34	44817.75
567.54	45020.50
567.74	44569.94
567.94	44891.48
568.14	44668.25
568.34	44844.37
568.54	45219.15
568.74	44911.95
568.94	45137.23
569.14	45542.73
569.34	45202.77
569.54	45196.62
569.75	45032.78
569.95	45020.50
570.15	45641.03
570.35	45577.54
570.55	45276.49
570.75	45665.61
570.95	45829.44
571.15	45718.85
571.35	45497.67
571.55	45815.11
571.75	45819.20
571.95	45933.89
572.15	45796.68
572.35	46404.92
572.55	45880.64
572.75	46138.69
572.95	45974.85
573.15	45870.40
573.35	46169.41
573.55	46138.69
573.75	46161.22
573.95	46247.23
574.15	46134.59
574.35	46318.91
574.55	46388.54
574.75	46372.16
574.95	46640.44
575.15	45987.14
575.34	46333.24
575.54	46761.27
575.74	46835.00
575.94	46566.71
576.14	46732.60
576.34	47013.17
576.54	46933.30
576.74	46955.83
576.94	46736.69
577.14	46701.88
577.34	47291.69
577.54	47013.17
577.74	47240.50
577.94	47299.89
578.14	47332.65
578.34	47449.39
578.54	46841.14
578.74	46968.12
578.94	47650.09
579.14	47078.71
579.34	47076.66
579.54	47246.64
579.74	47738.15
579.94	47734.06
580.13	47725.86
580.33	47949.09
580.53	47920.42
580.73	48039.20
580.93	47590.70
581.13	47834.41
581.33	47912.23
581.53	48522.52
581.73	47885.61
581.93	48358.69
582.13	48026.92
582.33	48104.74
582.53	47887.65
582.73	48026.92
582.92	48112.93
583.12	48387.36
583.32	48387.36
583.52	47973.67
583.72	48770.33
583.92	48434.46
584.12	48354.59
584.32	48971.03
584.52	48897.30
584.72	48379.17
584.92	48880.92
585.11	49030.42
585.31	48987.41
585.51	49108.24
585.71	48692.50
585.91	48985.36
586.11	48729.37
586.31	48264.48
586.51	49063.19
586.71	49067.28
586.91	49321.23
587.10	49069.33
587.30	48944.41
587.50	49411.34
587.70	49190.16
587.90	49399.05
588.10	49298.70
588.30	49431.82
588.50	50181.38
