SpectraSuite Data File
++++++++++++++++++++++++++++++++++++
Date: Fri Jun 02 14:44:37 CEST 2017
User: INFO_000
Dark Spectrum Present: No
Reference Spectrum Present: No
Number of Sampled Component Spectra: 1
Spectrometers: USB4H00879
Integration Time (usec): 80000 (USB4H00879)
Spectra Averaged: 1 (USB4H00879)
Boxcar Smoothing: 0 (USB4H00879)
Correct for Electrical Dark: No (USB4H00879)
Strobe/Lamp Enabled: No (USB4H00879)
Correct for Detector Non-linearity: No (USB4H00879)
Correct for Stray Light: No (USB4H00879)
Number of Pixels in Processed Spectrum: 3648
>>>>>Begin Processed Spectral Data<<<<<
345.13	1273.84
345.34	1273.84
345.56	1273.84
345.78	1282.03
345.99	1314.80
346.21	1624.04
346.42	1652.71
346.64	1599.46
346.86	1755.11
347.07	1609.70
347.29	1720.29
347.50	1617.90
347.72	1646.57
347.94	1687.53
348.15	1578.98
348.37	1601.51
348.59	1687.53
348.80	1609.70
349.02	1710.05
349.23	1830.88
349.45	1791.97
349.67	1925.09
349.88	1794.02
350.10	1978.34
350.31	1816.55
350.53	1820.64
350.75	1947.62
350.96	1794.02
351.18	1849.32
351.39	1859.56
351.61	1738.73
351.82	1927.14
352.04	1882.08
352.26	1832.93
352.47	1826.79
352.69	1945.57
352.90	1773.54
353.12	1845.22
353.34	1859.56
353.55	1916.90
353.77	1867.75
353.98	1826.79
354.20	1843.17
354.41	1933.28
354.63	1886.18
354.85	2011.11
355.06	1949.67
355.28	1740.77
355.49	1923.04
355.71	1894.37
355.92	1875.94
356.14	1925.09
356.35	1847.27
356.57	1849.32
356.79	1947.62
357.00	1837.03
357.22	1994.72
357.43	1855.46
357.65	2021.35
357.86	1806.31
358.08	1970.15
358.29	1974.24
358.51	1929.19
358.72	1976.29
358.94	1927.14
359.16	1955.81
359.37	1945.57
359.59	1945.57
359.80	1896.42
360.02	2027.49
360.23	1945.57
360.45	1966.05
360.66	1865.70
360.88	1839.08
361.09	1918.95
361.31	2007.01
361.52	1961.95
361.74	2101.22
361.95	2072.54
362.17	2007.01
362.38	1988.58
362.60	2047.97
362.81	1961.95
363.03	2007.01
363.24	1949.67
363.46	2103.26
363.67	2011.11
363.89	1951.71
364.10	2013.15
364.32	1994.72
364.53	2076.64
364.75	1869.80
364.96	1974.24
365.18	1978.34
365.39	1906.66
365.61	1986.53
365.82	2052.06
366.04	2002.91
366.25	1984.48
366.47	2037.73
366.68	1994.72
366.90	1978.34
367.11	2000.87
367.33	2117.60
367.54	2076.64
367.76	1945.57
367.97	2076.64
368.19	2007.01
368.40	2111.46
368.62	1974.24
368.83	1894.37
369.05	2060.26
369.26	1964.00
369.48	1955.81
369.69	2025.44
369.91	1949.67
370.12	2019.30
370.33	2105.31
370.55	2140.13
370.76	2007.01
370.98	2129.89
371.19	2013.15
371.41	2099.17
371.62	2054.11
371.84	2082.78
372.05	2187.23
372.27	2017.25
372.48	2002.91
372.69	2017.25
372.91	2160.61
373.12	2228.19
373.34	2115.55
373.55	2115.55
373.77	2150.37
373.98	2068.45
374.20	2207.71
374.41	2207.71
374.62	2099.17
374.84	2099.17
375.05	2197.47
375.27	2162.66
375.48	2156.51
375.70	2142.18
375.91	2150.37
376.12	2332.64
376.34	2119.65
376.55	2191.33
376.77	2265.05
376.98	2017.25
377.19	2103.26
377.41	2150.37
377.62	2228.19
377.84	2287.58
378.05	2308.06
378.27	2207.71
378.48	2273.25
378.69	2396.12
378.91	2279.39
379.12	2246.62
379.34	2242.53
379.55	2312.16
379.76	2228.19
379.98	2256.86
380.19	2213.85
380.41	2289.63
380.62	2330.59
380.83	2271.20
381.05	2146.27
381.26	2422.75
381.47	2193.37
381.69	2244.57
381.90	2402.27
382.12	2322.40
382.33	2234.33
382.54	2334.68
382.76	2314.20
382.97	2387.93
383.19	2265.05
383.40	2322.40
383.61	2338.78
383.83	2267.10
384.04	2361.31
384.25	2293.72
384.47	2404.32
384.68	2328.54
384.89	2312.16
385.11	2351.07
385.32	2363.36
385.54	2346.97
385.75	2301.92
385.96	2402.27
386.18	2363.36
386.39	2465.75
386.60	2373.60
386.82	2379.74
387.03	2367.45
387.24	2527.19
387.46	2502.62
387.67	2508.76
387.88	2523.10
388.10	2471.90
388.31	2443.23
388.52	2578.39
388.74	2549.72
388.95	2508.76
389.16	2568.15
389.38	2562.01
389.59	2705.37
389.80	2590.68
390.02	2572.25
390.23	2654.17
390.44	2502.62
390.66	2457.56
390.87	2465.75
391.08	2629.59
391.30	2717.65
391.51	2629.59
391.72	2664.41
391.94	2627.54
392.15	2557.91
392.36	2658.26
392.58	2633.69
392.79	2777.05
393.00	2711.51
393.22	2678.74
393.43	2752.47
393.64	2621.40
393.85	2777.05
394.07	2695.13
394.28	2725.85
394.49	2693.08
394.71	2738.13
394.92	2936.79
395.13	2746.33
395.35	2707.41
395.56	2781.14
395.77	2809.81
395.98	2793.43
396.20	2875.35
396.41	2856.92
396.62	2930.64
396.84	2760.66
397.05	2805.72
397.26	2906.07
397.47	3051.47
397.69	2818.00
397.90	2975.70
398.11	2940.88
398.32	2830.29
398.54	2916.31
398.75	2879.44
398.96	2928.60
399.18	3096.53
399.39	3049.43
399.60	3033.04
399.81	2940.88
400.03	2861.01
400.24	3217.36
400.45	3020.75
400.66	3057.62
400.88	3065.81
401.09	3172.30
401.30	3096.53
401.51	3147.73
401.73	3157.97
401.94	3168.21
402.15	3129.30
402.36	3170.26
402.58	3225.55
402.79	3241.93
403.00	3286.99
403.21	3221.45
403.43	3280.85
403.64	3272.65
403.85	3117.01
404.06	3282.89
404.27	3082.19
404.49	3252.17
404.70	3092.43
404.91	3237.84
405.12	3307.47
405.34	3200.98
405.55	3409.87
405.76	3166.16
405.97	3182.54
406.19	3332.05
406.40	3194.83
406.61	3311.57
406.82	3442.64
407.03	3295.18
407.25	3383.24
407.46	3307.47
407.67	3311.57
407.88	3373.00
408.09	3362.76
408.31	3307.47
408.52	3442.64
408.73	3385.29
408.94	3452.88
409.15	3502.03
409.37	3454.92
409.58	3528.65
409.79	3416.01
410.00	3514.31
410.21	3381.20
410.43	3379.15
410.64	3465.16
410.85	3540.94
411.06	3440.59
411.27	3553.23
411.48	3614.66
411.70	3409.87
411.91	3612.62
412.12	3553.23
412.33	3573.71
412.54	3665.86
412.76	3745.73
412.97	3766.21
413.18	3532.75
413.39	3616.71
413.60	3645.38
413.81	3626.95
414.03	3618.76
414.24	3616.71
414.45	3792.84
414.66	3581.90
414.87	3606.47
415.08	3768.26
415.30	3782.60
415.51	3667.91
415.72	3643.34
415.93	3776.45
416.14	3880.90
416.35	3782.60
416.56	3854.28
416.78	3760.07
416.99	3932.10
417.20	3811.27
417.41	3968.96
417.62	4028.35
417.83	3938.24
418.04	4007.87
418.26	3762.12
418.47	3958.72
418.68	3971.01
418.89	4052.93
419.10	4059.07
419.31	3983.30
419.52	3999.68
419.73	4116.42
419.95	4196.29
420.16	3975.11
420.37	4134.85
420.58	4085.70
420.79	3944.39
421.00	4046.79
421.21	4165.57
421.42	4186.05
421.63	4220.86
421.85	4112.32
422.06	4241.34
422.27	4222.91
422.48	4196.29
422.69	4304.83
422.90	4274.11
423.11	4288.45
423.32	4267.97
423.53	4413.37
423.75	4353.98
423.96	4456.38
424.17	4435.90
424.38	4564.92
424.59	4542.39
424.80	4569.02
425.01	4411.32
425.22	4442.04
425.43	4480.96
425.64	4661.18
425.85	4734.90
426.06	4698.04
426.28	4659.13
426.49	4609.98
426.70	4630.46
426.91	4745.14
427.12	4607.93
427.33	4800.44
427.54	4683.70
427.75	4765.62
427.96	4900.79
428.17	4777.91
428.38	4904.89
428.59	4863.93
428.80	4878.26
429.01	5091.25
429.23	4788.15
429.44	5062.58
429.65	5009.33
429.86	4857.78
430.07	4927.41
430.28	5038.00
430.49	5117.87
430.70	5183.41
430.91	5152.69
431.12	5011.38
431.33	5132.21
431.54	5230.51
431.75	5226.42
431.96	5212.08
432.17	5013.43
432.38	5162.93
432.59	5439.40
432.80	5394.35
433.01	5265.33
433.22	5359.53
433.43	5513.13
433.64	5398.45
433.85	5289.90
434.06	5371.82
434.27	5255.09
434.49	5550.00
434.70	5488.56
434.91	5345.20
435.12	5472.17
435.33	5584.81
435.54	5482.41
435.75	5425.07
435.96	5431.21
436.17	5494.70
436.38	5660.59
436.59	5515.18
436.80	5562.28
437.01	5818.28
437.22	5787.56
437.43	5732.26
437.64	5494.70
437.85	5820.33
438.06	5834.66
438.27	5740.46
438.48	5785.51
438.69	5971.88
438.90	5752.74
439.11	5805.99
439.32	5887.91
439.53	5867.43
439.74	5793.70
439.95	5664.68
440.16	5820.33
440.37	5902.25
440.57	5898.15
440.78	5918.63
440.99	6092.71
441.20	5879.72
441.41	5840.81
441.62	5998.50
441.83	5828.52
442.04	5971.88
442.25	6074.28
442.46	5994.40
442.67	6246.30
442.88	6479.77
443.09	5959.59
443.30	6078.37
443.51	6164.39
443.72	6354.85
443.93	6121.38
444.14	6461.34
444.35	6215.59
444.56	6358.94
444.77	6197.15
444.98	6324.13
445.19	6440.86
445.40	6356.90
445.61	6320.03
445.81	6549.40
446.02	6616.99
446.23	6541.21
446.44	6365.09
446.65	6606.75
446.86	6584.22
447.07	6651.80
447.28	6746.01
447.49	6725.53
447.70	6721.43
447.91	6565.79
448.12	6723.48
448.33	6674.33
448.54	6856.60
448.74	6664.09
448.95	6795.16
449.16	6782.87
449.37	7032.72
449.58	6735.77
449.79	7122.84
450.00	6721.43
450.21	6950.81
450.42	7081.88
450.63	7073.68
450.84	6932.37
451.05	7282.58
451.25	7057.30
451.46	7012.24
451.67	7221.14
451.88	7196.56
452.09	7079.83
452.30	7069.59
452.51	7202.71
452.72	7417.74
452.93	7669.64
453.13	7108.50
453.34	7272.34
453.55	7364.50
453.76	7239.57
453.97	7706.51
454.18	7458.70
454.39	7688.07
454.60	7602.06
454.81	7497.61
455.01	7802.76
455.22	7557.00
455.43	7679.88
455.64	8011.65
455.85	8019.85
456.06	7923.59
456.27	7995.27
456.48	7909.26
456.68	7954.31
456.89	7966.60
457.10	8175.49
457.31	8038.28
457.52	8071.04
457.73	8261.51
457.94	8372.10
458.14	8112.00
458.35	8472.45
458.56	8437.63
458.77	8296.32
458.98	8441.73
459.19	8519.55
459.39	8511.36
459.60	8603.52
459.81	8595.32
460.02	8669.05
460.23	8667.00
460.44	8744.83
460.65	8683.39
460.85	8681.34
461.06	8632.19
461.27	8654.72
461.48	9004.92
461.69	8978.30
461.89	8793.98
462.10	9086.84
462.31	8898.42
462.52	8931.19
462.73	9039.73
462.94	9346.93
463.14	9254.77
463.35	9090.93
463.56	9664.36
463.77	9461.62
463.98	9273.20
464.18	9445.23
464.39	9650.03
464.60	9688.94
464.81	9574.25
465.02	9699.18
465.23	9846.63
465.43	9695.08
465.64	9946.98
465.85	9906.02
466.06	9760.62
466.27	10202.98
466.47	10098.53
466.68	10139.49
466.89	10076.01
467.10	10332.00
467.30	9973.61
467.51	10248.04
467.72	10588.00
467.93	10076.01
468.14	10473.31
468.34	10420.06
468.55	10825.56
468.76	10499.94
468.97	10520.42
469.17	10739.55
469.38	10833.75
469.59	10930.01
469.80	10643.29
470.01	10790.75
470.21	11091.80
470.42	11032.41
470.63	11224.92
470.84	11044.70
471.04	11319.12
471.25	11257.68
471.46	11456.34
471.67	11644.75
471.87	11474.77
472.08	11616.08
472.29	11685.71
472.50	11454.29
472.70	11579.22
472.91	11900.75
473.12	11786.06
473.33	12001.10
473.53	12097.35
473.74	12177.22
473.95	12382.02
474.16	12392.26
474.36	12267.33
474.57	12465.99
474.78	12652.35
474.99	12693.31
475.19	12283.72
475.40	13004.60
475.61	12808.00
475.81	13002.55
476.02	13145.91
476.23	12904.25
476.44	13016.89
476.64	13397.81
476.85	13444.91
477.06	13592.37
477.27	13547.31
477.47	13758.25
477.68	13803.31
477.89	14047.02
478.09	13911.85
478.30	13983.53
478.51	14063.40
478.71	14231.33
478.92	14364.45
479.13	14239.53
479.34	14589.73
479.54	14636.83
479.75	14411.56
479.96	14718.75
480.16	14794.53
480.37	14958.36
480.58	14987.04
480.78	15302.42
480.99	15169.30
481.20	15341.33
481.41	15306.52
481.61	15517.46
481.82	15587.09
482.03	15531.80
482.23	15636.24
482.44	15789.84
482.65	16097.03
482.85	16293.64
483.06	16221.96
483.27	16396.04
483.47	16404.23
483.68	16244.49
483.89	16652.03
484.09	16396.04
484.30	16617.22
484.51	16932.61
484.71	16867.07
484.92	16826.11
485.13	16965.37
485.33	16830.21
485.54	16951.04
485.75	17467.13
485.95	17551.09
486.16	17573.62
486.37	17792.75
486.57	17596.15
486.78	17669.87
486.98	18009.84
487.19	18325.22
487.40	18239.21
487.60	18288.36
487.81	18386.66
488.02	18208.49
488.22	18450.15
488.43	18669.28
488.64	18736.87
488.84	19105.50
489.05	19166.94
489.25	19027.68
489.46	18966.24
489.67	19111.64
489.87	19392.22
490.08	19472.09
490.29	19701.46
490.49	19805.91
490.70	19660.50
490.90	19918.54
491.11	19908.30
491.32	20143.82
491.52	20160.20
491.73	20121.29
491.94	20268.75
492.14	20102.86
492.35	20510.41
492.55	20668.10
492.76	20731.59
492.97	20975.30
493.17	20838.08
493.38	20764.36
493.58	21112.51
493.79	21051.07
494.00	21143.23
494.20	21053.12
494.41	21446.33
494.61	21595.83
494.82	21724.85
495.02	21649.08
495.23	21878.45
495.44	21503.67
495.64	21956.27
495.85	21993.14
496.05	21995.18
496.26	21937.84
496.47	22099.63
496.67	22202.03
496.88	22421.16
497.08	22425.26
497.29	22392.49
497.49	22425.26
497.70	22578.86
497.91	22628.01
498.11	22914.72
498.32	23283.36
498.52	22990.50
498.73	23404.19
498.93	23269.02
499.14	22830.76
499.34	23273.12
499.55	23574.17
499.76	23324.32
499.96	23596.70
500.17	23514.78
500.37	23467.67
500.58	23498.39
500.78	24039.06
500.99	23533.21
501.19	23910.04
501.40	23967.38
501.60	23699.09
501.81	24012.43
502.02	24149.65
502.22	24227.47
502.43	24104.59
502.63	24444.56
502.84	24544.91
503.04	24682.12
503.25	24444.56
503.45	24563.34
503.66	24829.57
503.86	24637.06
504.07	24927.88
504.27	24575.62
504.48	25032.32
504.68	24796.81
504.89	25558.65
505.09	24747.65
505.30	25437.82
505.50	25013.89
505.71	25409.15
505.91	25525.88
506.12	25265.79
506.32	25294.46
506.53	25591.42
506.73	25544.31
506.94	25570.94
507.14	25634.42
507.35	25968.24
507.55	25495.16
507.76	25867.89
507.96	25800.31
508.17	25740.92
508.37	25894.52
508.58	25826.93
508.78	25824.89
508.99	26060.40
509.19	26095.22
509.40	26214.00
509.60	26244.72
509.81	26275.44
510.01	26447.47
510.22	26246.77
510.42	26478.19
510.63	26121.84
510.83	26205.81
511.04	26678.89
511.24	26742.38
511.44	26490.48
511.65	26607.21
511.85	26336.88
512.06	26605.16
512.26	26861.16
512.47	27098.72
512.67	26986.08
512.88	26914.41
513.08	26777.19
513.29	26973.80
513.49	26938.98
513.69	27113.06
513.90	27072.10
514.10	27565.66
514.31	27358.81
514.51	27184.74
514.72	27213.41
514.92	27233.89
515.13	27455.07
515.33	27745.88
515.53	27350.62
515.74	27698.78
515.94	27672.15
516.15	27940.44
516.35	27618.91
516.56	27897.43
516.76	27706.97
516.96	27864.66
517.17	28130.90
517.37	28061.27
517.58	28051.03
517.78	28233.30
517.99	28253.78
518.19	28382.80
518.39	28307.02
518.60	28831.30
518.80	28319.31
519.01	28593.74
519.21	28655.18
519.41	28659.27
519.62	28565.07
519.82	29089.35
520.03	29118.02
520.23	28956.23
520.43	28997.19
520.64	29310.53
520.84	29802.04
521.05	29513.28
521.25	29234.75
521.45	29535.81
521.66	29519.42
521.86	29943.35
522.07	29630.01
522.27	29732.41
522.47	29734.46
522.68	29918.78
522.88	29916.73
523.08	30264.88
523.29	30129.72
523.49	30217.78
523.70	30527.02
523.90	30393.90
524.10	30621.23
524.31	30633.52
524.51	30291.51
524.71	31010.34
524.92	30801.45
525.12	31290.91
525.33	31110.69
525.53	31043.11
525.73	31528.48
525.94	31331.87
526.14	31288.87
526.34	31188.52
526.55	31389.22
526.75	31804.95
526.95	32054.81
527.16	31753.76
527.36	32085.53
527.56	32206.36
527.77	32294.42
527.97	32329.23
528.17	32290.32
528.38	32605.71
528.58	32560.66
528.78	32908.81
528.99	32906.76
529.19	32812.56
529.39	32669.20
529.60	33334.79
529.80	32957.96
530.00	33146.37
530.21	33349.12
530.41	33338.88
530.61	33224.20
530.82	33822.20
531.02	33752.57
531.22	33615.36
531.43	33752.57
531.63	34137.59
531.83	34522.61
532.04	34790.89
532.24	34307.57
532.44	34567.66
532.64	34555.38
532.85	34592.24
533.05	34629.10
533.25	34754.03
533.46	34889.20
533.66	35507.68
533.86	34950.63
534.07	35628.51
534.27	35050.99
534.47	35927.52
534.67	35827.17
534.88	35415.52
535.08	35485.15
535.28	36044.25
535.49	35982.81
535.69	35931.61
535.89	36337.11
536.09	36433.36
536.30	36560.34
536.50	36341.21
536.70	36550.10
536.91	36607.44
537.11	36556.24
537.31	36875.73
537.51	36584.91
537.72	37223.88
537.92	37225.93
538.12	37598.66
538.32	37113.29
538.53	37180.87
538.73	37502.40
538.93	37211.59
539.13	37502.40
539.34	37330.37
539.54	37569.99
539.74	38186.43
539.94	37969.34
540.15	37785.02
540.35	37772.74
540.55	37836.22
540.75	37948.86
540.96	38514.10
541.16	38241.72
541.36	38065.60
541.56	38473.14
541.77	38628.79
541.97	38673.84
542.17	38735.28
542.37	38911.41
542.58	38581.68
542.78	38356.41
542.98	38649.27
543.18	39015.85
543.38	39548.32
543.59	39144.87
543.79	39234.99
543.99	39253.42
544.19	39634.34
544.40	38970.80
544.60	39554.47
544.80	39615.91
545.00	39335.34
545.20	39849.38
545.41	39701.92
545.61	39550.37
545.81	40304.02
546.01	39945.63
546.21	39789.98
546.42	39777.70
546.62	40113.56
546.82	39857.57
547.02	39955.87
547.22	40048.03
547.43	39951.77
547.63	40277.40
547.83	40283.55
548.03	40379.80
548.23	40205.72
548.44	40138.14
548.64	40293.79
548.84	40566.16
549.04	40385.94
549.24	40826.26
549.45	41211.28
549.65	40373.66
549.85	40330.65
550.05	40932.75
550.25	40723.86
550.45	41084.30
550.66	40895.89
550.86	40949.14
551.06	41272.71
551.26	41192.84
551.46	41334.15
551.66	40969.61
551.87	41020.81
552.07	41610.63
552.27	41223.56
552.47	41260.43
552.67	41526.66
552.87	41072.01
553.07	41119.12
553.28	41639.30
553.48	41297.29
553.68	41399.69
553.88	41600.39
554.08	42001.79
554.28	41799.04
554.48	41356.68
554.69	41569.67
554.89	41971.07
555.09	41772.42
555.29	41655.68
555.49	41737.60
555.69	41733.51
555.89	41620.87
556.10	41997.70
556.30	41942.40
556.50	42108.29
556.70	41866.63
556.90	42311.03
557.10	42098.05
557.30	41721.22
557.50	42096.00
557.70	42216.83
557.91	42399.10
558.11	42149.24
558.31	42413.43
558.51	42476.92
558.71	42569.08
558.91	42233.21
559.11	42255.74
559.31	42448.25
559.51	42218.88
559.72	42276.22
559.92	42671.48
560.12	42159.48
560.32	42810.74
560.52	42571.13
560.72	42347.90
560.92	42831.22
561.12	42659.19
561.32	43429.23
561.52	42415.48
561.72	43097.45
561.93	42315.13
562.13	42988.91
562.33	42284.41
562.53	43386.22
562.73	42800.50
562.93	43076.97
563.13	42958.19
563.33	42843.51
563.53	43320.68
563.73	42925.42
563.93	43351.40
564.13	43957.60
564.33	43226.48
564.53	43414.89
564.74	43642.21
564.94	43509.10
565.14	43881.83
565.34	43392.36
565.54	43437.42
565.74	43095.41
565.94	43849.06
566.14	43597.16
566.34	44057.95
566.54	43707.75
566.74	43720.04
566.94	43758.95
567.14	43910.50
567.34	43793.76
567.54	43820.39
567.74	43869.54
567.94	44064.10
568.14	44236.12
568.34	44287.32
568.54	44062.05
568.74	44567.90
568.94	44051.81
569.14	44809.56
569.34	44406.11
569.54	44631.38
569.75	44408.15
569.95	44658.01
570.15	45075.79
570.35	44713.30
570.55	44827.99
570.75	44471.64
570.95	44750.17
571.15	45014.35
571.35	44914.00
571.55	45090.13
571.75	44635.48
571.95	45219.15
572.15	45143.38
572.35	45083.98
572.55	45282.64
572.75	45460.81
572.95	45473.10
573.15	45362.51
573.35	45669.70
573.55	45393.23
573.75	45520.20
573.95	45616.46
574.15	45710.66
574.35	45434.19
574.55	45600.07
574.75	45802.82
574.95	45530.44
575.15	45413.71
575.34	45616.46
575.54	45968.71
575.74	46400.83
575.94	46044.48
576.14	46159.17
576.34	46699.83
576.54	46503.23
576.74	46034.24
576.94	46366.01
577.14	46290.24
577.34	46634.30
577.54	46535.99
577.74	46763.32
577.94	46861.62
578.14	46863.67
578.34	47340.85
578.54	46310.72
578.74	46769.46
578.94	47209.78
579.14	46748.98
579.34	47553.83
579.54	47181.10
579.74	47793.45
579.94	47592.75
580.13	47568.17
580.33	47428.91
580.53	47795.49
580.73	47877.41
580.93	47168.82
581.13	47961.38
581.33	47922.47
581.53	48291.10
581.73	48155.94
581.93	48100.64
582.13	48051.49
582.33	48493.85
582.53	48149.79
582.73	48149.79
582.92	48332.06
583.12	48647.45
583.32	48411.93
583.52	48426.27
583.72	48692.50
583.92	48686.36
584.12	48602.39
584.32	49087.76
584.52	48928.02
584.72	49704.20
584.92	49087.76
585.11	49816.84
585.31	49059.09
585.51	49204.50
585.71	49011.99
585.91	50179.33
586.11	49206.55
586.31	49620.23
586.51	49231.12
586.71	49452.30
586.91	50132.23
587.10	49718.54
587.30	49591.56
587.50	49874.18
587.70	50242.82
587.90	49984.77
588.10	50179.33
588.30	49837.32
588.50	49870.09
