SpectraSuite Data File
++++++++++++++++++++++++++++++++++++
Date: Fri Jun 02 14:44:39 CEST 2017
User: INFO_000
Dark Spectrum Present: No
Reference Spectrum Present: No
Number of Sampled Component Spectra: 1
Spectrometers: USB4H00879
Integration Time (usec): 80000 (USB4H00879)
Spectra Averaged: 1 (USB4H00879)
Boxcar Smoothing: 0 (USB4H00879)
Correct for Electrical Dark: No (USB4H00879)
Strobe/Lamp Enabled: No (USB4H00879)
Correct for Detector Non-linearity: No (USB4H00879)
Correct for Stray Light: No (USB4H00879)
Number of Pixels in Processed Spectrum: 3648
>>>>>Begin Processed Spectral Data<<<<<
345.13	1253.36
345.34	1253.36
345.56	1253.36
345.78	1265.64
345.99	1241.07
346.21	1718.25
346.42	1667.05
346.64	1662.95
346.86	1816.55
347.07	1722.34
347.29	1742.82
347.50	1558.50
347.72	1677.29
347.94	1683.43
348.15	1560.55
348.37	1589.22
348.59	1691.62
348.80	1650.66
349.02	1806.31
349.23	1914.85
349.45	1824.74
349.67	1937.38
349.88	1828.84
350.10	1955.81
350.31	1847.27
350.53	1847.27
350.75	1980.39
350.96	1746.92
351.18	1884.13
351.39	1908.71
351.61	1765.35
351.82	1863.65
352.04	1961.95
352.26	1830.88
352.47	1935.33
352.69	1918.95
352.90	1798.12
353.12	1837.03
353.34	1869.80
353.55	1869.80
353.77	1882.08
353.98	1845.22
354.20	1839.08
354.41	1986.53
354.63	2019.30
354.85	2023.39
355.06	1900.52
355.28	1855.46
355.49	1826.79
355.71	1884.13
355.92	1892.32
356.14	1955.81
356.35	1892.32
356.57	1832.93
356.79	1961.95
357.00	1923.04
357.22	1994.72
357.43	1908.71
357.65	1916.90
357.86	1818.60
358.08	1873.89
358.29	1945.57
358.51	1980.39
358.72	1976.29
358.94	1959.91
359.16	1908.71
359.37	1916.90
359.59	1923.04
359.80	2066.40
360.02	1953.76
360.23	1894.37
360.45	2019.30
360.66	1939.43
360.88	1918.95
361.09	1910.75
361.31	1966.05
361.52	1945.57
361.74	2052.06
361.95	2052.06
362.17	1972.19
362.38	2084.83
362.60	2109.41
362.81	2043.87
363.03	1918.95
363.24	2013.15
363.46	2086.88
363.67	2045.92
363.89	1976.29
364.10	2023.39
364.32	2023.39
364.53	2086.88
364.75	1914.85
364.96	1998.82
365.18	2041.82
365.39	2029.54
365.61	1918.95
365.82	2093.02
366.04	1955.81
366.25	1994.72
366.47	2023.39
366.68	2133.98
366.90	2058.21
367.11	2039.78
367.33	2093.02
367.54	2060.26
367.76	2058.21
367.97	2146.27
368.19	2078.69
368.40	2068.45
368.62	2007.01
368.83	1957.86
369.05	2043.87
369.26	2015.20
369.48	1988.58
369.69	1994.72
369.91	1935.33
370.12	2009.06
370.33	2109.41
370.55	1929.19
370.76	2043.87
370.98	2138.08
371.19	2076.64
371.41	2064.35
371.62	2056.16
371.84	1982.43
372.05	2131.94
372.27	1992.67
372.48	2088.93
372.69	2097.12
372.91	2150.37
373.12	2133.98
373.34	2027.49
373.55	2105.31
373.77	2215.90
373.98	2072.54
374.20	2224.09
374.41	2258.91
374.62	2052.06
374.84	2168.80
375.05	2205.66
375.27	2150.37
375.48	2236.38
375.70	2179.04
375.91	2207.71
376.12	2338.78
376.34	2197.47
376.55	2158.56
376.77	2273.25
376.98	2197.47
377.19	2152.42
377.41	2146.27
377.62	2293.72
377.84	2230.24
378.05	2324.44
378.27	2187.23
378.48	2277.34
378.69	2291.68
378.91	2365.40
379.12	2220.00
379.34	2179.04
379.55	2306.01
379.76	2232.29
379.98	2189.28
380.19	2289.63
380.41	2285.53
380.62	2238.43
380.83	2285.53
381.05	2162.66
381.26	2332.64
381.47	2230.24
381.69	2287.58
381.90	2338.78
382.12	2314.20
382.33	2256.86
382.54	2291.68
382.76	2267.10
382.97	2328.54
383.19	2236.38
383.40	2351.07
383.61	2232.29
383.83	2306.01
384.04	2287.58
384.25	2359.26
384.47	2463.71
384.68	2379.74
384.89	2310.11
385.11	2258.91
385.32	2260.96
385.54	2314.20
385.75	2406.36
385.96	2340.83
386.18	2439.13
386.39	2400.22
386.60	2363.36
386.82	2394.08
387.03	2392.03
387.24	2473.95
387.46	2482.14
387.67	2447.32
387.88	2453.47
388.10	2387.93
388.31	2473.95
388.52	2613.21
388.74	2537.43
388.95	2465.75
389.16	2463.71
389.38	2406.36
389.59	2478.04
389.80	2654.17
390.02	2557.91
390.23	2588.63
390.44	2533.34
390.66	2586.58
390.87	2512.86
391.08	2531.29
391.30	2682.84
391.51	2713.56
391.72	2705.37
391.94	2684.89
392.15	2600.92
392.36	2625.50
392.58	2584.54
392.79	2639.83
393.00	2820.05
393.22	2727.89
393.43	2766.81
393.64	2795.48
393.85	2830.29
394.07	2682.84
394.28	2645.98
394.49	2721.75
394.71	2850.77
394.92	2850.77
395.13	2809.81
395.35	2664.41
395.56	2832.34
395.77	2797.53
395.98	2828.24
396.20	2957.27
396.41	2846.68
396.62	2901.97
396.84	2824.15
397.05	2777.05
397.26	2895.83
397.47	2983.89
397.69	2727.89
397.90	3018.71
398.11	3037.14
398.32	2891.73
398.54	2936.79
398.75	2842.58
398.96	3041.23
399.18	3084.24
399.39	3065.81
399.60	3071.95
399.81	2901.97
400.03	3076.05
400.24	3260.37
400.45	2942.93
400.66	3117.01
400.88	3086.29
401.09	3215.31
401.30	3067.86
401.51	3276.75
401.73	3186.64
401.94	3104.72
402.15	3094.48
402.36	3125.20
402.58	3153.87
402.79	3192.78
403.00	3125.20
403.21	3246.03
403.43	3246.03
403.64	3305.42
403.85	3231.69
404.06	3336.14
404.27	3112.91
404.49	3215.31
404.70	3215.31
404.91	3280.85
405.12	3243.98
405.34	3327.95
405.55	3416.01
405.76	3174.35
405.97	3303.37
406.19	3317.71
406.40	3309.52
406.61	3362.76
406.82	3448.78
407.03	3270.61
407.25	3305.42
407.46	3413.96
407.67	3440.59
407.88	3510.22
408.09	3483.59
408.31	3303.37
408.52	3344.33
408.73	3420.11
408.94	3272.65
409.15	3481.55
409.37	3411.92
409.58	3493.83
409.79	3557.32
410.00	3508.17
410.21	3377.10
410.43	3504.07
410.64	3448.78
410.85	3516.36
411.06	3612.62
411.27	3454.92
411.48	3715.02
411.70	3538.89
411.91	3522.51
412.12	3610.57
412.33	3508.17
412.54	3622.86
412.76	3641.29
412.97	3641.29
413.18	3485.64
413.39	3633.10
413.60	3583.95
413.81	3661.77
414.03	3520.46
414.24	3583.95
414.45	3856.33
414.66	3502.03
414.87	3708.87
415.08	3598.28
415.30	3684.30
415.51	3702.73
415.72	3760.07
415.93	3747.78
416.14	3755.97
416.35	3788.74
416.56	3798.98
416.78	3821.51
416.99	3878.85
417.20	3928.00
417.41	3821.51
417.62	3870.66
417.83	3909.57
418.04	3876.80
418.26	4014.02
418.47	3934.15
418.68	3987.40
418.89	3909.57
419.10	4007.87
419.31	4069.31
419.52	4020.16
419.73	4007.87
419.95	4059.07
420.16	3872.71
420.37	3860.42
420.58	4022.21
420.79	4001.73
421.00	4104.13
421.21	4212.67
421.42	4097.99
421.63	4175.81
421.85	4159.42
422.06	4235.20
422.27	4198.34
422.48	4188.10
422.69	4390.84
422.90	4360.13
423.11	4308.93
423.32	4358.08
423.53	4530.11
423.75	4456.38
423.96	4423.61
424.17	4339.65
424.38	4521.92
424.59	4564.92
424.80	4620.22
425.01	4448.19
425.22	4433.85
425.43	4515.77
425.64	4708.28
425.85	4782.01
426.06	4663.22
426.28	4751.29
426.49	4622.27
426.70	4601.79
426.91	4712.38
427.12	4741.05
427.33	4659.13
427.54	4720.57
427.75	4712.38
427.96	4956.08
428.17	4833.21
428.38	4929.46
428.59	4923.32
428.80	4947.89
429.01	5035.96
429.23	5019.57
429.44	5060.53
429.65	5101.49
429.86	5060.53
430.07	5111.73
430.28	4923.32
430.49	5087.15
430.70	5302.19
430.91	5347.25
431.12	5246.90
431.33	5224.37
431.54	5203.89
431.75	5320.62
431.96	5185.46
432.17	5220.27
432.38	5132.21
432.59	5435.31
432.80	5328.81
433.01	5474.22
433.22	5425.07
433.43	5425.07
433.64	5255.09
433.85	5369.77
434.06	5447.60
434.27	5398.45
434.49	5361.58
434.70	5521.32
434.91	5484.46
435.12	5447.60
435.33	5498.80
435.54	5525.42
435.75	5349.29
435.96	5425.07
436.17	5402.54
436.38	5545.90
436.59	5619.63
436.80	5455.79
437.01	5896.10
437.22	5842.85
437.43	5824.42
437.64	5453.74
437.85	5719.98
438.06	5707.69
438.27	5599.15
438.48	5722.02
438.69	5953.45
438.90	5771.18
439.11	5814.18
439.32	5935.01
439.53	5820.33
439.74	5812.14
439.95	5869.48
440.16	5928.87
440.37	5937.06
440.57	5820.33
440.78	6025.12
440.99	5932.97
441.20	5873.57
441.41	5822.38
441.62	6170.53
441.83	5689.26
442.04	6074.28
442.25	5990.31
442.46	5844.90
442.67	6145.95
442.88	6373.28
443.09	6047.65
443.30	6047.65
443.51	6133.67
443.72	6358.94
443.93	5916.58
444.14	6387.61
444.35	6061.99
444.56	6287.26
444.77	6270.88
444.98	6463.39
445.19	6303.65
445.40	6266.78
445.61	6309.79
445.81	6504.35
446.02	6397.85
446.23	6340.51
446.44	6289.31
446.65	6395.81
446.86	6553.50
447.07	6453.15
447.28	6508.44
447.49	6631.32
447.70	6412.19
447.91	6680.47
448.12	6715.29
448.33	6754.20
448.54	6741.91
448.74	6514.59
448.95	6731.67
449.16	6776.73
449.37	7014.29
449.58	6782.87
449.79	6963.09
450.00	6563.74
450.21	6897.56
450.42	6901.65
450.63	7024.53
450.84	6950.81
451.05	7073.68
451.25	7032.72
451.46	7032.72
451.67	7024.53
451.88	7274.38
452.09	7247.76
452.30	6987.67
452.51	7071.64
452.72	7321.49
452.93	7538.57
453.13	7192.47
453.34	7301.01
453.55	7384.98
453.76	7417.74
453.97	7579.53
454.18	7514.00
454.39	7579.53
454.60	7444.37
454.81	7589.77
455.01	7821.19
455.22	7341.97
455.43	7815.05
455.64	7880.58
455.85	8030.09
456.06	8112.00
456.27	7849.86
456.48	7937.93
456.68	8046.47
456.89	8075.14
457.10	8019.85
457.31	8226.69
457.52	8023.94
457.73	8320.90
457.94	8341.38
458.14	8073.09
458.35	8568.70
458.56	8429.44
458.77	8449.92
458.98	8353.66
459.19	8441.73
459.39	8816.51
459.60	8517.50
459.81	8593.28
460.02	8873.85
460.23	8720.25
460.44	8925.05
460.65	8941.43
460.85	9029.49
461.06	9113.46
461.27	8902.52
461.48	9301.87
461.69	9232.24
461.89	8791.93
462.10	9324.40
462.31	8941.43
462.52	9150.32
462.73	9291.63
462.94	9254.77
463.14	9293.68
463.35	9283.44
463.56	9682.80
463.77	9621.36
463.98	9449.33
464.18	9619.31
464.39	9736.04
464.60	9920.36
464.81	9865.07
465.02	9793.39
465.23	10071.91
465.43	9910.12
465.64	10065.77
465.85	10096.49
466.06	9965.42
466.27	10411.87
466.47	10391.39
466.68	10282.85
466.89	10205.03
467.10	10463.07
467.30	10262.37
467.51	10434.40
467.72	10698.59
467.93	10471.26
468.14	10481.50
468.34	10973.02
468.55	10727.26
468.76	10729.31
468.97	10850.14
469.17	10919.77
469.38	10944.34
469.59	11028.31
469.80	10970.97
470.01	11099.99
470.21	11282.26
470.42	11409.23
470.63	11507.54
470.84	11198.29
471.04	11503.44
471.25	11466.58
471.46	11173.72
471.67	11646.80
471.87	11646.80
472.08	11812.68
472.29	11910.99
472.50	11620.17
472.70	11818.83
472.91	11833.16
473.12	12126.02
473.33	12261.19
473.53	12361.54
473.74	12115.78
473.95	12140.36
474.16	12390.21
474.36	12269.38
474.57	12556.10
474.78	12699.45
474.99	12580.67
475.19	12570.43
475.40	12818.24
475.61	12920.63
475.81	13006.65
476.02	13123.38
476.23	12920.63
476.44	13027.13
476.64	13328.18
476.85	13373.24
477.06	13672.24
477.27	13608.75
477.47	13610.80
477.68	13639.47
477.89	13842.22
478.09	13852.46
478.30	13817.65
478.51	13752.11
478.71	14030.63
478.92	14042.92
479.13	14423.84
479.34	14417.70
479.54	14294.82
479.75	14448.42
479.96	14452.52
480.16	14540.58
480.37	14763.81
480.58	14755.61
480.78	15152.92
480.99	14907.16
481.20	15308.57
481.41	15292.18
481.61	15152.92
481.82	15484.69
482.03	15490.84
482.23	15415.06
482.44	15755.02
482.65	15863.57
482.85	15822.61
483.06	16228.10
483.27	15836.94
483.47	16092.94
483.68	15943.44
483.89	16236.30
484.09	16228.10
484.30	16381.70
484.51	16551.68
484.71	16742.14
484.92	16781.06
485.13	16736.00
485.33	16652.03
485.54	17092.35
485.75	17155.83
485.95	17329.91
486.16	17200.89
486.37	17157.88
486.57	17493.75
486.78	17356.54
486.98	17792.75
487.19	17643.25
487.40	17858.29
487.60	17762.03
487.81	18241.26
488.02	18116.33
488.22	17884.91
488.43	18319.08
488.64	18267.88
488.84	18478.82
489.05	18597.60
489.25	18818.78
489.46	18992.86
489.67	18507.49
489.87	19103.45
490.08	19095.26
490.29	19324.63
490.49	19640.02
490.70	19549.91
490.90	19762.90
491.11	19506.90
491.32	19861.20
491.52	19805.91
491.73	19990.22
491.94	20133.58
492.14	19873.49
492.35	20324.04
492.55	20442.82
492.76	20440.78
492.97	20514.50
493.17	20633.29
493.38	20694.72
493.58	21145.28
493.79	20885.19
494.00	21022.40
494.20	21110.46
494.41	21227.20
494.61	21382.84
494.82	21479.10
495.02	21610.17
495.23	21544.63
495.44	21634.74
495.64	21939.89
495.85	21870.26
496.05	22030.00
496.26	22281.90
496.47	22392.49
496.67	22134.45
496.88	22628.01
497.08	22312.62
497.29	22759.08
497.49	22687.40
497.70	22851.24
497.91	23078.56
498.11	22976.16
498.32	23080.61
498.52	23017.12
498.73	23522.97
498.93	23309.98
499.14	23355.04
499.34	23533.21
499.55	23821.97
499.76	23637.66
499.96	23582.36
500.17	23735.96
500.37	23719.57
500.58	24163.98
500.78	24229.52
500.99	24061.58
501.19	24407.69
501.40	24129.17
501.60	24241.81
501.81	24606.34
502.02	24311.44
502.22	24114.83
502.43	24938.12
502.63	25073.28
502.84	24929.92
503.04	24925.83
503.25	24727.17
503.45	25097.86
503.66	25431.68
503.86	24925.83
504.07	25394.81
504.27	25110.14
504.48	25597.56
504.68	25503.35
504.89	25593.47
505.09	25570.94
505.30	25282.17
505.50	25892.47
505.71	25794.17
505.91	26113.65
506.12	26031.73
506.32	25953.91
506.53	25925.24
506.73	25806.45
506.94	26332.78
507.14	26158.70
507.35	26201.71
507.55	26394.22
507.76	26498.67
507.96	26142.32
508.17	26596.97
508.37	26558.06
508.58	26621.55
508.78	27084.39
508.99	26951.27
509.19	26801.77
509.40	27070.05
509.60	26740.33
509.81	26988.13
510.01	26527.34
510.22	26941.03
510.42	27041.38
510.63	27205.22
510.83	27297.38
511.04	26947.17
511.24	27375.20
511.44	27041.38
511.65	27289.18
511.85	27207.26
512.06	27242.08
512.26	27561.56
512.47	27367.01
512.67	27133.54
512.88	27608.67
513.08	27053.67
513.29	27674.20
513.49	27326.05
513.69	27602.52
513.90	27760.22
514.10	27674.20
514.31	27336.29
514.51	27754.07
514.72	27635.29
514.92	27567.71
515.13	28048.98
515.33	28034.64
515.53	28044.88
515.74	28206.67
515.94	28337.74
516.15	28182.10
516.35	27778.65
516.56	28157.52
516.76	28057.17
516.96	28307.02
517.17	28407.37
517.37	27971.16
517.58	28419.66
517.78	28489.29
517.99	28395.09
518.19	28579.40
518.39	28552.78
518.60	28448.33
518.80	28540.49
519.01	28550.73
519.21	28902.98
519.41	28710.47
519.62	28661.32
519.82	28776.01
520.03	28911.17
520.23	28868.17
520.43	28554.83
520.64	29204.03
520.84	29261.38
521.05	29281.86
521.25	29126.21
521.45	29167.17
521.66	29500.99
521.86	29363.78
522.07	29425.22
522.27	29666.88
522.47	29406.78
522.68	29435.45
522.88	29890.10
523.08	30133.81
523.29	29720.12
523.49	29763.13
523.70	30043.70
523.90	30074.42
524.10	30385.71
524.31	30498.35
524.51	29972.02
524.71	30735.92
524.92	30682.67
525.12	30242.35
525.33	30576.17
525.53	30785.07
525.73	30967.34
525.94	30846.51
526.14	30785.07
526.34	30705.20
526.55	30813.74
526.75	31284.77
526.95	31516.19
527.16	30815.79
527.36	31231.52
527.56	31319.59
527.77	31338.02
527.97	31659.55
528.17	31442.46
528.38	31475.23
528.58	31335.97
528.78	31823.39
528.99	32046.62
529.19	32106.01
529.39	32216.60
529.60	32570.90
529.80	32343.57
530.00	32249.36
530.21	32318.99
530.41	32622.09
530.61	32720.40
530.82	32546.32
531.02	32636.43
531.22	32613.90
531.43	33181.19
531.63	32955.91
531.83	33351.17
532.04	33748.48
532.24	33289.73
532.44	33842.68
532.64	33844.73
532.85	33895.93
533.05	34166.26
533.25	33857.02
533.46	33789.44
533.66	34401.78
533.86	34100.73
534.07	34655.73
534.27	34297.33
534.47	34944.49
534.67	34784.75
534.88	34526.71
535.08	35110.38
535.28	35481.06
535.49	35421.67
535.69	35413.48
535.89	35382.76
536.09	35694.05
536.30	35769.82
536.50	35796.45
536.70	35886.56
536.91	35517.92
537.11	36271.57
537.31	36324.82
537.51	36173.27
537.72	36548.05
537.92	36566.48
538.12	36845.01
538.32	36447.70
538.53	36869.58
538.73	36736.46
538.93	36761.04
539.13	37090.76
539.34	37414.34
539.54	37189.06
539.74	37723.58
539.94	37352.90
540.15	37533.12
540.35	37981.63
540.55	38116.79
540.75	37660.10
540.96	37920.19
541.16	38141.37
541.36	38356.41
541.56	38024.64
541.77	38725.04
541.97	38450.61
542.17	38528.44
542.37	38618.55
542.58	38868.40
542.78	38487.48
542.98	38788.53
543.18	38804.91
543.38	39142.83
543.59	39626.15
543.79	39359.91
543.99	39361.96
544.19	39622.05
544.40	39667.11
544.60	39753.12
544.80	39749.03
545.00	40045.98
545.20	39935.39
545.41	39695.78
545.61	39996.83
545.81	40394.14
546.01	40504.73
546.21	40566.16
546.42	40134.04
546.62	40512.92
546.82	40512.92
547.02	40875.41
547.22	40674.71
547.43	40635.80
547.63	41141.64
547.83	40879.50
548.03	40887.70
548.23	41090.44
548.44	40957.33
548.64	41270.67
548.84	41307.53
549.04	40983.95
549.24	41473.42
549.45	42112.38
549.65	41563.53
549.85	41778.56
550.05	41780.61
550.25	41592.20
550.45	42184.06
550.66	41938.30
550.86	41753.99
551.06	42239.36
551.26	42358.14
551.46	42395.00
551.66	42149.24
551.87	42423.67
552.07	42696.05
552.27	42624.37
552.47	42554.74
552.67	42667.38
552.87	42892.66
553.07	42622.33
553.28	42427.77
553.48	42896.75
553.68	42833.27
553.88	43066.73
554.08	42876.27
554.28	42448.25
554.48	42644.85
554.69	43259.24
554.89	42737.01
555.09	43173.23
555.29	42863.99
555.49	43660.65
555.69	43220.33
555.89	43212.14
556.10	43505.00
556.30	43119.98
556.50	43259.24
556.70	43361.64
556.90	43486.57
557.10	43593.06
557.30	43496.81
557.50	43689.32
557.70	43853.15
557.91	43847.01
558.11	43771.24
558.31	43885.92
558.51	43605.35
558.71	43613.54
558.91	43292.01
559.11	43552.10
559.31	43687.27
559.51	43447.66
559.72	44197.21
559.92	43885.92
560.12	43715.94
560.32	44426.59
560.52	43898.21
560.72	43812.20
560.92	43539.82
561.12	43701.61
561.32	44522.84
561.52	43904.35
561.72	44510.55
561.93	43867.49
562.13	44254.56
562.33	43857.25
562.53	44326.24
562.73	44094.82
562.93	44164.45
563.13	44537.18
563.33	43785.57
563.53	44295.52
563.73	43892.07
563.93	44127.58
564.13	44746.07
564.33	44195.17
564.53	44135.77
564.74	44236.12
564.94	44141.92
565.14	44506.46
565.34	44041.57
565.54	44313.95
565.74	44270.94
565.94	44539.22
566.14	44537.18
566.34	44758.36
566.54	44830.04
566.74	43924.83
566.94	44596.57
567.14	44694.87
567.34	44154.21
567.54	44744.02
567.74	43965.79
567.94	44264.80
568.14	44782.93
568.34	44463.45
568.54	44504.41
568.74	44379.48
568.94	44500.31
569.14	44830.04
569.34	44895.57
569.54	44875.09
569.75	44180.83
569.95	44447.07
570.15	44647.77
570.35	45053.26
570.55	44897.62
570.75	45147.47
570.95	44709.21
571.15	44823.89
571.35	44627.29
571.55	44778.84
571.75	44746.07
571.95	44817.75
572.15	44569.94
572.35	45040.98
572.55	44717.40
572.75	44621.14
572.95	45004.11
573.15	45118.80
573.35	45292.88
573.55	45358.41
573.75	45290.83
573.95	45141.33
574.15	44780.88
574.35	45348.17
574.55	45086.03
574.75	45440.33
574.95	45010.26
575.15	44813.65
575.34	45112.66
575.54	45362.51
575.74	45106.51
575.94	45522.25
576.14	45251.92
576.34	45346.12
576.54	45686.09
576.74	45450.57
576.94	45415.76
577.14	45786.44
577.34	46204.22
577.54	45454.67
577.74	45940.04
577.94	45784.39
578.14	45882.69
578.34	45720.90
578.54	45632.84
578.74	45694.28
578.94	45749.57
579.14	46011.71
579.34	45962.56
579.54	46142.78
579.74	46210.37
579.94	46280.00
580.13	46355.77
580.33	46056.77
580.53	46255.42
580.73	45864.26
580.93	46165.31
581.13	46507.32
581.33	46814.52
581.53	46918.96
581.73	46908.72
581.93	46757.17
582.13	46892.34
582.33	46931.25
582.53	46511.42
582.73	46904.63
582.92	46955.83
583.12	46603.58
583.32	46871.86
583.52	46746.93
583.72	46994.74
583.92	46830.90
584.12	47068.47
584.32	47961.38
584.52	47220.02
584.72	47502.64
584.92	47471.92
585.11	48082.21
585.31	47942.95
585.51	47992.10
585.71	47363.37
585.91	47803.69
586.11	47609.13
586.31	47572.27
586.51	47891.75
586.71	47971.62
586.91	48549.15
587.10	48164.13
587.30	48037.16
587.50	48059.68
587.70	48293.15
587.90	48100.64
588.10	48315.68
588.30	48416.03
588.50	48971.03
