SpectraSuite Data File
++++++++++++++++++++++++++++++++++++
Date: Fri Jun 02 14:44:32 CEST 2017
User: INFO_000
Dark Spectrum Present: No
Reference Spectrum Present: No
Number of Sampled Component Spectra: 1
Spectrometers: USB4H00879
Integration Time (usec): 80000 (USB4H00879)
Spectra Averaged: 1 (USB4H00879)
Boxcar Smoothing: 0 (USB4H00879)
Correct for Electrical Dark: No (USB4H00879)
Strobe/Lamp Enabled: No (USB4H00879)
Correct for Detector Non-linearity: No (USB4H00879)
Correct for Stray Light: No (USB4H00879)
Number of Pixels in Processed Spectrum: 3648
>>>>>Begin Processed Spectral Data<<<<<
345.13	1300.46
345.34	1300.46
345.56	1300.46
345.78	1279.98
345.99	1239.02
346.21	1763.30
346.42	1720.29
346.64	1644.52
346.86	1751.01
347.07	1626.09
347.29	1708.01
347.50	1578.98
347.72	1632.23
347.94	1755.11
348.15	1566.70
348.37	1615.85
348.59	1726.44
348.80	1658.85
349.02	1808.36
349.23	1851.36
349.45	1820.64
349.67	1828.84
349.88	1703.91
350.10	1906.66
350.31	1806.31
350.53	1748.97
350.75	1834.98
350.96	1728.49
351.18	1822.69
351.39	1798.12
351.61	1722.34
351.82	1798.12
352.04	1787.88
352.26	1742.82
352.47	1798.12
352.69	1859.56
352.90	1701.86
353.12	1689.57
353.34	1730.53
353.55	1806.31
353.77	1738.73
353.98	1808.36
354.20	1738.73
354.41	1816.55
354.63	1830.88
354.85	1984.48
355.06	1734.63
355.28	1642.47
355.49	1738.73
355.71	1773.54
355.92	1826.79
356.14	1830.88
356.35	1767.40
356.57	1789.92
356.79	1906.66
357.00	1785.83
357.22	1939.43
357.43	1755.11
357.65	1929.19
357.86	1763.30
358.08	1800.16
358.29	1818.60
358.51	1898.47
358.72	1814.50
358.94	1787.88
359.16	1900.52
359.37	1816.55
359.59	1888.23
359.80	1904.61
360.02	1873.89
360.23	1949.67
360.45	1880.04
360.66	1849.32
360.88	1767.40
361.09	1810.40
361.31	1841.12
361.52	1875.94
361.74	1984.48
361.95	2011.11
362.17	1824.74
362.38	1966.05
362.60	1974.24
362.81	1814.50
363.03	1837.03
363.24	1855.46
363.46	1994.72
363.67	1984.48
363.89	1949.67
364.10	1935.33
364.32	1740.77
364.53	1982.43
364.75	1808.36
364.96	1855.46
365.18	1949.67
365.39	1900.52
365.61	1875.94
365.82	2033.63
366.04	1984.48
366.25	1869.80
366.47	1927.14
366.68	1972.19
366.90	1990.63
367.11	2000.87
367.33	2039.78
367.54	1964.00
367.76	1941.47
367.97	2131.94
368.19	1927.14
368.40	1986.53
368.62	1908.71
368.83	1894.37
369.05	1904.61
369.26	1892.32
369.48	1892.32
369.69	1890.28
369.91	1978.34
370.12	1888.23
370.33	1945.57
370.55	1851.36
370.76	1847.27
370.98	1970.15
371.19	2031.58
371.41	1951.71
371.62	1916.90
371.84	1890.28
372.05	2076.64
372.27	1904.61
372.48	2011.11
372.69	1955.81
372.91	2146.27
373.12	2045.92
373.34	1896.42
373.55	1953.76
373.77	2074.59
373.98	2041.82
374.20	2150.37
374.41	2142.18
374.62	2066.40
374.84	2103.26
375.05	2142.18
375.27	2039.78
375.48	2078.69
375.70	2074.59
375.91	2105.31
376.12	2220.00
376.34	2099.17
376.55	2095.07
376.77	2050.02
376.98	1980.39
377.19	2109.41
377.41	2076.64
377.62	2054.11
377.84	2166.75
378.05	2301.92
378.27	2209.76
378.48	2115.55
378.69	2252.77
378.91	2236.38
379.12	2217.95
379.34	2199.52
379.55	2258.91
379.76	2172.89
379.98	2207.71
380.19	2195.42
380.41	2267.10
380.62	2277.34
380.83	2232.29
381.05	2068.45
381.26	2303.96
381.47	2238.43
381.69	2326.49
381.90	2410.46
382.12	2308.06
382.33	2215.90
382.54	2281.44
382.76	2285.53
382.97	2310.11
383.19	2213.85
383.40	2379.74
383.61	2207.71
383.83	2297.82
384.04	2289.63
384.25	2240.48
384.47	2289.63
384.68	2346.97
384.89	2265.05
385.11	2301.92
385.32	2273.25
385.54	2346.97
385.75	2326.49
385.96	2412.51
386.18	2353.12
386.39	2396.12
386.60	2361.31
386.82	2371.55
387.03	2320.35
387.24	2484.19
387.46	2435.03
387.67	2510.81
387.88	2568.15
388.10	2373.60
388.31	2473.95
388.52	2519.00
388.74	2609.11
388.95	2451.42
389.16	2482.14
389.38	2500.57
389.59	2582.49
389.80	2697.17
390.02	2551.77
390.23	2662.36
390.44	2467.80
390.66	2533.34
390.87	2437.08
391.08	2609.11
391.30	2697.17
391.51	2676.70
391.72	2650.07
391.94	2650.07
392.15	2621.40
392.36	2609.11
392.58	2516.95
392.79	2695.13
393.00	2637.78
393.22	2785.24
393.43	2672.60
393.64	2736.09
393.85	2809.81
394.07	2674.65
394.28	2764.76
394.49	2779.09
394.71	2754.52
394.92	2801.62
395.13	2731.99
395.35	2789.33
395.56	2631.64
395.77	2703.32
395.98	2838.48
396.20	2813.91
396.41	2762.71
396.62	2928.60
396.84	2844.63
397.05	2836.44
397.26	2920.40
397.47	2961.36
397.69	2846.68
397.90	3076.05
398.11	2863.06
398.32	3014.61
398.54	2854.87
398.75	2877.40
398.96	3008.47
399.18	3092.43
399.39	2987.99
399.60	3092.43
399.81	2897.88
400.03	2967.51
400.24	3301.33
400.45	2994.13
400.66	3119.06
400.88	2973.65
401.09	3272.65
401.30	3059.67
401.51	3168.21
401.73	3069.91
401.94	3127.25
402.15	3129.30
402.36	3096.53
402.58	3172.30
402.79	3307.47
403.00	3160.02
403.21	3223.50
403.43	3188.69
403.64	3293.13
403.85	3076.05
404.06	3233.74
404.27	3170.26
404.49	3141.58
404.70	3170.26
404.91	3360.72
405.12	3330.00
405.34	3289.04
405.55	3323.85
405.76	3129.30
405.97	3260.37
406.19	3286.99
406.40	3276.75
406.61	3289.04
406.82	3397.58
407.03	3227.60
407.25	3213.26
407.46	3389.39
407.67	3506.12
407.88	3461.07
408.09	3270.61
408.31	3385.29
408.52	3393.48
408.73	3276.75
408.94	3293.13
409.15	3485.64
409.37	3602.38
409.58	3549.13
409.79	3467.21
410.00	3602.38
410.21	3456.97
410.43	3487.69
410.64	3422.16
410.85	3565.51
411.06	3561.42
411.27	3551.18
411.48	3495.88
411.70	3461.07
411.91	3553.23
412.12	3641.29
412.33	3542.99
412.54	3514.31
412.76	3669.96
412.97	3776.45
413.18	3618.76
413.39	3606.47
413.60	3678.15
413.81	3741.64
414.03	3608.52
414.24	3618.76
414.45	3817.41
414.66	3657.67
414.87	3737.54
415.08	3815.37
415.30	3614.66
415.51	3790.79
415.72	3786.69
415.93	3835.85
416.14	3823.56
416.35	3858.37
416.56	3841.99
416.78	3895.24
416.99	3819.46
417.20	3758.02
417.41	3995.59
417.62	3923.91
417.83	3973.06
418.04	3860.42
418.26	3856.33
418.47	3932.10
418.68	4048.83
418.89	3987.40
419.10	4151.23
419.31	4091.84
419.52	4110.27
419.73	4052.93
419.95	4151.23
420.16	4059.07
420.37	3919.81
420.58	4079.55
420.79	3923.91
421.00	4149.18
421.21	4204.48
421.42	4034.50
421.63	4239.30
421.85	4059.07
422.06	4233.15
422.27	4132.80
422.48	4145.09
422.69	4206.53
422.90	4190.14
423.11	4202.43
423.32	4351.93
423.53	4433.85
423.75	4405.18
423.96	4452.28
424.17	4374.46
424.38	4448.19
424.59	4251.58
424.80	4554.68
425.01	4491.20
425.22	4474.81
425.43	4437.95
425.64	4759.48
425.85	4589.50
426.06	4675.51
426.28	4630.46
426.49	4497.34
426.70	4480.96
426.91	4517.82
427.12	4673.46
427.33	4601.79
427.54	4669.37
427.75	4802.49
427.96	4689.85
428.17	4767.67
428.38	4751.29
428.59	4949.94
428.80	4923.32
429.01	4876.21
429.23	4870.07
429.44	5025.72
429.65	4796.34
429.86	5107.63
430.07	4726.71
430.28	4878.26
430.49	5013.43
430.70	5044.15
430.91	5103.54
431.12	5058.48
431.33	5234.61
431.54	5187.50
431.75	5207.98
431.96	5068.72
432.17	5183.41
432.38	5195.70
432.59	5496.75
432.80	5345.20
433.01	5300.14
433.22	5451.69
433.43	5347.25
433.64	5279.66
433.85	5222.32
434.06	5390.25
434.27	5291.95
434.49	5402.54
434.70	5476.27
434.91	5412.78
435.12	5459.88
435.33	5445.55
435.54	5539.76
435.75	5457.84
435.96	5560.24
436.17	5486.51
436.38	5869.48
436.59	5511.08
436.80	5478.32
437.01	5805.99
437.22	5722.02
437.43	5724.07
437.64	5595.05
437.85	5855.14
438.06	5711.78
438.27	5658.54
438.48	5582.76
438.69	5965.73
438.90	5767.08
439.11	5605.29
439.32	5877.67
439.53	5771.18
439.74	5926.82
439.95	5932.97
440.16	5832.62
440.37	6016.93
440.57	5834.66
440.78	6094.76
440.99	6041.51
441.20	5984.16
441.41	5949.35
441.62	5984.16
441.83	5885.86
442.04	5998.50
442.25	6078.37
442.46	5994.40
442.67	6207.39
442.88	6662.04
443.09	6107.04
443.30	6303.65
443.51	6451.10
443.72	6455.20
443.93	6184.87
444.14	6578.08
444.35	6195.11
444.56	6289.31
444.77	6199.20
444.98	6414.24
445.19	6483.87
445.40	6485.92
445.61	6246.30
445.81	6537.12
446.02	6485.92
446.23	6342.56
446.44	6412.19
446.65	6627.23
446.86	6385.57
447.07	6743.96
447.28	6696.86
447.49	6803.35
447.70	6692.76
447.91	6813.59
448.12	6754.20
448.33	6684.57
448.54	6875.03
448.74	6569.88
448.95	6877.08
449.16	6735.77
449.37	7073.68
449.58	6643.61
449.79	7108.50
450.00	6938.52
450.21	6950.81
450.42	7153.55
450.63	6967.19
450.84	7124.88
451.05	7155.60
451.25	7034.77
451.46	6987.67
451.67	7276.43
451.88	7397.26
452.09	7313.30
452.30	7079.83
452.51	7219.09
452.72	7206.80
452.93	7552.91
453.13	7081.88
453.34	7276.43
453.55	7311.25
453.76	7223.19
453.97	7669.64
454.18	7432.08
454.39	7663.50
454.60	7313.30
454.81	7554.96
455.01	7782.28
455.22	7434.13
455.43	7557.00
455.64	7921.54
455.85	7999.37
456.06	7958.41
456.27	7837.58
456.48	7692.17
456.68	7982.98
456.89	7991.17
457.10	7884.68
457.31	8095.62
457.52	8191.88
457.73	7989.13
457.94	8372.10
458.14	8069.00
458.35	8537.98
458.56	8097.67
458.77	8167.30
458.98	8357.76
459.19	8359.81
459.39	8413.06
459.60	8556.41
459.81	8431.49
460.02	8638.33
460.23	8617.85
460.44	8834.94
460.65	8691.58
460.85	8775.55
461.06	8849.27
461.27	8490.88
461.48	8982.39
461.69	8826.75
461.89	8693.63
462.10	8853.37
462.31	8621.95
462.52	8957.82
462.73	8916.86
462.94	9121.65
463.14	9103.22
463.35	9095.03
463.56	9492.34
463.77	9434.99
463.98	9357.17
464.18	9502.58
464.39	9445.23
464.60	9658.22
464.81	9600.88
465.02	9600.88
465.23	9901.93
465.43	9596.78
465.64	9873.26
465.85	9680.75
466.06	10000.23
466.27	10129.25
466.47	10053.48
466.68	10088.29
466.89	10121.06
467.10	10164.07
467.30	9883.50
467.51	10401.63
467.72	10440.54
467.93	10248.04
468.14	10362.72
468.34	10637.15
468.55	10602.33
468.76	10717.02
468.97	10342.24
469.17	10792.80
469.38	10616.67
469.59	10981.21
469.80	10794.84
470.01	10850.14
470.21	11143.00
470.42	11235.16
470.63	11243.35
470.84	11067.22
471.04	11206.48
471.25	11407.19
471.46	11464.53
471.67	11648.85
471.87	11700.05
472.08	11632.46
472.29	11927.37
472.50	11474.77
472.70	11728.72
472.91	11804.49
473.12	11960.14
473.33	12070.73
473.53	12185.41
473.74	12230.47
473.95	12357.44
474.16	12351.30
474.36	12488.51
474.57	12523.33
474.78	12918.59
474.99	12687.17
475.19	12691.26
475.40	13053.75
475.61	12793.66
475.81	13162.30
476.02	13479.73
476.23	12992.31
476.44	13315.89
476.64	13651.76
476.85	13559.60
477.06	13485.87
477.27	13840.17
477.47	13698.86
477.68	13815.60
477.89	13920.04
478.09	14069.55
478.30	14192.42
478.51	14161.70
478.71	14444.32
478.92	14466.85
479.13	14573.35
479.34	14657.31
479.54	14759.71
479.75	14708.51
479.96	14704.42
480.16	14839.58
480.37	15005.47
480.58	15138.58
480.78	15288.09
480.99	15240.98
481.20	15494.93
481.41	15347.48
481.61	15714.06
481.82	15773.46
482.03	15755.02
482.23	15656.72
482.44	15744.78
482.65	16283.40
482.85	16004.88
483.06	16086.79
483.27	16338.69
483.47	16340.74
483.68	16285.45
483.89	16385.80
484.09	16533.25
484.30	16621.31
484.51	16662.27
484.71	16695.04
484.92	17166.07
485.13	17288.95
485.33	17223.42
485.54	16914.17
485.75	17493.75
485.95	17692.40
486.16	17665.78
486.37	17829.62
486.57	17702.64
486.78	17598.20
486.98	17680.11
487.19	17667.83
487.40	18022.12
487.60	18024.17
487.81	18259.69
488.02	18104.04
488.22	18355.94
488.43	18620.13
488.64	18542.31
488.84	18796.26
489.05	18831.07
489.25	18765.54
489.46	19046.11
489.67	19001.05
489.87	19312.35
490.08	19164.89
490.29	19218.14
490.49	19756.75
490.70	19705.56
490.90	19697.36
491.11	19824.34
491.32	19943.12
491.52	19840.72
491.73	20098.77
491.94	19969.74
492.14	19982.03
492.35	20188.88
492.55	20491.98
492.76	20227.79
492.97	20666.05
493.17	20522.69
493.38	20856.51
493.58	20942.53
493.79	20833.99
494.00	20979.39
494.20	20965.06
494.41	21139.13
494.61	21415.61
494.82	21241.53
495.02	21434.04
495.23	21462.71
495.44	21558.97
495.64	21606.07
495.85	21667.51
496.05	21993.14
496.26	21800.63
496.47	22136.49
496.67	21913.27
496.88	22412.97
497.08	21796.53
497.29	22357.67
497.49	22036.14
497.70	22472.36
497.91	22644.39
498.11	22435.50
498.32	22800.04
498.52	22861.48
498.73	23488.15
498.93	22802.08
499.14	23064.22
499.34	23246.49
499.55	23262.88
499.76	23099.04
499.96	23201.44
500.17	23242.40
500.37	23627.42
500.58	23527.06
500.78	23393.95
500.99	23735.96
501.19	23611.03
501.40	23731.86
501.60	23701.14
501.81	23797.40
502.02	24041.11
502.22	23836.31
502.43	24135.31
502.63	24409.74
502.84	24409.74
503.04	24247.95
503.25	24174.22
503.45	24354.44
503.66	24465.03
503.86	24516.23
504.07	24673.93
504.27	24774.28
504.48	25063.04
504.68	24807.05
504.89	24915.59
505.09	25185.92
505.30	25052.80
505.50	25247.36
505.71	25140.86
505.91	25413.24
506.12	25640.57
506.32	25360.00
506.53	25134.72
506.73	25484.92
506.94	25491.07
507.14	25663.10
507.35	25720.44
507.55	25828.98
507.76	25704.06
507.96	25765.49
508.17	25818.74
508.37	26240.62
508.58	26076.79
508.78	25781.88
508.99	26326.64
509.19	26205.81
509.40	25943.67
509.60	25960.05
509.81	26392.17
510.01	26611.31
510.22	26422.89
510.42	26306.16
510.63	26353.26
510.83	26375.79
511.04	26609.26
511.24	27045.48
511.44	26674.79
511.65	26580.59
511.85	26748.52
512.06	26834.53
512.26	27002.47
512.47	27055.72
512.67	27117.15
512.88	27438.69
513.08	26816.10
513.29	27254.37
513.49	27063.91
513.69	27143.78
513.90	27387.49
514.10	27379.29
514.31	27770.46
514.51	27313.76
514.72	27631.19
514.92	27588.19
515.13	27844.18
515.33	27965.01
515.53	27635.29
515.74	27850.33
515.94	27948.63
516.15	28171.86
516.35	27747.93
516.56	28120.66
516.76	27864.66
516.96	27893.33
517.17	28210.77
517.37	28184.15
517.58	28255.82
517.78	28657.23
517.99	28585.55
518.19	28784.20
518.39	28653.13
518.60	28827.21
518.80	28825.16
519.01	29027.91
519.21	29075.01
519.41	28999.24
519.62	28847.69
519.82	29038.15
520.03	29228.61
520.23	29267.52
520.43	29118.02
520.64	29621.82
520.84	29711.93
521.05	29359.68
521.25	29408.83
521.45	29517.37
521.66	30062.13
521.86	29877.82
522.07	30195.25
522.27	30238.26
522.47	30150.20
522.68	30422.58
522.88	29937.21
523.08	30137.91
523.29	30264.88
523.49	30506.54
523.70	30826.03
523.90	30580.27
524.10	30594.61
524.31	30623.28
524.51	30473.78
524.71	30936.62
524.92	30877.22
525.12	31335.97
525.33	31282.72
525.53	31520.29
525.73	31561.25
525.94	31499.81
526.14	31458.85
526.34	31350.31
526.55	31725.08
526.75	31772.19
526.95	31940.12
527.16	31845.91
527.36	31725.08
527.56	32382.48
527.77	32437.78
527.97	32642.57
528.17	32413.20
528.38	32415.25
528.58	32654.86
528.78	32759.31
528.99	32613.90
529.19	33142.28
529.39	32704.01
529.60	33277.44
529.80	33234.44
530.00	33236.48
530.21	33078.79
530.41	33551.87
530.61	33531.39
530.82	33328.64
531.02	33363.46
531.22	33455.62
531.43	33621.50
531.63	33826.30
531.83	34190.84
532.04	34192.89
532.24	33963.51
532.44	34412.02
532.64	34399.73
532.85	34399.73
533.05	34450.93
533.25	34518.51
533.46	34483.70
533.66	35120.62
533.86	34729.45
534.07	35612.13
534.27	34790.89
534.47	35311.08
534.67	35280.36
534.88	35188.20
535.08	35440.10
535.28	35874.27
535.49	35706.34
535.69	35659.23
535.89	35728.86
536.09	36222.42
536.30	36263.38
536.50	36095.45
536.70	36154.84
536.91	36552.15
537.11	36347.35
537.31	36410.84
537.51	36445.65
537.72	36728.27
537.92	36804.05
538.12	37127.63
538.32	36455.89
538.53	37076.43
538.73	36603.35
538.93	36869.58
539.13	36699.60
539.34	37037.51
539.54	36855.25
539.74	37227.98
539.94	37244.36
540.15	37051.85
540.35	37688.77
540.55	37582.27
540.75	37471.68
540.96	37653.95
541.16	37803.46
541.36	37520.84
541.56	38176.19
541.77	38251.96
541.97	37975.48
542.17	38088.12
542.37	38483.38
542.58	37959.10
542.78	38225.34
542.98	38051.26
543.18	38497.72
543.38	38708.66
543.59	38739.38
543.79	38526.39
543.99	38489.52
544.19	38858.16
544.40	38499.76
544.60	39331.24
544.80	38999.47
545.00	38950.32
545.20	39431.59
545.41	39267.75
545.61	39234.99
545.81	39531.94
546.01	39378.34
546.21	39273.90
546.42	39341.48
546.62	39419.30
546.82	39396.77
547.02	39482.79
547.22	39796.13
547.43	39701.92
547.63	39724.45
547.83	40166.81
548.03	39765.41
548.23	40000.93
548.44	39802.27
548.64	39886.24
548.84	40242.59
549.04	40099.23
549.24	40613.27
549.45	40879.50
549.65	40557.97
549.85	39892.38
550.05	40220.06
550.25	40123.80
550.45	41076.11
550.66	40834.45
550.86	40568.21
551.06	40828.30
551.26	40562.07
551.46	41342.35
551.66	40965.52
551.87	40801.68
552.07	41158.03
552.27	41115.02
552.47	40891.79
552.67	41645.44
552.87	41239.95
553.07	41170.32
553.28	41401.74
553.48	41264.52
553.68	41160.08
553.88	41504.13
554.08	41469.32
554.28	41432.46
554.48	41688.45
554.69	41837.95
554.89	41782.66
555.09	42069.37
555.29	41502.09
555.49	42093.95
555.69	41946.50
555.89	42042.75
556.10	41649.54
556.30	42040.70
556.50	42395.00
556.70	41897.34
556.90	42243.45
557.10	42532.22
557.30	42423.67
557.50	42268.03
557.70	42794.36
557.91	42800.50
558.11	42841.46
558.31	42716.53
558.51	42734.96
558.71	42767.73
558.91	42716.53
559.11	43001.20
559.31	42624.37
559.51	42866.03
559.72	42964.34
559.92	42806.64
560.12	42751.35
560.32	43013.49
560.52	43023.73
560.72	43152.75
560.92	43572.58
561.12	43552.10
561.32	43367.79
561.52	43025.78
561.72	43505.00
561.93	43472.23
562.13	43146.61
562.33	43212.14
562.53	43769.19
562.73	43564.39
562.93	43646.31
563.13	43947.36
563.33	43795.81
563.53	44070.24
563.73	43502.95
563.93	43726.18
564.13	44244.32
564.33	43824.48
564.53	44012.90
564.74	44244.32
564.94	43877.73
565.14	44031.33
565.34	43480.42
565.54	44488.03
565.74	44424.54
565.94	44905.81
566.14	44733.78
566.34	44422.49
566.54	44782.93
566.74	44191.07
566.94	44485.98
567.14	45026.64
567.34	44428.63
567.54	44451.16
567.74	44610.90
567.94	44266.84
568.14	44588.38
568.34	44897.62
568.54	44406.11
568.74	44959.06
568.94	45120.85
569.14	44934.48
569.34	45227.34
569.54	45323.60
569.75	44787.03
569.95	44787.03
570.15	45620.55
570.35	45135.18
570.55	44885.33
570.75	45116.75
570.95	45430.09
571.15	45217.10
571.35	45356.36
571.55	45315.40
571.75	45319.50
571.95	45550.92
572.15	45311.31
572.35	45651.27
572.55	45706.57
572.75	45598.02
572.95	45892.93
573.15	46021.95
573.35	45221.20
573.55	45557.06
573.75	45397.32
573.95	45868.36
574.15	45970.75
574.35	46077.25
574.55	45868.36
574.75	45966.66
574.95	45919.56
575.15	45962.56
575.34	46220.61
575.54	46249.28
575.74	46046.53
575.94	46159.17
576.14	46105.92
576.34	46241.09
576.54	46306.62
576.74	46286.14
576.94	46232.89
577.14	46769.46
577.34	46675.26
577.54	46386.49
577.74	46882.10
577.94	46511.42
578.14	46570.81
578.34	47093.04
578.54	46359.87
578.74	46673.21
578.94	46843.19
579.14	46607.67
579.34	46587.19
579.54	47052.08
579.74	47224.11
579.94	47129.90
580.13	47541.55
580.33	47306.03
580.53	47510.83
580.73	47719.72
580.93	47314.22
581.13	47418.67
581.33	47576.36
581.53	47727.91
581.73	47658.28
581.93	47627.56
582.13	47930.66
582.33	47955.24
582.53	47365.42
582.73	47602.99
582.92	47602.99
583.12	48311.58
583.32	47691.05
583.52	47967.52
583.72	48313.63
583.92	48053.54
584.12	47850.79
584.32	48358.69
584.52	47945.00
584.72	48053.54
584.92	48555.29
585.11	48909.59
585.31	48180.51
585.51	48203.04
585.71	47934.76
585.91	48817.43
586.11	48334.11
586.31	48315.68
586.51	48784.66
586.71	48770.33
586.91	48903.45
587.10	48919.83
587.30	48751.90
587.50	48887.06
587.70	48811.29
587.90	49077.52
588.10	49020.18
588.30	48790.81
588.50	49132.82
