SpectraSuite Data File
++++++++++++++++++++++++++++++++++++
Date: Fri Jun 02 14:44:36 CEST 2017
User: INFO_000
Dark Spectrum Present: No
Reference Spectrum Present: No
Number of Sampled Component Spectra: 1
Spectrometers: USB4H00879
Integration Time (usec): 80000 (USB4H00879)
Spectra Averaged: 1 (USB4H00879)
Boxcar Smoothing: 0 (USB4H00879)
Correct for Electrical Dark: No (USB4H00879)
Strobe/Lamp Enabled: No (USB4H00879)
Correct for Detector Non-linearity: No (USB4H00879)
Correct for Stray Light: No (USB4H00879)
Number of Pixels in Processed Spectrum: 3648
>>>>>Begin Processed Spectral Data<<<<<
345.13	1257.45
345.34	1257.45
345.56	1257.45
345.78	1286.12
345.99	1359.85
346.21	1683.43
346.42	1691.62
346.64	1728.49
346.86	1798.12
347.07	1708.01
347.29	1693.67
347.50	1640.42
347.72	1710.05
347.94	1787.88
348.15	1593.32
348.37	1544.17
348.59	1673.19
348.80	1646.57
349.02	1822.69
349.23	1826.79
349.45	1732.58
349.67	1894.37
349.88	1826.79
350.10	1986.53
350.31	1904.61
350.53	1806.31
350.75	2029.54
350.96	1777.64
351.18	1822.69
351.39	1851.36
351.61	1806.31
351.82	1873.89
352.04	1908.71
352.26	1765.35
352.47	1945.57
352.69	1875.94
352.90	1796.07
353.12	1806.31
353.34	1832.93
353.55	1974.24
353.77	1902.56
353.98	1853.41
354.20	1834.98
354.41	1898.47
354.63	1929.19
354.85	2041.82
355.06	1898.47
355.28	1849.32
355.49	1935.33
355.71	1886.18
355.92	1820.64
356.14	1939.43
356.35	1880.04
356.57	1855.46
356.79	1964.00
357.00	1863.65
357.22	1964.00
357.43	1929.19
357.65	1984.48
357.86	1791.97
358.08	1943.52
358.29	1974.24
358.51	1990.63
358.72	1953.76
358.94	1970.15
359.16	2000.87
359.37	1912.80
359.59	1949.67
359.80	2011.11
360.02	1976.29
360.23	1906.66
360.45	1982.43
360.66	1910.75
360.88	1861.60
361.09	1929.19
361.31	2000.87
361.52	1877.99
361.74	2002.91
361.95	2101.22
362.17	2011.11
362.38	2054.11
362.60	2017.25
362.81	1937.38
363.03	2002.91
363.24	1970.15
363.46	2105.31
363.67	1996.77
363.89	2050.02
364.10	1968.10
364.32	1986.53
364.53	2027.49
364.75	1902.56
364.96	2031.58
365.18	2111.46
365.39	1927.14
365.61	1925.09
365.82	2078.69
366.04	2058.21
366.25	1957.86
366.47	2002.91
366.68	2033.63
366.90	1970.15
367.11	2103.26
367.33	2123.74
367.54	2144.22
367.76	1992.67
367.97	2160.61
368.19	1959.91
368.40	2027.49
368.62	1972.19
368.83	1957.86
369.05	2031.58
369.26	1937.38
369.48	2058.21
369.69	1976.29
369.91	2121.70
370.12	1966.05
370.33	2056.16
370.55	1990.63
370.76	2140.13
370.98	2133.98
371.19	2054.11
371.41	2035.68
371.62	2119.65
371.84	2025.44
372.05	2142.18
372.27	2060.26
372.48	2127.84
372.69	2125.79
372.91	2201.57
373.12	2217.95
373.34	2035.68
373.55	2021.35
373.77	2105.31
373.98	2082.78
374.20	2133.98
374.41	2238.43
374.62	2115.55
374.84	2148.32
375.05	2125.79
375.27	2097.12
375.48	2211.81
375.70	2164.70
375.91	2138.08
376.12	2252.77
376.34	2062.30
376.55	2187.23
376.77	2201.57
376.98	2101.22
377.19	2045.92
377.41	2170.85
377.62	2140.13
377.84	2220.00
378.05	2324.44
378.27	2164.70
378.48	2400.22
378.69	2422.75
378.91	2359.26
379.12	2295.77
379.34	2162.66
379.55	2242.53
379.76	2330.59
379.98	2265.05
380.19	2207.71
380.41	2185.18
380.62	2289.63
380.83	2351.07
381.05	2215.90
381.26	2392.03
381.47	2256.86
381.69	2240.48
381.90	2377.69
382.12	2387.93
382.33	2207.71
382.54	2363.36
382.76	2271.20
382.97	2277.34
383.19	2203.61
383.40	2371.55
383.61	2336.73
383.83	2293.72
384.04	2351.07
384.25	2342.88
384.47	2369.50
384.68	2363.36
384.89	2332.64
385.11	2295.77
385.32	2289.63
385.54	2349.02
385.75	2336.73
385.96	2359.26
386.18	2375.64
386.39	2426.84
386.60	2445.27
386.82	2432.99
387.03	2445.27
387.24	2525.15
387.46	2451.42
387.67	2498.52
387.88	2496.47
388.10	2445.27
388.31	2541.53
388.52	2576.34
388.74	2541.53
388.95	2547.67
389.16	2557.91
389.38	2498.52
389.59	2588.63
389.80	2666.46
390.02	2564.06
390.23	2625.50
390.44	2625.50
390.66	2602.97
390.87	2467.80
391.08	2566.10
391.30	2631.64
391.51	2592.73
391.72	2672.60
391.94	2656.22
392.15	2648.02
392.36	2656.22
392.58	2619.35
392.79	2791.38
393.00	2688.98
393.22	2701.27
393.43	2731.99
393.64	2781.14
393.85	2842.58
394.07	2613.21
394.28	2736.09
394.49	2789.33
394.71	2795.48
394.92	2879.44
395.13	2813.91
395.35	2697.17
395.56	2764.76
395.77	2844.63
395.98	2877.40
396.20	2848.72
396.41	2795.48
396.62	2904.02
396.84	2789.33
397.05	2875.35
397.26	2918.36
397.47	2918.36
397.69	2854.87
397.90	3043.28
398.11	2928.60
398.32	2963.41
398.54	2871.25
398.75	2963.41
398.96	2924.50
399.18	3098.58
399.39	2869.20
399.60	3033.04
399.81	2977.75
400.03	2920.40
400.24	3223.50
400.45	3008.47
400.66	3092.43
400.88	2996.18
401.09	3133.39
401.30	3057.62
401.51	3149.78
401.73	3084.24
401.94	3026.90
402.15	3051.47
402.36	3102.67
402.58	3180.50
402.79	3215.31
403.00	3162.06
403.21	3141.58
403.43	3248.08
403.64	3186.64
403.85	3110.86
404.06	3370.96
404.27	3129.30
404.49	3149.78
404.70	3114.96
404.91	3282.89
405.12	3385.29
405.34	3268.56
405.55	3407.82
405.76	3184.59
405.97	3293.13
406.19	3522.51
406.40	3200.98
406.61	3444.68
406.82	3442.64
407.03	3243.98
407.25	3297.23
407.46	3489.74
407.67	3403.72
407.88	3524.55
408.09	3401.68
408.31	3360.72
408.52	3436.49
408.73	3422.16
408.94	3381.20
409.15	3520.46
409.37	3442.64
409.58	3420.11
409.79	3432.40
410.00	3622.86
410.21	3461.07
410.43	3518.41
410.64	3514.31
410.85	3596.23
411.06	3567.56
411.27	3643.34
411.48	3700.68
411.70	3616.71
411.91	3581.90
412.12	3723.21
412.33	3655.62
412.54	3690.44
412.76	3755.97
412.97	3768.26
413.18	3559.37
413.39	3645.38
413.60	3678.15
413.81	3680.20
414.03	3551.18
414.24	3788.74
414.45	3821.51
414.66	3542.99
414.87	3805.13
415.08	3770.31
415.30	3725.26
415.51	3788.74
415.72	3821.51
415.93	3768.26
416.14	3946.44
416.35	3719.11
416.56	3870.66
416.78	3813.32
416.99	3930.05
417.20	3854.28
417.41	3966.92
417.62	3887.04
417.83	4005.83
418.04	3919.81
418.26	3907.52
418.47	3971.01
418.68	4036.55
418.89	3991.49
419.10	4276.16
419.31	3936.20
419.52	4048.83
419.73	4110.27
419.95	4136.90
420.16	3993.54
420.37	4059.07
420.58	4061.12
420.79	3899.33
421.00	4134.85
421.21	4188.10
421.42	4112.32
421.63	4136.90
421.85	4140.99
422.06	4331.45
422.27	4124.61
422.48	4128.70
422.69	4165.57
422.90	4284.35
423.11	4325.31
423.32	4321.21
423.53	4394.94
423.75	4331.45
423.96	4351.93
424.17	4470.72
424.38	4673.46
424.59	4470.72
424.80	4614.07
425.01	4415.42
425.22	4405.18
425.43	4440.00
425.64	4632.51
425.85	4581.31
426.06	4540.35
426.28	4544.44
426.49	4505.53
426.70	4579.26
426.91	4603.83
427.12	4659.13
427.33	4689.85
427.54	4575.16
427.75	4708.28
427.96	4630.46
428.17	4698.04
428.38	4884.41
428.59	4849.59
428.80	4763.58
429.01	4951.99
429.23	4798.39
429.44	5072.82
429.65	4847.54
429.86	4960.18
430.07	4849.59
430.28	5023.67
430.49	5040.05
430.70	5044.15
430.91	5070.77
431.12	5005.24
431.33	5099.44
431.54	5246.90
431.75	5091.25
431.96	5167.03
432.17	5126.07
432.38	5154.74
432.59	5283.76
432.80	5304.24
433.01	5283.76
433.22	5302.19
433.43	5402.54
433.64	5357.49
433.85	5369.77
434.06	5466.03
434.27	5361.58
434.49	5547.95
434.70	5466.03
434.91	5466.03
435.12	5613.48
435.33	5531.56
435.54	5484.46
435.75	5250.99
435.96	5572.52
436.17	5476.27
436.38	5541.80
436.59	5904.29
436.80	5666.73
437.01	5832.62
437.22	5910.44
437.43	5793.70
437.64	5506.99
437.85	5836.71
438.06	5828.52
438.27	5775.27
438.48	5730.22
438.69	6021.03
438.90	5717.93
439.11	5599.15
439.32	5867.43
439.53	6092.71
439.74	5926.82
439.95	5752.74
440.16	5789.61
440.37	6068.13
440.57	5943.21
440.78	6025.12
440.99	5984.16
441.20	5984.16
441.41	5986.21
441.62	6055.84
441.83	5922.73
442.04	6070.18
442.25	6041.51
442.46	6098.85
442.67	6168.48
442.88	6670.23
443.09	6064.04
443.30	6414.24
443.51	6260.64
443.72	6535.07
443.93	6094.76
444.14	6483.87
444.35	6268.83
444.56	6469.53
444.77	6352.80
444.98	6520.73
445.19	6567.84
445.40	6492.06
445.61	6322.08
445.81	6549.40
446.02	6526.88
446.23	6547.36
446.44	6463.39
446.65	6539.16
446.86	6522.78
447.07	6680.47
447.28	6948.76
447.49	6758.30
447.70	6608.80
447.91	6754.20
448.12	6729.63
448.33	6659.99
448.54	6762.39
448.74	6672.28
448.95	6827.93
449.16	6684.57
449.37	7036.82
449.58	6889.37
449.79	7182.23
450.00	6772.63
450.21	6834.07
450.42	7106.45
450.63	7049.11
450.84	6965.14
451.05	6991.77
451.25	7114.64
451.46	7067.54
451.67	7221.14
451.88	7155.60
452.09	7157.65
452.30	7088.02
452.51	7180.18
452.72	7303.06
452.93	7430.03
453.13	7116.69
453.34	7292.82
453.55	7362.45
453.76	7282.58
453.97	7683.98
454.18	7307.15
454.39	7430.03
454.60	7548.81
454.81	7516.05
455.01	7499.66
455.22	7272.34
455.43	7575.44
455.64	7657.36
455.85	7694.22
456.06	7993.22
456.27	7655.31
456.48	7659.40
456.68	7876.49
456.89	7929.74
457.10	7948.17
457.31	7939.97
457.52	8001.41
457.73	8019.85
457.94	8220.55
458.14	7999.37
458.35	8402.82
458.56	8101.76
458.77	8095.62
458.98	8286.08
459.19	8050.57
459.39	8370.05
459.60	8540.03
459.81	8456.06
460.02	8662.91
460.23	8462.21
460.44	8806.27
460.65	8566.65
460.85	8808.31
461.06	8691.58
461.27	8458.11
461.48	8955.77
461.69	8935.29
461.89	8667.00
462.10	9035.64
462.31	8716.16
462.52	8990.58
462.73	8966.01
462.94	9236.34
463.14	9123.70
463.35	9049.97
463.56	9645.93
463.77	9594.73
463.98	9326.45
464.18	9359.22
464.39	9652.08
464.60	9664.36
464.81	9719.66
465.02	9621.36
465.23	9860.97
465.43	9617.26
465.64	9883.50
465.85	10065.77
466.06	9793.39
466.27	10188.64
466.47	10121.06
466.68	10149.73
466.89	10108.77
467.10	10237.80
467.30	9920.36
467.51	10332.00
467.72	10696.54
467.93	10284.90
468.14	10446.69
468.34	10825.56
468.55	10616.67
468.76	10565.47
468.97	10583.90
469.17	10952.54
469.38	10915.67
469.59	10923.87
469.80	10846.04
470.01	11159.38
470.21	11122.52
470.42	11257.68
470.63	11609.93
470.84	11214.68
471.04	11568.98
471.25	11532.11
471.46	11534.16
471.67	12033.86
471.87	11566.93
472.08	11841.36
472.29	12285.76
472.50	11839.31
472.70	11837.26
472.91	11997.00
473.12	12138.31
473.33	12154.69
473.53	12437.31
473.74	12152.65
473.95	12674.88
474.16	12519.23
474.36	12662.59
474.57	12586.82
474.78	12818.24
474.99	12736.32
475.19	12764.99
475.40	13139.77
475.61	13102.90
475.81	13291.32
476.02	13340.47
476.23	13475.63
476.44	13344.56
476.64	13502.26
476.85	13774.64
477.06	13719.34
477.27	13999.91
477.47	14092.07
477.68	14044.97
477.89	14362.40
478.09	14245.67
478.30	14249.77
478.51	14173.99
478.71	14327.59
478.92	14268.20
479.13	14733.09
479.34	14716.70
479.54	14692.13
479.75	14751.52
479.96	14657.31
480.16	14841.63
480.37	14941.98
480.58	15177.50
480.78	15257.37
480.99	15259.42
481.20	15429.40
481.41	15548.18
481.61	15554.32
481.82	15953.68
482.03	15580.95
482.23	15824.65
482.44	16127.75
482.65	16244.49
482.85	16152.33
483.06	16105.23
483.27	16039.69
483.47	16248.58
483.68	16381.70
483.89	16617.22
484.09	16426.76
484.30	16715.52
484.51	16885.50
484.71	16963.33
484.92	16793.34
485.13	16803.58
485.33	17219.32
485.54	17008.38
485.75	17352.44
485.95	17346.30
486.16	17268.47
486.37	17788.66
486.57	17520.37
486.78	17710.83
486.98	17481.46
487.19	17635.06
487.40	17995.50
487.60	17815.28
487.81	18130.67
488.02	17958.64
488.22	17925.87
488.43	18331.37
488.64	18237.16
488.84	18355.94
489.05	18829.02
489.25	18484.97
489.46	18947.81
489.67	18826.98
489.87	18935.52
490.08	19021.53
490.29	18867.94
490.49	19463.90
490.70	19343.06
490.90	19611.35
491.11	19486.42
491.32	19543.77
491.52	19410.65
491.73	19605.20
491.94	19740.37
492.14	19723.99
492.35	20008.65
492.55	20250.32
492.76	20276.94
492.97	20334.28
493.17	20365.00
493.38	20483.78
493.58	20299.47
493.79	20367.05
494.00	20524.74
494.20	20661.96
494.41	21001.92
494.61	21061.31
494.82	21118.65
495.02	20989.63
495.23	21288.64
495.44	21483.19
495.64	21491.38
495.85	21475.00
496.05	21503.67
496.26	21462.71
496.47	21677.75
496.67	21462.71
496.88	21890.74
497.08	21757.62
497.29	22185.65
497.49	22003.38
497.70	22320.81
497.91	22464.17
498.11	22423.21
498.32	22533.80
498.52	22916.77
498.73	22861.48
498.93	22802.08
499.14	23019.17
499.34	22734.50
499.55	23422.62
499.76	22990.50
499.96	23142.05
500.17	23162.53
500.37	23557.78
500.58	23695.00
500.78	23572.12
500.99	23434.91
501.19	23996.05
501.40	23742.10
501.60	23920.28
501.81	23707.29
502.02	24051.34
502.22	23891.60
502.43	24532.62
502.63	24583.82
502.84	24493.71
503.04	24442.51
503.25	24544.91
503.45	24360.59
503.66	24977.03
503.86	24626.82
504.07	25038.47
504.27	24686.22
504.48	25345.66
504.68	25106.05
504.89	25495.16
505.09	25261.69
505.30	25243.26
505.50	25038.47
505.71	25433.72
505.91	25523.83
506.12	25765.49
506.32	25464.44
506.53	25921.14
506.73	25747.06
506.94	26330.73
507.14	26039.92
507.35	26130.03
507.55	25949.81
507.76	26304.11
507.96	25998.96
508.17	26240.62
508.37	26234.48
508.58	26418.80
508.78	26701.42
508.99	26842.73
509.19	26775.14
509.40	26887.78
509.60	26863.21
509.81	26672.74
510.01	26779.24
510.22	26711.66
510.42	27037.28
510.63	26963.56
510.83	27012.71
511.04	27235.94
511.24	27309.66
511.44	27330.14
511.65	27199.07
511.85	27266.66
512.06	27436.64
512.26	27549.28
512.47	27522.65
512.67	27473.50
512.88	27606.62
513.08	27477.60
513.29	27940.44
513.49	27887.19
513.69	27653.72
513.90	27905.62
514.10	28042.84
514.31	27909.72
514.51	28030.55
514.72	28094.04
514.92	28083.80
515.13	27899.48
515.33	28202.58
515.53	28108.37
515.74	28139.09
515.94	28524.11
516.15	28243.54
516.35	28321.36
516.56	28900.94
516.76	28358.22
516.96	28468.81
517.17	28825.16
517.37	28589.64
517.58	28761.67
517.78	28728.91
517.99	28669.51
518.19	28855.88
518.39	28962.37
518.60	29011.53
518.80	29404.74
519.01	29122.12
519.21	29271.62
519.41	29460.03
519.62	29087.30
519.82	29396.54
520.03	29308.48
520.23	29296.19
520.43	29273.67
520.64	29699.64
520.84	30025.27
521.05	29754.94
521.25	29339.20
521.45	29677.12
521.66	29736.51
521.86	29572.67
522.07	29687.36
522.27	29808.19
522.47	29974.07
522.68	30338.61
522.88	29920.82
523.08	30420.53
523.29	29996.60
523.49	30398.00
523.70	30260.79
523.90	30344.75
524.10	30455.34
524.31	30373.42
524.51	30402.10
524.71	31086.12
524.92	30826.03
525.12	30895.66
525.33	30856.75
525.53	30973.48
525.73	31278.63
525.94	31278.63
526.14	30963.24
526.34	31475.23
526.55	31325.73
526.75	31209.00
526.95	31645.21
527.16	31321.63
527.36	31727.13
527.56	31901.21
527.77	31940.12
527.97	31684.12
528.17	31628.83
528.38	32198.16
528.58	32019.99
528.78	32067.09
528.99	32288.28
529.19	32548.37
529.39	32415.25
529.60	32704.01
529.80	32572.94
530.00	32474.64
530.21	32511.50
530.41	32898.57
530.61	32638.48
530.82	32978.44
531.02	32730.64
531.22	33267.20
531.43	33048.07
531.63	32941.58
531.83	33437.19
532.04	33639.93
532.24	33437.19
532.44	33592.83
532.64	34018.81
532.85	34049.53
533.05	34104.82
533.25	33887.74
533.46	33811.96
533.66	34534.90
533.86	34080.25
534.07	34602.48
534.27	34194.93
534.47	34942.44
534.67	34786.80
534.88	34332.15
535.08	34747.89
535.28	34895.34
535.49	35438.05
535.69	35562.98
535.89	35411.43
536.09	35556.83
536.30	35579.36
536.50	35329.51
536.70	36230.62
536.91	35720.67
537.11	36056.54
537.31	35841.50
537.51	36117.98
537.72	35995.10
537.92	36290.01
538.12	36388.31
538.32	36429.27
538.53	36589.01
538.73	36183.51
538.93	36605.39
539.13	36511.19
539.34	37076.43
539.54	36457.94
539.74	37354.95
539.94	37146.06
540.15	37264.84
540.35	37832.13
540.55	37250.50
540.75	37475.78
540.96	37801.41
541.16	37385.67
541.36	37705.15
541.56	37774.78
541.77	37940.67
541.97	37961.15
542.17	38137.27
542.37	38368.69
542.58	38114.75
542.78	38084.03
542.98	38342.07
543.18	38798.77
543.38	39181.74
543.59	38870.45
543.79	38720.95
543.99	38643.12
544.19	39447.97
544.40	38866.35
544.60	39439.78
544.80	39112.11
545.00	39251.37
545.20	39568.80
545.41	39118.25
545.61	39466.41
545.81	39759.27
546.01	39898.53
546.21	39953.82
546.42	39669.15
546.62	39939.49
546.82	40175.00
547.02	40502.68
547.22	40506.77
547.43	40312.22
547.63	40441.24
547.83	40869.26
548.03	40234.39
548.23	40691.09
548.44	40453.53
548.64	40721.81
548.84	40582.55
549.04	41106.83
549.24	41127.31
549.45	41301.39
549.65	40986.00
549.85	41356.68
550.05	41383.30
550.25	41043.34
550.45	41557.38
550.66	41717.12
550.86	41534.85
551.06	41608.58
551.26	41801.09
551.46	41809.28
551.66	41983.36
551.87	41739.65
552.07	41719.17
552.27	42001.79
552.47	42167.68
552.67	42016.13
552.87	42157.44
553.07	41872.77
553.28	42179.96
553.48	42485.11
553.68	42354.04
553.88	42923.38
554.08	42374.52
554.28	42577.27
554.48	42560.89
554.69	43048.30
554.89	42698.10
555.09	42616.18
555.29	42612.09
555.49	42845.55
555.69	42698.10
555.89	42724.72
556.10	43320.68
556.30	42714.48
556.50	43148.65
556.70	42884.47
556.90	43064.69
557.10	43593.06
557.30	42915.19
557.50	43572.58
557.70	43668.84
557.91	43539.82
558.11	43421.03
558.31	43717.99
558.51	43099.50
558.71	43662.69
558.91	43445.61
559.11	43451.75
559.31	43838.82
559.51	43414.89
559.72	43562.34
559.92	43720.04
560.12	43339.11
560.32	44221.79
560.52	43644.26
560.72	43638.12
560.92	43636.07
561.12	43937.12
561.32	43998.56
561.52	43781.48
561.72	44227.93
561.93	43611.49
562.13	44174.69
562.33	43681.13
562.53	44545.37
562.73	43939.17
562.93	43666.79
563.13	43961.70
563.33	44105.06
563.53	44172.64
563.73	43877.73
563.93	44045.66
564.13	44313.95
564.33	44285.28
564.53	44569.94
564.74	44897.62
564.94	44172.64
565.14	44475.74
565.34	44283.23
565.54	44016.99
565.74	44688.73
565.94	44750.17
566.14	44475.74
566.34	44338.52
566.54	44805.46
566.74	43971.94
566.94	44483.93
567.14	44805.46
567.34	44264.80
567.54	44639.57
567.74	44062.05
567.94	44365.15
568.14	44848.47
568.34	44449.11
568.54	44717.40
568.74	45018.45
568.94	44332.38
569.14	44907.86
569.34	44932.43
569.54	44791.12
569.75	44623.19
569.95	44658.01
570.15	45249.87
570.35	45292.88
570.55	44768.60
570.75	45194.57
570.95	44432.73
571.15	45069.65
571.35	45290.83
571.55	45098.32
571.75	44946.77
571.95	45032.78
572.15	44844.37
572.35	44950.87
572.55	44848.47
572.75	45022.54
572.95	45235.53
573.15	44991.83
573.35	45139.28
573.55	44612.95
573.75	45229.39
573.95	45604.17
574.15	45305.16
574.35	45430.09
574.55	45413.71
574.75	45288.78
574.95	45499.72
575.15	45182.29
575.34	45405.52
575.54	45430.09
575.74	46077.25
575.94	45528.39
576.14	45485.39
576.34	45817.16
576.54	46284.09
576.74	45684.04
576.94	45421.90
577.14	46409.02
577.34	45987.14
577.54	45677.90
577.74	46171.46
577.94	46222.65
578.14	46169.41
578.34	46224.70
578.54	45653.32
578.74	45704.52
578.94	46345.53
579.14	46052.67
579.34	45923.65
579.54	46675.26
579.74	46636.34
579.94	46531.90
580.13	47027.51
580.33	46511.42
580.53	46595.38
580.73	46574.91
580.93	46515.51
581.13	46888.24
581.33	46937.40
581.53	47183.15
581.73	47134.00
581.93	47170.86
582.13	47037.75
582.33	46875.96
582.53	47076.66
582.73	47322.41
582.92	47222.06
583.12	47240.50
583.32	47492.40
583.52	47449.39
583.72	47478.06
583.92	47471.92
584.12	47729.96
584.32	47838.50
584.52	47457.58
584.72	47932.71
584.92	47770.92
585.11	48397.60
585.31	47928.61
585.51	47942.95
585.71	47777.06
585.91	48393.50
586.11	47988.00
586.31	47891.75
586.51	48121.12
586.71	48536.86
586.91	48434.46
587.10	48573.72
587.30	48514.33
587.50	48669.98
587.70	48825.62
587.90	48880.92
588.10	49313.04
588.30	49175.83
588.50	48817.43
