SpectraSuite Data File
++++++++++++++++++++++++++++++++++++
Date: Fri Jun 02 14:44:33 CEST 2017
User: INFO_000
Dark Spectrum Present: No
Reference Spectrum Present: No
Number of Sampled Component Spectra: 1
Spectrometers: USB4H00879
Integration Time (usec): 80000 (USB4H00879)
Spectra Averaged: 1 (USB4H00879)
Boxcar Smoothing: 0 (USB4H00879)
Correct for Electrical Dark: No (USB4H00879)
Strobe/Lamp Enabled: No (USB4H00879)
Correct for Detector Non-linearity: No (USB4H00879)
Correct for Stray Light: No (USB4H00879)
Number of Pixels in Processed Spectrum: 3648
>>>>>Begin Processed Spectral Data<<<<<
345.13	1267.69
345.34	1267.69
345.56	1267.69
345.78	1245.16
345.99	1267.69
346.21	1650.66
346.42	1712.10
346.64	1558.50
346.86	1845.22
347.07	1656.81
347.29	1724.39
347.50	1544.17
347.72	1660.90
347.94	1798.12
348.15	1576.94
348.37	1630.18
348.59	1738.73
348.80	1656.81
349.02	1804.26
349.23	1812.45
349.45	1757.16
349.67	1884.13
349.88	1861.60
350.10	1918.95
350.31	1880.04
350.53	1751.01
350.75	1871.84
350.96	1804.26
351.18	1923.04
351.39	1920.99
351.61	1834.98
351.82	1839.08
352.04	1929.19
352.26	1849.32
352.47	1951.71
352.69	1918.95
352.90	1677.29
353.12	1830.88
353.34	1851.36
353.55	1925.09
353.77	1822.69
353.98	1863.65
354.20	1796.07
354.41	1877.99
354.63	1943.52
354.85	2027.49
355.06	1890.28
355.28	1826.79
355.49	1912.80
355.71	1941.47
355.92	1896.42
356.14	1943.52
356.35	1886.18
356.57	1798.12
356.79	1875.94
357.00	1884.13
357.22	2025.44
357.43	1875.94
357.65	1937.38
357.86	1839.08
358.08	1841.12
358.29	1972.19
358.51	1920.99
358.72	1902.56
358.94	1966.05
359.16	1920.99
359.37	1896.42
359.59	1964.00
359.80	1888.23
360.02	1914.85
360.23	1978.34
360.45	2011.11
360.66	2004.96
360.88	1910.75
361.09	1888.23
361.31	1957.86
361.52	1964.00
361.74	2074.59
361.95	2023.39
362.17	1974.24
362.38	2095.07
362.60	1998.82
362.81	1986.53
363.03	1968.10
363.24	1882.08
363.46	2097.12
363.67	1976.29
363.89	1994.72
364.10	1939.43
364.32	1894.37
364.53	1986.53
364.75	1839.08
364.96	2054.11
365.18	2043.87
365.39	1980.39
365.61	1961.95
365.82	2123.74
366.04	2074.59
366.25	1884.13
366.47	2072.54
366.68	2093.02
366.90	1925.09
367.11	2047.97
367.33	2093.02
367.54	2070.50
367.76	2084.83
367.97	2113.50
368.19	2021.35
368.40	2084.83
368.62	2035.68
368.83	1935.33
369.05	2056.16
369.26	2004.96
369.48	1972.19
369.69	1925.09
369.91	2082.78
370.12	2095.07
370.33	2021.35
370.55	1933.28
370.76	2072.54
370.98	2158.56
371.19	2072.54
371.41	2011.11
371.62	2068.45
371.84	2013.15
372.05	2183.13
372.27	2088.93
372.48	2066.40
372.69	2084.83
372.91	2142.18
373.12	2113.50
373.34	2004.96
373.55	2162.66
373.77	2131.94
373.98	2138.08
374.20	2123.74
374.41	2256.86
374.62	2099.17
374.84	2162.66
375.05	2146.27
375.27	2222.05
375.48	2230.24
375.70	2211.81
375.91	2265.05
376.12	2301.92
376.34	2199.52
376.55	2232.29
376.77	2215.90
376.98	2109.41
377.19	2160.61
377.41	2191.33
377.62	2205.66
377.84	2232.29
378.05	2318.30
378.27	2287.58
378.48	2285.53
378.69	2287.58
378.91	2322.40
379.12	2203.61
379.34	2252.77
379.55	2312.16
379.76	2273.25
379.98	2250.72
380.19	2252.77
380.41	2312.16
380.62	2285.53
380.83	2224.09
381.05	2248.67
381.26	2504.67
381.47	2297.82
381.69	2283.49
381.90	2406.36
382.12	2285.53
382.33	2318.30
382.54	2336.73
382.76	2269.15
382.97	2283.49
383.19	2275.29
383.40	2396.12
383.61	2293.72
383.83	2269.15
384.04	2277.34
384.25	2349.02
384.47	2435.03
384.68	2306.01
384.89	2418.65
385.11	2416.60
385.32	2420.70
385.54	2394.08
385.75	2303.96
385.96	2375.64
386.18	2412.51
386.39	2387.93
386.60	2322.40
386.82	2346.97
387.03	2412.51
387.24	2539.48
387.46	2344.92
387.67	2441.18
387.88	2525.15
388.10	2478.04
388.31	2488.28
388.52	2502.62
388.74	2420.70
388.95	2541.53
389.16	2541.53
389.38	2510.81
389.59	2623.45
389.80	2654.17
390.02	2525.15
390.23	2664.41
390.44	2508.76
390.66	2498.52
390.87	2654.17
391.08	2562.01
391.30	2652.12
391.51	2674.65
391.72	2656.22
391.94	2715.61
392.15	2699.22
392.36	2715.61
392.58	2664.41
392.79	2641.88
393.00	2731.99
393.22	2682.84
393.43	2781.14
393.64	2834.39
393.85	2799.57
394.07	2635.74
394.28	2789.33
394.49	2660.31
394.71	2775.00
394.92	2920.40
395.13	2744.28
395.35	2764.76
395.56	2797.53
395.77	2691.03
395.98	2772.95
396.20	2772.95
396.41	2760.66
396.62	2854.87
396.84	2793.43
397.05	2815.96
397.26	2850.77
397.47	2869.20
397.69	2779.09
397.90	3041.23
398.11	2889.68
398.32	2793.43
398.54	2861.01
398.75	2834.39
398.96	3012.56
399.18	3045.33
399.39	2981.84
399.60	3026.90
399.81	2983.89
400.03	2875.35
400.24	3160.02
400.45	2918.36
400.66	3010.51
400.88	3086.29
401.09	3211.22
401.30	3082.19
401.51	3151.82
401.73	3168.21
401.94	3129.30
402.15	3149.78
402.36	3135.44
402.58	3162.06
402.79	3262.41
403.00	3207.12
403.21	3141.58
403.43	3260.37
403.64	3309.52
403.85	3162.06
404.06	3209.17
404.27	3194.83
404.49	3223.50
404.70	3223.50
404.91	3389.39
405.12	3258.32
405.34	3286.99
405.55	3375.05
405.76	3139.54
405.97	3264.46
406.19	3456.97
406.40	3286.99
406.61	3379.15
406.82	3395.53
407.03	3276.75
407.25	3354.57
407.46	3348.43
407.67	3409.87
407.88	3461.07
408.09	3379.15
408.31	3278.80
408.52	3446.73
408.73	3389.39
408.94	3436.49
409.15	3483.59
409.37	3467.21
409.58	3608.52
409.79	3526.60
410.00	3545.03
410.21	3442.64
410.43	3512.27
410.64	3436.49
410.85	3504.07
411.06	3481.55
411.27	3567.56
411.48	3672.01
411.70	3645.38
411.91	3573.71
412.12	3647.43
412.33	3645.38
412.54	3600.33
412.76	3758.02
412.97	3749.83
413.18	3653.58
413.39	3649.48
413.60	3678.15
413.81	3712.97
414.03	3616.71
414.24	3717.06
414.45	3813.32
414.66	3608.52
414.87	3825.61
415.08	3629.00
415.30	3766.21
415.51	3655.62
415.72	3721.16
415.93	3760.07
416.14	3751.88
416.35	3784.65
416.56	3776.45
416.78	3905.48
416.99	3846.09
417.20	3776.45
417.41	3854.28
417.62	3993.54
417.83	3868.61
418.04	3858.37
418.26	3872.71
418.47	3870.66
418.68	3993.54
418.89	3985.35
419.10	4204.48
419.31	3917.76
419.52	3936.20
419.73	4057.03
419.95	4028.35
420.16	3983.30
420.37	3874.76
420.58	3989.44
420.79	3841.99
421.00	4067.27
421.21	4190.14
421.42	4089.79
421.63	4220.86
421.85	4212.67
422.06	4155.33
422.27	4157.38
422.48	4282.30
422.69	4360.13
422.90	4353.98
423.11	4243.39
423.32	4341.69
423.53	4376.51
423.75	4282.30
423.96	4491.20
424.17	4335.55
424.38	4554.68
424.59	4562.87
424.80	4599.74
425.01	4470.72
425.22	4538.30
425.43	4472.76
425.64	4636.60
425.85	4583.35
426.06	4546.49
426.28	4450.24
426.49	4401.08
426.70	4532.15
426.91	4577.21
427.12	4601.79
427.33	4540.35
427.54	4534.20
427.75	4736.95
427.96	4802.49
428.17	4808.63
428.38	4820.92
428.59	4837.30
428.80	4773.82
429.01	4921.27
429.23	4790.20
429.44	4941.75
429.65	4939.70
429.86	4796.34
430.07	4929.46
430.28	4964.28
430.49	5050.29
430.70	5054.39
430.91	5255.09
431.12	5033.91
431.33	5246.90
431.54	5226.42
431.75	5228.46
431.96	5242.80
432.17	5019.57
432.38	5230.51
432.59	5289.90
432.80	5326.77
433.01	5429.17
433.22	5255.09
433.43	5375.92
433.64	5494.70
433.85	5183.41
434.06	5586.86
434.27	5367.73
434.49	5545.90
434.70	5672.87
434.91	5547.95
435.12	5500.84
435.33	5443.50
435.54	5593.00
435.75	5427.12
435.96	5453.74
436.17	5328.81
436.38	5740.46
436.59	5795.75
436.80	5633.96
437.01	5857.19
437.22	5801.90
437.43	5795.75
437.64	5611.43
437.85	5703.59
438.06	5746.60
438.27	5687.21
438.48	5810.09
438.69	5834.66
438.90	5722.02
439.11	5709.74
439.32	5961.64
439.53	5728.17
439.74	5988.26
439.95	5932.97
440.16	5898.15
440.37	6006.69
440.57	5767.08
440.78	6000.55
440.99	5855.14
441.20	5992.36
441.41	5920.68
441.62	6061.99
441.83	5920.68
442.04	6162.34
442.25	6025.12
442.46	5910.44
442.67	6186.91
442.88	6389.66
443.09	6088.61
443.30	6139.81
443.51	6172.58
443.72	6414.24
443.93	6250.40
444.14	6434.72
444.35	6219.68
444.56	6422.43
444.77	6297.50
444.98	6426.53
445.19	6301.60
445.40	6313.89
445.61	6305.70
445.81	6604.70
446.02	6479.77
446.23	6483.87
446.44	6324.13
446.65	6655.90
446.86	6600.60
447.07	6549.40
447.28	6862.74
447.49	6692.76
447.70	6621.08
447.91	6670.23
448.12	6707.10
448.33	6764.44
448.54	6743.96
448.74	6717.34
448.95	6731.67
449.16	6549.40
449.37	7053.20
449.58	6780.82
449.79	7008.15
450.00	6746.01
450.21	7159.70
450.42	7151.51
450.63	7032.72
450.84	6932.37
451.05	7141.27
451.25	6899.61
451.46	7024.53
451.67	7081.88
451.88	7221.14
452.09	7188.37
452.30	7202.71
452.51	7227.28
452.72	7358.35
452.93	7458.70
453.13	7264.15
453.34	7399.31
453.55	7260.05
453.76	7432.08
453.97	7694.22
454.18	7536.52
454.39	7622.54
454.60	7344.02
454.81	7514.00
455.01	7704.46
455.22	7430.03
455.43	7694.22
455.64	7765.90
455.85	8066.95
456.06	8038.28
456.27	7817.10
456.48	7915.40
456.68	7819.14
456.89	7860.10
457.10	8015.75
457.31	7946.12
457.52	8042.37
457.73	8212.35
457.94	8224.64
458.14	8185.73
458.35	8486.78
458.56	8329.09
458.77	8349.57
458.98	8447.87
459.19	8398.72
459.39	8675.20
459.60	8781.69
459.81	8517.50
460.02	8587.13
460.23	8472.45
460.44	8839.03
460.65	8728.44
460.85	8867.70
461.06	8816.51
461.27	8636.28
461.48	8918.90
461.69	9068.41
461.89	8644.48
462.10	9138.04
462.31	8836.99
462.52	8994.68
462.73	8996.73
462.94	9355.12
463.14	9199.48
463.35	9187.19
463.56	9551.73
463.77	9371.50
463.98	9242.48
464.18	9488.24
464.39	9652.08
464.60	9758.57
464.81	9656.17
465.02	9590.64
465.23	10049.38
465.43	9754.48
465.64	9949.03
465.85	9668.46
466.06	9731.95
466.27	10274.66
466.47	10096.49
466.68	10053.48
466.89	10071.91
467.10	10055.53
467.30	10121.06
467.51	10366.82
467.72	10491.74
467.93	10221.41
468.14	10616.67
468.34	10663.77
468.55	10657.63
468.76	10676.06
468.97	10465.12
469.17	10723.16
469.38	10776.41
469.59	10819.42
469.80	10714.97
470.01	10766.17
470.21	10909.53
470.42	11218.77
470.63	11321.17
470.84	11163.48
471.04	11194.20
471.25	11300.69
471.46	11210.58
471.67	11751.24
471.87	11607.89
472.08	11603.79
472.29	11824.97
472.50	11392.85
472.70	11564.88
472.91	11720.53
473.12	11753.29
473.33	11941.71
473.53	12166.98
473.74	12025.67
473.95	12267.33
474.16	12351.30
474.36	12320.58
474.57	12619.58
474.78	12828.48
474.99	12459.84
475.19	12394.31
475.40	12844.86
475.61	12889.92
475.81	13070.14
476.02	12934.97
476.23	12943.16
476.44	13315.89
476.64	13352.76
476.85	13432.63
477.06	13305.65
477.27	13868.84
477.47	13684.53
477.68	13913.90
477.89	13758.25
478.09	13901.61
478.30	14016.30
478.51	14077.74
478.71	14208.81
478.92	14239.53
479.13	14423.84
479.34	14544.67
479.54	14540.58
479.75	14632.74
479.96	14458.66
480.16	14731.04
480.37	14728.99
480.58	15019.80
480.78	15208.22
480.99	15329.05
481.20	15335.19
481.41	15324.95
481.61	15251.22
481.82	15669.01
482.03	15585.04
482.23	15613.71
482.44	15902.48
482.65	15746.83
482.85	15990.54
483.06	16082.70
483.27	16482.05
483.47	16094.99
483.68	16310.02
483.89	16492.29
484.09	16492.29
484.30	16797.44
484.51	16539.40
484.71	17059.58
484.92	16869.12
485.13	17094.40
485.33	17190.65
485.54	16951.04
485.75	17374.97
485.95	17633.01
486.16	17483.51
486.37	17772.27
486.57	17647.35
486.78	17686.26
486.98	17798.90
487.19	18081.52
487.40	17985.26
487.60	18196.20
487.81	18347.75
488.02	18069.23
488.22	18401.00
488.43	18759.39
488.64	18640.61
488.84	18902.75
489.05	19160.80
489.25	18657.00
489.46	19228.38
489.67	19142.36
489.87	19386.07
490.08	19269.34
490.29	19400.41
490.49	19822.29
490.70	19805.91
490.90	19779.28
491.11	19918.54
491.32	19975.89
491.52	20027.09
491.73	19803.86
491.94	20117.20
492.14	20135.63
492.35	20367.05
492.55	20401.86
492.76	20657.86
492.97	20872.90
493.17	20561.61
493.38	20909.76
493.58	21104.32
493.79	21116.61
494.00	20780.74
494.20	21120.70
494.41	21188.28
494.61	21448.38
494.82	21413.56
495.02	21317.31
495.23	21616.31
495.44	21769.91
495.64	21857.97
495.85	21954.22
496.05	22294.19
496.26	21778.10
496.47	22390.44
496.67	22056.62
496.88	22419.11
497.08	22081.20
497.29	22634.15
497.49	22292.14
497.70	22732.45
497.91	22816.42
498.11	22931.11
498.32	22953.63
498.52	22812.32
498.73	23238.30
498.93	23322.27
499.14	22947.49
499.34	23076.51
499.55	23500.44
499.76	23295.64
499.96	23436.95
500.17	23488.15
500.37	23307.93
500.58	23588.50
500.78	23529.11
500.99	23656.09
501.19	23795.35
501.40	23824.02
501.60	23545.50
501.81	23649.94
502.02	23996.05
502.22	23776.92
502.43	24061.58
502.63	24426.12
502.84	24462.99
503.04	24209.04
503.25	24221.33
503.45	24469.13
503.66	24579.72
503.86	24637.06
504.07	24579.72
504.27	24510.09
504.48	25042.56
504.68	24737.41
504.89	24911.49
505.09	24723.08
505.30	25161.34
505.50	24860.29
505.71	24825.48
505.91	25069.19
506.12	25257.60
506.32	25093.76
506.53	25190.02
506.73	25206.40
506.94	25583.23
507.14	25292.41
507.35	25448.06
507.55	25667.19
507.76	25691.77
507.96	25558.65
508.17	25564.79
508.37	25716.34
508.58	25822.84
508.78	26111.60
508.99	26150.51
509.19	26244.72
509.40	26154.61
509.60	26185.33
509.81	26250.86
510.01	25814.65
510.22	26353.26
510.42	26242.67
510.63	26420.84
510.83	26308.21
511.04	26257.01
511.24	26424.94
511.44	26416.75
511.65	26670.70
511.85	26607.21
512.06	26502.76
512.26	26760.81
512.47	26777.19
512.67	26646.12
512.88	26863.21
513.08	26539.63
513.29	27223.65
513.49	26932.84
513.69	27022.95
513.90	26996.32
514.10	27324.00
514.31	27213.41
514.51	27326.05
514.72	27346.53
514.92	27379.29
515.13	27360.86
515.33	27616.86
515.53	27680.35
515.74	27569.76
515.94	27657.82
516.15	27905.62
516.35	27473.50
516.56	27991.64
516.76	27661.91
516.96	28126.80
517.17	28147.28
517.37	27737.69
517.58	28048.98
517.78	28509.77
517.99	28284.50
518.19	28390.99
518.39	28579.40
518.60	28919.37
518.80	28528.20
519.01	28450.38
519.21	28905.03
519.41	28868.17
519.62	28665.42
519.82	29075.01
520.03	29001.29
520.23	29298.24
520.43	28882.50
520.64	29478.46
520.84	29486.65
521.05	29384.26
521.25	29759.03
521.45	29511.23
521.66	30004.79
521.86	29787.71
522.07	29742.65
522.27	29847.10
522.47	30072.37
522.68	30240.31
522.88	30228.02
523.08	30547.50
523.29	30303.79
523.49	30479.92
523.70	30770.73
523.90	30783.02
524.10	30938.66
524.31	30823.98
524.51	30516.78
524.71	31196.71
524.92	31143.46
525.12	31585.82
525.33	31309.35
525.53	31295.01
525.73	31856.15
525.94	31397.41
526.14	31493.66
526.34	31641.12
526.55	31966.74
526.75	31768.09
526.95	32151.06
527.16	32388.63
527.36	32347.67
527.56	32751.12
527.77	32456.21
527.97	32579.09
528.17	32413.20
528.38	32605.71
528.58	32861.71
528.78	32828.94
528.99	33082.89
529.19	32988.68
529.39	32757.26
529.60	33449.47
529.80	33269.25
530.00	33123.85
530.21	33711.61
530.41	33416.71
530.61	33404.42
530.82	33887.74
531.02	33699.33
531.22	33918.46
531.43	33715.71
531.63	34457.07
531.83	34414.07
532.04	34622.96
532.24	34024.95
532.44	34835.95
532.64	34362.87
532.85	34563.57
533.05	34538.99
533.25	34627.06
533.46	34844.14
533.66	35280.36
533.86	34835.95
534.07	35546.59
534.27	35268.07
534.47	35481.06
534.67	35415.52
534.88	35689.95
535.08	35886.56
535.28	35706.34
535.49	36077.02
535.69	35894.75
535.89	36077.02
536.09	36316.63
536.30	36271.57
536.50	36013.53
536.70	36685.26
536.91	36373.97
537.11	36656.59
537.31	36746.70
537.51	36396.50
537.72	36701.65
537.92	36957.64
538.12	37330.37
538.32	36775.37
538.53	37420.48
538.73	36789.71
538.93	36806.09
539.13	37275.08
539.34	37477.83
539.54	37617.09
539.74	37656.00
539.94	37696.96
540.15	37623.23
540.35	37791.17
540.55	37756.35
540.75	37930.43
540.96	37828.03
541.16	38051.26
541.36	38202.81
541.56	37780.93
541.77	38127.03
541.97	38122.94
542.17	38208.95
542.37	38258.10
542.58	38346.17
542.78	38356.41
542.98	38368.69
543.18	38372.79
543.38	38993.32
543.59	38753.71
543.79	38358.45
543.99	38788.53
544.19	39087.53
544.40	38788.53
544.60	39048.62
544.80	39034.28
545.00	38759.86
545.20	39208.36
545.41	38989.23
545.61	39198.12
545.81	39284.14
546.01	39620.00
546.21	39331.24
546.42	39030.19
546.62	39460.26
546.82	39302.57
547.02	39241.13
547.22	39683.49
547.43	39415.21
547.63	39474.60
547.83	39919.01
548.03	39527.84
548.23	39656.87
548.44	39777.70
548.64	39552.42
548.84	39939.49
549.04	40144.28
549.24	40463.77
549.45	40635.80
549.65	40381.85
549.85	39736.74
550.05	40332.70
550.25	39900.58
550.45	40471.96
550.66	40265.11
550.86	39994.78
551.06	40560.02
551.26	40605.08
551.46	40328.60
551.66	40725.91
551.87	40695.19
552.07	40551.83
552.27	40824.21
552.47	40973.71
552.67	41026.96
552.87	40844.69
553.07	40787.35
553.28	41461.13
553.48	41393.54
553.68	40904.08
553.88	41637.25
554.08	41313.67
554.28	40721.81
554.48	41227.66
554.69	41407.88
554.89	41409.93
555.09	41239.95
555.29	41246.09
555.49	41418.12
555.69	41649.54
555.89	41758.08
556.10	41586.05
556.30	41285.00
556.50	42014.08
556.70	41614.72
556.90	41891.20
557.10	42001.79
557.30	41756.03
557.50	41844.10
557.70	41909.63
557.91	42382.71
558.11	42093.95
558.31	42501.50
558.51	42210.68
558.71	42362.23
558.91	42685.81
559.11	41985.41
559.31	42913.14
559.51	42351.99
559.72	42583.41
559.92	42636.66
560.12	42812.79
560.32	42847.60
560.52	42833.27
560.72	42947.95
560.92	43267.44
561.12	43048.30
561.32	43375.98
561.52	42943.86
561.72	43343.21
561.93	42472.82
562.13	43136.37
562.33	42681.72
562.53	43873.63
562.73	43611.49
562.93	43154.80
563.13	43427.18
563.33	43609.45
563.53	44031.33
563.73	43558.25
563.93	43822.44
564.13	43928.93
564.33	43533.67
564.53	43847.01
564.74	44299.61
564.94	43988.32
565.14	44506.46
565.34	43580.78
565.54	44266.84
565.74	44227.93
565.94	44488.03
566.14	44227.93
566.34	44322.14
566.54	44731.73
566.74	43812.20
566.94	44514.65
567.14	44574.04
567.34	44528.98
567.54	44629.34
567.74	44809.56
567.94	44881.24
568.14	45012.31
568.34	44782.93
568.54	44983.63
568.74	45137.23
568.94	45000.02
569.14	45032.78
569.34	45024.59
569.54	45268.30
569.75	45079.89
569.95	45235.53
570.15	45737.29
570.35	45598.02
570.55	44909.91
570.75	45393.23
570.95	45788.49
571.15	45710.66
571.35	45831.49
571.55	45745.48
571.75	45544.78
571.95	46103.87
572.15	45829.44
572.35	46001.47
572.55	45901.12
572.75	45868.36
572.95	45933.89
573.15	46224.70
573.35	46527.80
573.55	45948.23
573.75	46007.62
573.95	46535.99
574.15	46234.94
574.35	46665.02
574.55	46667.06
574.75	46228.80
574.95	46638.39
575.15	46255.42
575.34	46710.07
575.54	46710.07
575.74	46718.26
575.94	46765.37
576.14	47121.71
576.34	47138.10
576.54	46908.72
576.74	46673.21
576.94	46753.08
577.14	47035.70
577.34	47629.61
577.54	46585.15
577.74	47582.51
577.94	47326.51
578.14	47107.38
578.34	47635.75
578.54	47183.15
578.74	47437.10
578.94	47656.23
579.14	47549.74
579.34	47453.48
579.54	47865.13
579.74	47828.26
579.94	47951.14
580.13	48182.56
580.33	47666.47
580.53	47990.05
580.73	48182.56
580.93	48033.06
581.13	47633.71
581.33	48340.25
581.53	48018.72
581.73	48248.10
581.93	48135.46
582.13	48256.29
582.33	48391.45
582.53	48475.42
582.73	48567.58
582.92	48330.01
583.12	48407.84
583.32	48213.28
583.52	48117.03
583.72	48620.83
583.92	48432.41
584.12	48487.71
584.32	48905.49
584.52	48432.41
584.72	48485.66
584.92	49169.68
585.11	49341.71
585.31	48672.03
585.51	49028.37
585.71	49059.09
585.91	49200.40
586.11	48551.20
586.31	49192.21
586.51	48907.54
586.71	48592.15
586.91	49306.90
587.10	49321.23
587.30	48995.60
587.50	48823.58
587.70	49310.99
587.90	49347.86
588.10	49104.15
588.30	49034.52
588.50	49497.36
