SpectraSuite Data File
++++++++++++++++++++++++++++++++++++
Date: Fri Jun 02 14:44:34 CEST 2017
User: INFO_000
Dark Spectrum Present: No
Reference Spectrum Present: No
Number of Sampled Component Spectra: 1
Spectrometers: USB4H00879
Integration Time (usec): 80000 (USB4H00879)
Spectra Averaged: 1 (USB4H00879)
Boxcar Smoothing: 0 (USB4H00879)
Correct for Electrical Dark: No (USB4H00879)
Strobe/Lamp Enabled: No (USB4H00879)
Correct for Detector Non-linearity: No (USB4H00879)
Correct for Stray Light: No (USB4H00879)
Number of Pixels in Processed Spectrum: 3648
>>>>>Begin Processed Spectral Data<<<<<
345.13	1312.75
345.34	1312.75
345.56	1312.75
345.78	1241.07
345.99	1302.51
346.21	1736.68
346.42	1607.66
346.64	1681.38
346.86	1726.44
347.07	1609.70
347.29	1705.96
347.50	1687.53
347.72	1646.57
347.94	1738.73
348.15	1542.12
348.37	1578.98
348.59	1738.73
348.80	1656.81
349.02	1855.46
349.23	1826.79
349.45	1812.45
349.67	1875.94
349.88	1812.45
350.10	1923.04
350.31	1880.04
350.53	1861.60
350.75	1918.95
350.96	1869.80
351.18	1863.65
351.39	1832.93
351.61	1830.88
351.82	1920.99
352.04	1937.38
352.26	1773.54
352.47	1888.23
352.69	1935.33
352.90	1703.91
353.12	1853.41
353.34	1822.69
353.55	1906.66
353.77	1771.49
353.98	1929.19
354.20	1785.83
354.41	2047.97
354.63	1949.67
354.85	2000.87
355.06	1925.09
355.28	1814.50
355.49	1888.23
355.71	1910.75
355.92	1859.56
356.14	1923.04
356.35	1886.18
356.57	1839.08
356.79	1867.75
357.00	1839.08
357.22	1863.65
357.43	1837.03
357.65	1976.29
357.86	1859.56
358.08	1888.23
358.29	1945.57
358.51	1990.63
358.72	1980.39
358.94	1935.33
359.16	1925.09
359.37	1935.33
359.59	1912.80
359.80	1961.95
360.02	1964.00
360.23	1984.48
360.45	1996.77
360.66	1964.00
360.88	1845.22
361.09	1892.32
361.31	2050.02
361.52	1875.94
361.74	1972.19
361.95	2082.78
362.17	1929.19
362.38	2095.07
362.60	1957.86
362.81	2019.30
363.03	1929.19
363.24	1902.56
363.46	1990.63
363.67	2017.25
363.89	2025.44
364.10	1966.05
364.32	2027.49
364.53	2080.74
364.75	1873.89
364.96	2066.40
365.18	2002.91
365.39	1992.67
365.61	2015.20
365.82	2119.65
366.04	2002.91
366.25	1908.71
366.47	2043.87
366.68	1978.34
366.90	1951.71
367.11	2101.22
367.33	2074.59
367.54	2078.69
367.76	2000.87
367.97	2052.06
368.19	2056.16
368.40	2119.65
368.62	2045.92
368.83	2004.96
369.05	2045.92
369.26	2017.25
369.48	1949.67
369.69	1998.82
369.91	2111.46
370.12	2060.26
370.33	2203.61
370.55	1947.62
370.76	1992.67
370.98	2027.49
371.19	2064.35
371.41	1964.00
371.62	2000.87
371.84	1996.77
372.05	2195.42
372.27	2148.32
372.48	2105.31
372.69	2056.16
372.91	2107.36
373.12	2181.09
373.34	2170.85
373.55	2115.55
373.77	2176.99
373.98	2117.60
374.20	2217.95
374.41	2271.20
374.62	2115.55
374.84	2156.51
375.05	2236.38
375.27	2185.18
375.48	2166.75
375.70	2183.13
375.91	2195.42
376.12	2275.29
376.34	2066.40
376.55	2215.90
376.77	2236.38
376.98	2154.46
377.19	2199.52
377.41	2138.08
377.62	2248.67
377.84	2283.49
378.05	2371.55
378.27	2164.70
378.48	2258.91
378.69	2318.30
378.91	2301.92
379.12	2303.96
379.34	2220.00
379.55	2351.07
379.76	2199.52
379.98	2197.47
380.19	2295.77
380.41	2322.40
380.62	2306.01
380.83	2240.48
381.05	2256.86
381.26	2430.94
381.47	2291.68
381.69	2246.62
381.90	2449.37
382.12	2385.88
382.33	2281.44
382.54	2232.29
382.76	2226.14
382.97	2207.71
383.19	2254.81
383.40	2361.31
383.61	2396.12
383.83	2213.85
384.04	2301.92
384.25	2389.98
384.47	2416.60
384.68	2363.36
384.89	2299.87
385.11	2258.91
385.32	2299.87
385.54	2330.59
385.75	2381.79
385.96	2383.84
386.18	2336.73
386.39	2453.47
386.60	2445.27
386.82	2441.18
387.03	2469.85
387.24	2383.84
387.46	2404.32
387.67	2508.76
387.88	2521.05
388.10	2467.80
388.31	2432.99
388.52	2557.91
388.74	2498.52
388.95	2424.80
389.16	2553.82
389.38	2555.86
389.59	2609.11
389.80	2625.50
390.02	2549.72
390.23	2613.21
390.44	2521.05
390.66	2586.58
390.87	2519.00
391.08	2590.68
391.30	2662.36
391.51	2680.79
391.72	2672.60
391.94	2643.93
392.15	2596.82
392.36	2635.74
392.58	2584.54
392.79	2803.67
393.00	2699.22
393.22	2680.79
393.43	2664.41
393.64	2775.00
393.85	2764.76
394.07	2670.55
394.28	2731.99
394.49	2781.14
394.71	2709.46
394.92	2820.05
395.13	2766.81
395.35	2875.35
395.56	2758.61
395.77	2815.96
395.98	2873.30
396.20	2838.48
396.41	2893.78
396.62	2920.40
396.84	2883.54
397.05	2826.20
397.26	2912.21
397.47	3000.27
397.69	2877.40
397.90	2969.55
398.11	2861.01
398.32	2899.92
398.54	2783.19
398.75	2783.19
398.96	2944.98
399.18	3133.39
399.39	2801.62
399.60	3078.10
399.81	2922.45
400.03	3010.51
400.24	3256.27
400.45	3024.85
400.66	3069.91
400.88	3039.19
401.09	3172.30
401.30	3082.19
401.51	3162.06
401.73	3143.63
401.94	3147.73
402.15	3096.53
402.36	3123.15
402.58	3153.87
402.79	3196.88
403.00	3176.40
403.21	3180.50
403.43	3274.70
403.64	3278.80
403.85	3086.29
404.06	3278.80
404.27	3119.06
404.49	3262.41
404.70	3078.10
404.91	3192.78
405.12	3276.75
405.34	3231.69
405.55	3313.61
405.76	3041.23
405.97	3215.31
406.19	3422.16
406.40	3211.22
406.61	3321.81
406.82	3303.37
407.03	3233.74
407.25	3205.07
407.46	3450.83
407.67	3442.64
407.88	3442.64
408.09	3362.76
408.31	3379.15
408.52	3364.81
408.73	3381.20
408.94	3293.13
409.15	3362.76
409.37	3489.74
409.58	3508.17
409.79	3551.18
410.00	3565.51
410.21	3495.88
410.43	3452.88
410.64	3477.45
410.85	3514.31
411.06	3485.64
411.27	3471.31
411.48	3561.42
411.70	3549.13
411.91	3545.03
412.12	3631.05
412.33	3581.90
412.54	3583.95
412.76	3682.25
412.97	3643.34
413.18	3606.47
413.39	3583.95
413.60	3731.40
413.81	3745.73
414.03	3583.95
414.24	3672.01
414.45	3850.18
414.66	3499.98
414.87	3784.65
415.08	3702.73
415.30	3776.45
415.51	3868.61
415.72	3749.83
415.93	3878.85
416.14	3907.52
416.35	3778.50
416.56	3833.80
416.78	3893.19
416.99	3911.62
417.20	3858.37
417.41	3952.58
417.62	3928.00
417.83	3962.82
418.04	3848.13
418.26	3880.90
418.47	3868.61
418.68	3991.49
418.89	3948.48
419.10	4147.14
419.31	4003.78
419.52	4081.60
419.73	4009.92
419.95	4136.90
420.16	4028.35
420.37	4091.84
420.58	4108.23
420.79	4050.88
421.00	4083.65
421.21	4218.82
421.42	4161.47
421.63	4214.72
421.85	4136.90
422.06	4216.77
422.27	4120.51
422.48	4235.20
422.69	4296.64
422.90	4327.36
423.11	4368.32
423.32	4284.35
423.53	4433.85
423.75	4480.96
423.96	4507.58
424.17	4452.28
424.38	4626.36
424.59	4618.17
424.80	4624.31
425.01	4548.54
425.22	4454.33
425.43	4450.24
425.64	4585.40
425.85	4650.94
426.06	4630.46
426.28	4609.98
426.49	4657.08
426.70	4542.39
426.91	4663.22
427.12	4683.70
427.33	4712.38
427.54	4564.92
427.75	4685.75
427.96	4919.22
428.17	4675.51
428.38	4767.67
428.59	4931.51
428.80	4771.77
429.01	4820.92
429.23	4683.70
429.44	4843.45
429.65	5023.67
429.86	5013.43
430.07	4800.44
430.28	4892.60
430.49	4997.04
430.70	5089.20
430.91	5015.48
431.12	5050.29
431.33	5142.45
431.54	5291.95
431.75	5074.87
431.96	5021.62
432.17	5078.96
432.38	5052.34
432.59	5273.52
432.80	5390.25
433.01	5203.89
433.22	5212.08
433.43	5269.42
433.64	5164.98
433.85	5197.74
434.06	5394.35
434.27	5246.90
434.49	5466.03
434.70	5482.41
434.91	5498.80
435.12	5449.64
435.33	5443.50
435.54	5588.91
435.75	5244.85
435.96	5478.32
436.17	5343.15
436.38	5603.24
436.59	5599.15
436.80	5562.28
437.01	5697.45
437.22	5738.41
437.43	5574.57
437.64	5439.40
437.85	5654.44
438.06	5849.00
438.27	5638.06
438.48	5681.07
438.69	5877.67
438.90	5816.23
439.11	5715.88
439.32	5826.47
439.53	5953.45
439.74	6031.27
439.95	5955.49
440.16	5801.90
440.37	6123.43
440.57	5748.65
440.78	6088.61
440.99	5967.78
441.20	6125.47
441.41	5918.63
441.62	6131.62
441.83	5846.95
442.04	6180.77
442.25	6215.59
442.46	6160.29
442.67	6274.98
442.88	6621.08
443.09	6258.59
443.30	6307.74
443.51	6246.30
443.72	6637.47
443.93	6164.39
444.14	6502.30
444.35	6336.42
444.56	6555.55
444.77	6424.48
444.98	6449.05
445.19	6434.72
445.40	6692.76
445.61	6363.04
445.81	6510.49
446.02	6524.83
446.23	6440.86
446.44	6514.59
446.65	6653.85
446.86	6598.56
447.07	6680.47
447.28	6739.87
447.49	6715.29
447.70	6616.99
447.91	6780.82
448.12	6766.49
448.33	6832.02
448.54	6842.26
448.74	6858.65
448.95	6924.18
449.16	6815.64
449.37	7049.11
449.58	6885.27
449.79	7344.02
450.00	6946.71
450.21	6938.52
450.42	7163.79
450.63	7057.30
450.84	7083.92
451.05	7128.98
451.25	7088.02
451.46	6920.09
451.67	7298.96
451.88	7532.43
452.09	7196.56
452.30	7030.68
452.51	7196.56
452.72	7372.69
452.93	7544.72
453.13	7227.28
453.34	7249.81
453.55	7282.58
453.76	7346.06
453.97	7669.64
454.18	7458.70
454.39	7575.44
454.60	7485.33
454.81	7460.75
455.01	7714.70
455.22	7444.37
455.43	7706.51
455.64	7726.99
455.85	7786.38
456.06	8066.95
456.27	7782.28
456.48	7686.03
456.68	7839.62
456.89	7899.02
457.10	8069.00
457.31	8200.07
457.52	7829.38
457.73	8187.78
457.94	8361.86
458.14	7749.51
458.35	8347.52
458.56	8105.86
458.77	8085.38
458.98	8296.32
459.19	8275.84
459.39	8441.73
459.60	8621.95
459.81	8363.90
460.02	8488.83
460.23	8269.70
460.44	8902.52
460.65	8675.20
460.85	8742.78
461.06	8544.13
461.27	8531.84
461.48	8933.24
461.69	8783.74
461.89	8664.96
462.10	8812.41
462.31	8613.76
462.52	8859.51
462.73	8986.49
462.94	9088.89
463.14	9097.08
463.35	9142.13
463.56	9498.48
463.77	9396.08
463.98	9078.65
464.18	9242.48
464.39	9680.75
464.60	9572.21
464.81	9504.62
465.02	9426.80
465.23	9678.70
465.43	9564.01
465.64	9850.73
465.85	9820.01
466.06	9584.49
466.27	9963.37
466.47	10108.77
466.68	10004.33
466.89	10000.23
467.10	10252.13
467.30	10012.52
467.51	10217.32
467.72	10385.25
467.93	10243.94
468.14	10286.95
468.34	10583.90
468.55	10544.99
468.76	10694.49
468.97	10426.21
469.17	10940.25
469.38	10848.09
469.59	11110.23
469.80	10721.12
470.01	10995.54
470.21	11011.93
470.42	11347.79
470.63	11239.25
470.84	11159.38
471.04	11394.90
471.25	11364.18
471.46	11464.53
471.67	11822.92
471.87	11507.54
472.08	11767.63
472.29	12027.72
472.50	11587.41
472.70	11859.79
472.91	11900.75
473.12	12019.53
473.33	12109.64
473.53	12261.19
473.74	12103.50
473.95	12631.87
474.16	12648.26
474.36	12570.43
474.57	12744.51
474.78	13047.61
474.99	12699.45
475.19	12859.20
475.40	13068.09
475.61	13186.87
475.81	13315.89
476.02	13340.47
476.23	13233.97
476.44	13686.58
476.64	13911.85
476.85	13918.00
477.06	13610.80
477.27	13819.69
477.47	14040.87
477.68	13940.52
477.89	14124.84
478.09	14153.51
478.30	14077.74
478.51	14223.14
478.71	14384.93
478.92	14401.32
479.13	14567.20
479.34	15060.76
479.54	14837.53
479.75	14896.92
479.96	15005.47
480.16	15097.63
480.37	15216.41
480.58	15386.39
480.78	15396.63
480.99	15363.86
481.20	15626.00
481.41	15734.54
481.61	15843.09
481.82	15748.88
482.03	15785.74
482.23	15845.13
482.44	16305.93
482.65	16131.85
482.85	16316.17
483.06	16353.03
483.27	16066.31
483.47	16322.31
483.68	16297.74
483.89	16416.52
484.09	16647.94
484.30	16787.20
484.51	16824.06
484.71	16994.04
484.92	17045.24
485.13	17270.52
485.33	17231.61
485.54	17071.87
485.75	17405.69
485.95	17665.78
486.16	17645.30
486.37	17692.40
486.57	17446.65
486.78	17716.98
486.98	17821.42
487.19	17954.54
487.40	18147.05
487.60	17987.31
487.81	18286.31
488.02	18317.03
488.22	18382.57
488.43	18552.55
488.64	18470.63
488.84	18765.54
489.05	18687.71
489.25	18736.87
489.46	19003.10
489.67	18794.21
489.87	19074.78
490.08	19381.98
490.29	19078.88
490.49	19576.53
490.70	19287.77
490.90	19291.87
491.11	19627.73
491.32	19832.53
491.52	19689.17
491.73	19590.87
491.94	19701.46
492.14	19789.52
492.35	19953.36
492.55	20227.79
492.76	20246.22
492.97	20551.37
493.17	19986.13
493.38	20207.31
493.58	20516.55
493.79	20764.36
494.00	20504.26
494.20	20543.17
494.41	20702.92
494.61	21016.26
494.82	20854.47
495.02	20876.99
495.23	21075.65
495.44	21438.14
495.64	21485.24
495.85	21505.72
496.05	21640.89
496.26	21558.97
496.47	21739.19
496.67	21636.79
496.88	21995.18
497.08	21954.22
497.29	22060.72
497.49	22263.47
497.70	22193.84
497.91	22304.43
498.11	22460.07
498.32	22576.81
498.52	22599.34
498.73	22744.74
498.93	22679.21
499.14	22980.26
499.34	22867.62
499.55	22992.55
499.76	23031.46
499.96	23176.86
500.17	22847.14
500.37	23373.47
500.58	23250.59
500.78	23455.39
500.99	23432.86
501.19	23758.49
501.40	23774.87
501.60	23387.80
501.81	23840.40
502.02	23877.27
502.22	23412.38
502.43	23910.04
502.63	24241.81
502.84	24155.79
503.04	24475.27
503.25	24510.09
503.45	24581.77
503.66	24446.60
503.86	24499.85
504.07	24919.68
504.27	24694.41
504.48	25032.32
504.68	25001.60
504.89	25466.49
505.09	25216.64
505.30	25165.44
505.50	25169.54
505.71	25312.89
505.91	25513.59
506.12	25466.49
506.32	25398.91
506.53	25790.07
506.73	25745.02
506.94	26091.12
507.14	25990.77
507.35	25699.96
507.55	25704.06
507.76	26007.16
507.96	26193.52
508.17	26236.53
508.37	26158.70
508.58	26302.06
508.78	26183.28
508.99	26599.02
509.19	26359.41
509.40	26533.48
509.60	26508.91
509.81	26662.51
510.01	26644.07
510.22	26646.12
510.42	26734.18
510.63	27190.88
510.83	26979.94
511.04	27197.02
511.24	27225.70
511.44	27240.03
511.65	27346.53
511.85	27328.10
512.06	27547.23
512.26	27299.42
512.47	27680.35
512.67	27604.57
512.88	27649.63
513.08	27356.77
513.29	27807.32
513.49	27897.43
513.69	27633.24
513.90	28261.97
514.10	27653.72
514.31	27913.81
514.51	28139.09
514.72	28087.89
514.92	28036.69
515.13	28167.76
515.33	28489.29
515.53	28098.13
515.74	28251.73
515.94	28601.93
516.15	28753.48
516.35	28194.39
516.56	28491.34
516.76	28505.68
516.96	28413.52
517.17	28800.58
517.37	28503.63
517.58	28493.39
517.78	28886.60
517.99	28696.14
518.19	29126.21
518.39	28952.13
518.60	28878.41
518.80	29378.11
519.01	29224.51
519.21	28849.74
519.41	29271.62
519.62	29253.19
519.82	29249.09
520.03	29478.46
520.23	29515.33
520.43	29468.22
520.64	29826.62
520.84	29621.82
521.05	29591.10
521.25	29857.34
521.45	30006.84
521.66	30123.57
521.86	29589.05
522.07	29900.34
522.27	30023.22
522.47	30021.17
522.68	29920.82
522.88	30150.20
523.08	30400.05
523.29	30416.43
523.49	30297.65
523.70	30434.86
523.90	30866.98
524.10	30328.37
524.31	30670.38
524.51	30492.21
524.71	30774.83
524.92	30690.86
525.12	31372.83
525.33	30920.23
525.53	30920.23
525.73	31194.66
525.94	30955.05
526.14	31352.35
526.34	31061.54
526.55	31424.03
526.75	31362.59
526.95	31827.48
527.16	31628.83
527.36	31497.76
527.56	31835.67
527.77	32323.09
527.97	31819.29
528.17	32052.76
528.38	32177.68
528.58	31931.93
528.78	32239.12
528.99	32097.81
529.19	32642.57
529.39	32409.11
529.60	32388.63
529.80	32787.98
530.00	32728.59
530.21	32687.63
530.41	32749.07
530.61	32701.96
530.82	32923.15
531.02	32753.16
531.22	33082.89
531.43	33121.80
531.63	33222.15
531.83	33441.28
532.04	33838.59
532.24	33383.94
532.44	33936.89
532.64	33922.55
532.85	34242.04
533.05	34110.97
533.25	34403.83
533.46	33740.29
533.66	34565.62
533.86	34186.74
534.07	34657.78
534.27	34563.57
534.47	34625.01
534.67	34799.08
534.88	35032.55
535.08	35061.22
535.28	34618.86
535.49	35200.49
535.69	35378.66
535.89	35569.12
536.09	35413.48
536.30	35761.63
536.50	35605.98
536.70	35597.79
536.91	35808.73
537.11	36197.85
537.31	36160.98
537.51	36226.52
537.72	36316.63
537.92	36582.87
538.12	36820.43
538.32	36406.74
538.53	36636.11
538.73	36675.02
538.93	36836.81
539.13	37010.89
539.34	37135.82
539.54	36804.05
539.74	37320.13
539.94	37182.92
540.15	37191.11
540.35	37180.87
540.55	37907.90
540.75	37674.43
540.96	37721.54
541.16	37549.51
541.36	37696.96
541.56	38155.71
541.77	38288.82
541.97	37893.57
542.17	37987.77
542.37	38041.02
542.58	38190.52
542.78	38415.80
542.98	38819.25
543.18	38364.60
543.38	39144.87
543.59	39003.56
543.79	38563.25
543.99	38835.63
544.19	39169.45
544.40	38819.25
544.60	39804.32
544.80	39706.02
545.00	39499.17
545.20	39687.59
545.41	39273.90
545.61	39613.86
545.81	39540.13
546.01	40031.65
546.21	39843.23
546.42	39890.34
546.62	40197.53
546.82	40248.73
547.02	40091.04
547.22	40576.40
547.43	40414.62
547.63	40238.49
547.83	40787.35
548.03	40246.68
548.23	41006.48
548.44	40750.48
548.64	40908.18
548.84	40904.08
549.04	40949.14
549.24	41282.95
549.45	41379.21
549.65	40859.02
549.85	41139.60
550.05	41360.78
550.25	41149.84
550.45	41682.31
550.66	41391.50
550.86	41319.82
551.06	41559.43
551.26	41545.09
551.46	41964.93
551.66	41897.34
551.87	41547.14
552.07	41831.81
552.27	42069.37
552.47	41678.21
552.67	42104.19
552.87	42093.95
553.07	41866.63
553.28	42153.34
553.48	42048.89
553.68	42079.61
553.88	42737.01
554.08	42194.30
554.28	42712.44
554.48	41819.52
554.69	42300.79
554.89	42311.03
555.09	42675.57
555.29	42474.87
555.49	42597.75
555.69	42618.23
555.89	42911.09
556.10	42814.83
556.30	42550.65
556.50	42788.21
556.70	42812.79
556.90	42995.06
557.10	43023.73
557.30	42771.83
557.50	42583.41
557.70	43158.89
557.91	43425.13
558.11	43345.26
558.31	43191.66
558.51	42732.92
558.71	43453.80
558.91	43365.74
559.11	43300.20
559.31	43064.69
559.51	42982.77
559.72	43230.57
559.92	43396.46
560.12	43265.39
560.32	43328.87
560.52	43197.80
560.72	43709.80
560.92	43771.24
561.12	43785.57
561.32	43791.72
561.52	43543.91
561.72	44072.29
561.93	43709.80
562.13	43443.56
562.33	43195.76
562.53	44080.48
562.73	43382.12
562.93	43666.79
563.13	43799.91
563.33	43822.44
563.53	43615.59
563.73	43879.78
563.93	44242.27
564.13	44414.30
564.33	43840.87
564.53	43767.14
564.74	44019.04
564.94	43631.97
565.14	44088.67
565.34	43554.15
565.54	44156.25
565.74	43951.46
565.94	44195.17
566.14	44012.90
566.34	43965.79
566.54	44260.70
566.74	44170.59
566.94	44111.20
567.14	44569.94
567.34	44186.97
567.54	44025.18
567.74	43787.62
567.94	44060.00
568.14	44569.94
568.34	44582.23
568.54	44266.84
568.74	44825.94
568.94	44260.70
569.14	44776.79
569.34	44348.76
569.54	44520.79
569.75	44518.74
569.95	44877.14
570.15	45071.70
570.35	44705.11
570.55	44744.02
570.75	44881.24
570.95	44766.55
571.15	44658.01
571.35	44662.10
571.55	45180.24
571.75	45069.65
571.95	44930.39
572.15	44801.36
572.35	44959.06
572.55	45071.70
572.75	44893.52
572.95	44928.34
573.15	44776.79
573.35	44854.61
573.55	45143.38
573.75	45153.62
573.95	45401.42
574.15	45012.31
574.35	45337.93
574.55	45450.57
574.75	45018.45
574.95	45405.52
575.15	45108.56
575.34	45770.05
575.54	45655.37
575.74	45661.51
575.94	45626.70
576.14	45333.84
576.34	45696.33
576.54	46015.81
576.74	45882.69
576.94	45921.60
577.14	46181.70
577.34	46306.62
577.54	45602.12
577.74	46187.84
577.94	46535.99
578.14	45780.29
578.34	46406.97
578.54	45829.44
578.74	46470.46
578.94	46511.42
579.14	46144.83
579.34	46329.15
579.54	46335.29
579.74	47000.88
579.94	46497.08
580.13	46708.02
580.33	47011.12
580.53	46925.11
580.73	46927.16
580.93	47172.91
581.13	46990.64
581.33	47011.12
581.53	47510.83
581.73	47287.60
581.93	47555.88
582.13	47701.29
582.33	47332.65
582.53	47592.75
582.73	47181.10
582.92	47428.91
583.12	48233.76
583.32	47533.35
583.52	47637.80
583.72	48063.78
583.92	47645.99
584.12	48180.51
584.32	48504.09
584.52	48239.90
584.72	48051.49
584.92	48178.46
585.11	48747.80
585.31	48248.10
585.51	48422.17
585.71	48549.15
585.91	48952.60
586.11	48606.49
586.31	48256.29
586.51	48858.39
586.71	48665.88
586.91	49136.91
587.10	49614.09
587.30	49026.32
587.50	48880.92
587.70	49259.79
587.90	49349.90
588.10	49407.25
588.30	49603.85
588.50	49650.95
