SpectraSuite Data File
++++++++++++++++++++++++++++++++++++
Date: Fri Jun 02 14:44:37 CEST 2017
User: INFO_000
Dark Spectrum Present: No
Reference Spectrum Present: No
Number of Sampled Component Spectra: 1
Spectrometers: USB4H00879
Integration Time (usec): 80000 (USB4H00879)
Spectra Averaged: 1 (USB4H00879)
Boxcar Smoothing: 0 (USB4H00879)
Correct for Electrical Dark: No (USB4H00879)
Strobe/Lamp Enabled: No (USB4H00879)
Correct for Detector Non-linearity: No (USB4H00879)
Correct for Stray Light: No (USB4H00879)
Number of Pixels in Processed Spectrum: 3648
>>>>>Begin Processed Spectral Data<<<<<
345.13	1232.88
345.34	1232.88
345.56	1232.88
345.78	1208.30
345.99	1222.64
346.21	1648.61
346.42	1656.81
346.64	1685.48
346.86	1834.98
347.07	1638.38
347.29	1617.90
347.50	1617.90
347.72	1644.52
347.94	1753.06
348.15	1578.98
348.37	1607.66
348.59	1753.06
348.80	1609.70
349.02	1722.34
349.23	1877.99
349.45	1880.04
349.67	1894.37
349.88	1808.36
350.10	1914.85
350.31	1873.89
350.53	1828.84
350.75	1931.23
350.96	1773.54
351.18	1853.41
351.39	1861.60
351.61	1851.36
351.82	1910.75
352.04	1894.37
352.26	1771.49
352.47	1867.75
352.69	1898.47
352.90	1691.62
353.12	1853.41
353.34	1855.46
353.55	1910.75
353.77	1923.04
353.98	1904.61
354.20	1867.75
354.41	1861.60
354.63	1839.08
354.85	1961.95
355.06	1982.43
355.28	1779.68
355.49	1898.47
355.71	1904.61
355.92	1898.47
356.14	1920.99
356.35	1841.12
356.57	1888.23
356.79	1966.05
357.00	1847.27
357.22	2019.30
357.43	1806.31
357.65	1910.75
357.86	1937.38
358.08	1920.99
358.29	1953.76
358.51	1988.58
358.72	2025.44
358.94	1943.52
359.16	2007.01
359.37	1916.90
359.59	1910.75
359.80	1974.24
360.02	1900.52
360.23	1943.52
360.45	2017.25
360.66	1933.28
360.88	1849.32
361.09	1961.95
361.31	2109.41
361.52	1935.33
361.74	2023.39
361.95	2052.06
362.17	1916.90
362.38	2086.88
362.60	2074.59
362.81	2000.87
363.03	1937.38
363.24	1998.82
363.46	2050.02
363.67	2011.11
363.89	2029.54
364.10	2039.78
364.32	1966.05
364.53	2074.59
364.75	1890.28
364.96	1978.34
365.18	1951.71
365.39	2007.01
365.61	1982.43
365.82	2074.59
366.04	1990.63
366.25	2029.54
366.47	1984.48
366.68	2027.49
366.90	1929.19
367.11	2029.54
367.33	2101.22
367.54	2082.78
367.76	2027.49
367.97	2107.36
368.19	1957.86
368.40	2150.37
368.62	1947.62
368.83	1947.62
369.05	2066.40
369.26	1992.67
369.48	1961.95
369.69	1955.81
369.91	2031.58
370.12	2017.25
370.33	2181.09
370.55	2023.39
370.76	2039.78
370.98	2146.27
371.19	2066.40
371.41	2072.54
371.62	1990.63
371.84	2045.92
372.05	2156.51
372.27	1959.91
372.48	2101.22
372.69	2050.02
372.91	2090.98
373.12	2146.27
373.34	2041.82
373.55	2097.12
373.77	2195.42
373.98	2105.31
374.20	2226.14
374.41	2220.00
374.62	2125.79
374.84	2228.19
375.05	2195.42
375.27	2191.33
375.48	2183.13
375.70	2248.67
375.91	2181.09
376.12	2310.11
376.34	2263.01
376.55	2164.70
376.77	2119.65
376.98	2090.98
377.19	2209.76
377.41	2103.26
377.62	2254.81
377.84	2236.38
378.05	2365.40
378.27	2224.09
378.48	2357.21
378.69	2334.68
378.91	2271.20
379.12	2205.66
379.34	2146.27
379.55	2310.11
379.76	2240.48
379.98	2332.64
380.19	2242.53
380.41	2234.33
380.62	2324.44
380.83	2183.13
381.05	2220.00
381.26	2402.27
381.47	2293.72
381.69	2263.01
381.90	2365.40
382.12	2244.57
382.33	2238.43
382.54	2281.44
382.76	2306.01
382.97	2359.26
383.19	2299.87
383.40	2428.89
383.61	2285.53
383.83	2203.61
384.04	2291.68
384.25	2322.40
384.47	2361.31
384.68	2312.16
384.89	2207.71
385.11	2250.72
385.32	2293.72
385.54	2322.40
385.75	2414.56
385.96	2494.43
386.18	2430.94
386.39	2324.44
386.60	2404.32
386.82	2441.18
387.03	2396.12
387.24	2514.91
387.46	2400.22
387.67	2455.51
387.88	2473.95
388.10	2484.19
388.31	2576.34
388.52	2473.95
388.74	2490.33
388.95	2480.09
389.16	2531.29
389.38	2465.75
389.59	2664.41
389.80	2602.97
390.02	2598.87
390.23	2684.89
390.44	2527.19
390.66	2557.91
390.87	2408.41
391.08	2533.34
391.30	2703.32
391.51	2623.45
391.72	2691.03
391.94	2682.84
392.15	2615.26
392.36	2682.84
392.58	2609.11
392.79	2641.88
393.00	2826.20
393.22	2785.24
393.43	2709.46
393.64	2787.29
393.85	2809.81
394.07	2662.36
394.28	2785.24
394.49	2672.60
394.71	2723.80
394.92	2918.36
395.13	2674.65
395.35	2709.46
395.56	2707.41
395.77	2820.05
395.98	2820.05
396.20	2820.05
396.41	2881.49
396.62	2863.06
396.84	2871.25
397.05	2840.53
397.26	2873.30
397.47	2975.70
397.69	2795.48
397.90	2953.17
398.11	2947.03
398.32	2926.55
398.54	2930.64
398.75	2891.73
398.96	2867.16
399.18	3178.45
399.39	2985.94
399.60	3000.27
399.81	2967.51
400.03	3008.47
400.24	3090.38
400.45	3037.14
400.66	3149.78
400.88	2998.23
401.09	3293.13
401.30	3014.61
401.51	3184.59
401.73	3205.07
401.94	3096.53
402.15	3055.57
402.36	3190.74
402.58	3229.65
402.79	3145.68
403.00	3166.16
403.21	3280.85
403.43	3280.85
403.64	3362.76
403.85	3147.73
404.06	3246.03
404.27	3155.92
404.49	3229.65
404.70	3213.26
404.91	3323.85
405.12	3387.34
405.34	3172.30
405.55	3416.01
405.76	3153.87
405.97	3323.85
406.19	3360.72
406.40	3162.06
406.61	3313.61
406.82	3360.72
407.03	3272.65
407.25	3295.18
407.46	3473.36
407.67	3430.35
407.88	3538.89
408.09	3319.76
408.31	3377.10
408.52	3407.82
408.73	3282.89
408.94	3278.80
409.15	3422.16
409.37	3481.55
409.58	3465.16
409.79	3465.16
410.00	3559.37
410.21	3463.12
410.43	3491.79
410.64	3481.55
410.85	3438.54
411.06	3499.98
411.27	3616.71
411.48	3635.14
411.70	3491.79
411.91	3669.96
412.12	3565.51
412.33	3497.93
412.54	3528.65
412.76	3643.34
412.97	3657.67
413.18	3489.74
413.39	3665.86
413.60	3592.14
413.81	3600.33
414.03	3723.21
414.24	3551.18
414.45	3915.72
414.66	3594.19
414.87	3758.02
415.08	3641.29
415.30	3717.06
415.51	3729.35
415.72	3721.16
415.93	3758.02
416.14	3690.44
416.35	3948.48
416.56	3747.78
416.78	3901.38
416.99	3876.80
417.20	3792.84
417.41	3968.96
417.62	3903.43
417.83	3860.42
418.04	3903.43
418.26	3985.35
418.47	3899.33
418.68	3811.27
418.89	3977.16
419.10	4124.61
419.31	4100.03
419.52	4083.65
419.73	4057.03
419.95	4052.93
420.16	3958.72
420.37	4007.87
420.58	4020.16
420.79	3944.39
421.00	4057.03
421.21	4093.89
421.42	4120.51
421.63	4171.71
421.85	4229.06
422.06	4184.00
422.27	4134.85
422.48	4222.91
422.69	4231.10
422.90	4184.00
423.11	4321.21
423.32	4251.58
423.53	4458.43
423.75	4370.37
423.96	4452.28
424.17	4407.23
424.38	4415.42
424.59	4329.41
424.80	4556.73
425.01	4528.06
425.22	4360.13
425.43	4468.67
425.64	4769.72
425.85	4575.16
426.06	4558.78
426.28	4609.98
426.49	4534.20
426.70	4542.39
426.91	4624.31
427.12	4753.34
427.33	4788.15
427.54	4652.98
427.75	4755.38
427.96	4759.48
428.17	4718.52
428.38	4888.50
428.59	4868.02
428.80	4685.75
429.01	4730.81
429.23	4878.26
429.44	5054.39
429.65	5044.15
429.86	5099.44
430.07	4779.96
430.28	4880.31
430.49	5015.48
430.70	5113.78
430.91	5017.52
431.12	5025.72
431.33	5314.48
431.54	5144.50
431.75	5261.23
431.96	5072.82
432.17	5146.55
432.38	5197.74
432.59	5416.88
432.80	5187.50
433.01	5320.62
433.22	5347.25
433.43	5418.93
433.64	5382.06
433.85	5263.28
434.06	5527.47
434.27	5363.63
434.49	5445.55
434.70	5533.61
434.91	5566.38
435.12	5633.96
435.33	5535.66
435.54	5590.95
435.75	5330.86
435.96	5404.59
436.17	5478.32
436.38	5633.96
436.59	5599.15
436.80	5447.60
437.01	5881.77
437.22	5609.39
437.43	5867.43
437.64	5488.56
437.85	5689.26
438.06	5732.26
438.27	5580.71
438.48	5644.20
438.69	5787.56
438.90	5787.56
439.11	5638.06
439.32	5930.92
439.53	5865.38
439.74	5980.07
439.95	5959.59
440.16	5877.67
440.37	5824.42
440.57	5728.17
440.78	6045.60
440.99	5971.88
441.20	6076.32
441.41	5736.36
441.62	5992.36
441.83	5642.15
442.04	6115.23
442.25	6193.06
442.46	5902.25
442.67	6143.91
442.88	6479.77
443.09	6141.86
443.30	6045.60
443.51	6252.45
443.72	6356.90
443.93	6123.43
444.14	6434.72
444.35	5978.02
444.56	6426.53
444.77	6336.42
444.98	6309.79
445.19	6320.03
445.40	6412.19
445.61	6383.52
445.81	6469.53
446.02	6545.31
446.23	6444.96
446.44	6346.66
446.65	6479.77
446.86	6438.81
447.07	6596.51
447.28	6649.75
447.49	6565.79
447.70	6453.15
447.91	6737.82
448.12	6705.05
448.33	6868.89
448.54	6739.87
448.74	6729.63
448.95	6705.05
449.16	6780.82
449.37	6983.57
449.58	6746.01
449.79	7016.34
450.00	6756.25
450.21	6913.94
450.42	7106.45
450.63	6942.61
450.84	7010.20
451.05	7059.35
451.25	7008.15
451.46	6973.33
451.67	7241.62
451.88	7198.61
452.09	7210.90
452.30	7182.23
452.51	7137.17
452.72	7507.85
452.93	7716.75
453.13	7223.19
453.34	7307.15
453.55	7423.89
453.76	7344.02
453.97	7808.90
454.18	7673.74
454.39	7704.46
454.60	7597.96
454.81	7518.09
455.01	7624.59
455.22	7464.85
455.43	7712.65
455.64	8220.55
455.85	8101.76
456.06	7968.65
456.27	7901.06
456.48	7843.72
456.68	7921.54
456.89	8128.39
457.10	8105.86
457.31	8200.07
457.52	8193.92
457.73	8275.84
457.94	8421.25
458.14	8150.92
458.35	8517.50
458.56	8351.62
458.77	8329.09
458.98	8462.21
459.19	8443.78
459.39	8560.51
459.60	8640.38
459.81	8638.33
460.02	8697.72
460.23	8722.30
460.44	8755.07
460.65	8742.78
460.85	8744.83
461.06	8785.79
461.27	8763.26
461.48	9023.35
461.69	9056.12
461.89	8800.12
462.10	8923.00
462.31	8894.33
462.52	8947.58
462.73	8990.58
462.94	9252.72
463.14	9195.38
463.35	9273.20
463.56	9559.92
463.77	9570.16
463.98	9383.79
464.18	9316.21
464.39	9707.37
464.60	9641.84
464.81	9711.47
465.02	9619.31
465.23	9846.63
465.43	9690.99
465.64	10010.47
465.85	9936.74
466.06	9807.72
466.27	9985.90
466.47	10243.94
466.68	10133.35
466.89	10006.38
467.10	10151.78
467.30	9938.79
467.51	10250.08
467.72	10501.98
467.93	10092.39
468.14	10055.53
468.34	10706.78
468.55	10667.87
468.76	10530.66
468.97	10383.20
469.17	10708.83
469.38	10698.59
469.59	11110.23
469.80	10741.60
470.01	10915.67
470.21	10944.34
470.42	11159.38
470.63	11274.07
470.84	11245.40
471.04	11435.86
471.25	11212.63
471.46	11159.38
471.67	11657.04
471.87	11433.81
472.08	11603.79
472.29	11800.40
472.50	11394.90
472.70	11603.79
472.91	11597.65
473.12	11773.77
473.33	12107.59
473.53	12171.08
473.74	12033.86
473.95	12250.95
474.16	12267.33
474.36	12320.58
474.57	12474.18
474.78	12687.17
474.99	12330.82
475.19	12611.39
475.40	12580.67
475.61	12891.96
475.81	13004.60
476.02	13125.43
476.23	13102.90
476.44	13127.48
476.64	13432.63
476.85	13428.53
477.06	13512.50
477.27	13725.49
477.47	13840.17
477.68	13668.14
477.89	13942.57
478.09	13690.67
478.30	13805.36
478.51	13971.24
478.71	14288.68
478.92	14171.94
479.13	14485.28
479.34	14391.08
479.54	14647.07
479.75	14675.74
479.96	14544.67
480.16	14769.95
480.37	14698.27
480.58	14964.51
480.78	15101.72
480.99	15277.85
481.20	15269.66
481.41	15316.76
481.61	15492.88
481.82	15587.09
482.03	15464.21
482.23	15689.49
482.44	15767.31
482.65	15931.15
482.85	15927.05
483.06	15863.57
483.27	16271.11
483.47	16156.43
483.68	16344.84
483.89	16383.75
484.09	16420.61
484.30	16652.03
484.51	16725.76
484.71	17041.15
484.92	16744.19
485.13	16934.65
485.33	17137.40
485.54	17307.38
485.75	17612.53
485.95	17360.63
486.16	17325.82
486.37	17608.44
486.57	17571.57
486.78	17622.77
486.98	17829.62
487.19	17903.34
487.40	18054.89
487.60	18122.48
487.81	18482.92
488.02	18382.57
488.22	18271.98
488.43	18962.14
488.64	18570.98
488.84	18747.11
489.05	18667.24
489.25	18556.64
489.46	19312.35
489.67	18976.48
489.87	19240.67
490.08	19470.04
490.29	19384.02
490.49	19631.83
490.70	19807.95
490.90	19617.49
491.11	19756.75
491.32	19910.35
491.52	20041.42
491.73	20147.92
491.94	20440.78
492.14	19930.83
492.35	20399.82
492.55	20410.06
492.76	20747.97
492.97	20491.98
493.17	20809.41
493.38	20827.84
493.58	21149.37
493.79	20858.56
494.00	21130.94
494.20	21386.94
494.41	21180.09
494.61	21610.17
494.82	21585.59
495.02	21485.24
495.23	21563.06
495.44	21968.56
495.64	21847.73
495.85	22101.68
496.05	21919.41
496.26	22052.53
496.47	22365.87
496.67	22070.96
496.88	22286.00
497.08	21984.94
497.29	22521.51
497.49	22210.22
497.70	22632.10
497.91	22906.53
498.11	22759.08
498.32	23066.27
498.52	23135.90
498.73	23289.50
498.93	23174.81
499.14	23488.15
499.34	23076.51
499.55	23482.01
499.76	23295.64
499.96	23439.00
500.17	23649.94
500.37	23641.75
500.58	23987.86
500.78	23649.94
500.99	23547.54
501.19	24098.45
501.40	24051.34
501.60	23715.48
501.81	23977.62
502.02	23901.84
502.22	23955.09
502.43	24424.08
502.63	24469.13
502.84	24053.39
503.04	24405.64
503.25	24549.00
503.45	24579.72
503.66	24757.89
503.86	24747.65
504.07	25206.40
504.27	24651.40
504.48	25360.00
504.68	24923.78
504.89	25106.05
505.09	25323.13
505.30	25194.11
505.50	25085.57
505.71	25110.14
505.91	25429.63
506.12	25355.90
506.32	25147.01
506.53	25542.27
506.73	25683.58
506.94	25728.63
507.14	25540.22
507.35	25652.86
507.55	25798.26
507.76	25968.24
507.96	25579.13
508.17	25534.07
508.37	25958.00
508.58	25544.31
508.78	25820.79
508.99	26203.76
509.19	26232.43
509.40	26367.60
509.60	25925.24
509.81	26312.30
510.01	26349.17
510.22	26076.79
510.42	26283.63
510.63	26396.27
510.83	26267.25
511.04	26478.19
511.24	26609.26
511.44	26470.00
511.65	26363.50
511.85	26869.35
512.06	26728.04
512.26	26850.92
512.47	26994.28
512.67	26777.19
512.88	27139.68
513.08	26723.94
513.29	27260.51
513.49	26824.29
513.69	26789.48
513.90	27287.14
514.10	27049.57
514.31	27176.55
514.51	27498.08
514.72	27397.73
514.92	27307.62
515.13	27397.73
515.33	27270.75
515.53	27473.50
515.74	27381.34
515.94	27612.76
516.15	27760.22
516.35	27729.50
516.56	27536.99
516.76	27592.28
516.96	27745.88
517.17	27852.38
517.37	28042.84
517.58	27868.76
517.78	27985.49
517.99	28251.73
518.19	28300.88
518.39	28415.57
518.60	28227.15
518.80	28509.77
519.01	28462.67
519.21	28532.30
519.41	28614.22
519.62	28274.26
519.82	28915.27
520.03	29052.48
520.23	28919.37
520.43	28796.49
520.64	29105.73
520.84	29312.58
521.05	29109.83
521.25	29464.13
521.45	29646.40
521.66	29470.27
521.86	29574.72
522.07	29451.84
522.27	29589.05
522.47	29593.15
522.68	30191.16
522.88	29767.23
523.08	30119.48
523.29	29957.69
523.49	30330.42
523.70	30096.95
523.90	30651.95
524.10	30152.24
524.31	30436.91
524.51	30627.37
524.71	31024.68
524.92	30307.89
525.12	30844.46
525.33	30789.16
525.53	31182.37
525.73	31481.38
525.94	31448.61
526.14	31209.00
526.34	31090.21
526.55	31600.16
526.75	31503.90
526.95	31893.02
527.16	31772.19
527.36	31727.13
527.56	31856.15
527.77	32261.65
527.97	32390.67
528.17	31950.36
528.38	32302.61
528.58	32402.96
528.78	32312.85
528.99	32443.92
529.19	32892.43
529.39	32732.68
529.60	32759.31
529.80	32865.80
530.00	33052.17
530.21	33228.29
530.41	33570.30
530.61	33355.27
530.82	33519.10
531.02	33424.90
531.22	33621.50
531.43	33351.17
531.63	33852.92
531.83	33986.04
532.04	34514.42
532.24	34010.62
532.44	34876.91
532.64	34227.70
532.85	34774.51
533.05	34690.54
533.25	34938.35
533.46	34610.67
533.66	35038.70
533.86	35196.39
534.07	35624.42
534.27	34975.21
534.47	35632.61
534.67	35880.41
534.88	35315.17
535.08	35374.56
535.28	36111.83
535.49	36115.93
535.69	36140.50
535.89	36265.43
536.09	36478.42
536.30	36578.77
536.50	36128.22
536.70	36853.20
536.91	36382.16
537.11	36392.40
537.31	36906.44
537.51	36537.81
537.72	37344.71
537.92	37477.83
538.12	37526.98
538.32	37176.78
538.53	37805.50
538.73	37168.58
538.93	37295.56
539.13	37723.58
539.34	37764.54
539.54	37561.79
539.74	38071.74
539.94	37897.66
540.15	37955.00
540.35	38172.09
540.55	38327.74
540.75	38000.06
540.96	37854.65
541.16	38534.58
541.36	38585.78
541.56	38284.73
541.77	38626.74
541.97	38616.50
542.17	38841.78
542.37	38835.63
542.58	38909.36
542.78	39126.44
542.98	39128.49
543.18	39220.65
543.38	39470.50
543.59	39527.84
543.79	39312.81
543.99	38995.37
544.19	39294.38
544.40	39554.47
544.60	39974.30
544.80	39691.68
545.00	39380.39
545.20	39986.59
545.41	39781.79
545.61	39914.91
545.81	40177.05
546.01	40025.50
546.21	39826.85
546.42	40134.04
546.62	39851.42
546.82	39968.16
547.02	40023.45
547.22	40304.02
547.43	39853.47
547.63	40150.43
547.83	40299.93
548.03	40318.36
548.23	40752.53
548.44	40527.25
548.64	40220.06
548.84	40945.04
549.04	40787.35
549.24	41084.30
549.45	41274.76
549.65	40514.97
549.85	40770.96
550.05	41037.20
550.25	40734.10
550.45	41268.62
550.66	41055.63
550.86	40936.85
551.06	41256.33
551.26	41084.30
551.46	41383.30
551.66	41321.87
551.87	41356.68
552.07	41360.78
552.27	41338.25
552.47	41422.22
552.67	41442.70
552.87	41381.26
553.07	41362.82
553.28	41420.17
553.48	41815.43
553.68	41817.47
553.88	41686.40
554.08	41647.49
554.28	41702.79
554.48	41434.50
554.69	41670.02
554.89	41530.76
555.09	41651.59
555.29	41792.90
555.49	41670.02
555.69	41923.97
555.89	41887.10
556.10	42118.53
556.30	41794.95
556.50	41731.46
556.70	42134.91
556.90	42032.51
557.10	42263.93
557.30	41575.81
557.50	42325.37
557.70	42286.46
557.91	41940.35
558.11	42329.47
558.31	42104.19
558.51	42239.36
558.71	42378.62
558.91	42405.24
559.11	42302.84
559.31	42476.92
559.51	42120.57
559.72	42399.10
559.92	42603.89
560.12	42618.23
560.32	42190.20
560.52	42659.19
560.72	42548.60
560.92	43128.17
561.12	42384.76
561.32	43212.14
561.52	42452.34
561.72	42757.49
561.93	42360.19
562.13	42450.30
562.33	42524.02
562.53	43378.03
562.73	42675.57
562.93	42861.94
563.13	43021.68
563.33	42906.99
563.53	43025.78
563.73	42759.54
563.93	43160.94
564.13	43312.49
564.33	42941.81
564.53	43162.99
564.74	43451.75
564.94	43119.98
565.14	43296.11
565.34	43249.00
565.54	43187.56
565.74	43185.52
565.94	43400.55
566.14	43586.92
566.34	43627.88
566.54	43541.86
566.74	43171.18
566.94	43611.49
567.14	43883.87
567.34	43345.26
567.54	43785.57
567.74	43650.41
567.94	43918.69
568.14	43754.85
568.34	43951.46
568.54	44379.48
568.74	44037.47
568.94	44086.62
569.14	44451.16
569.34	44148.06
569.54	44449.11
569.75	44248.41
569.95	44166.49
570.15	44637.53
570.35	44539.22
570.55	44428.63
570.75	44549.46
570.95	44399.96
571.15	44625.24
571.35	44647.77
571.55	45329.74
571.75	44782.93
571.95	44799.32
572.15	44803.41
572.35	44649.81
572.55	44731.73
572.75	45081.94
572.95	45415.76
573.15	45258.06
573.35	45356.36
573.55	45428.04
573.75	45258.06
573.95	45462.86
574.15	45141.33
574.35	45790.53
574.55	45401.42
574.75	45415.76
574.95	45935.94
575.15	45520.20
575.34	45688.13
575.54	45708.61
575.74	45727.05
575.94	46032.19
576.14	46073.15
576.34	46404.92
576.54	46073.15
576.74	46249.28
576.94	46503.23
577.14	46318.91
577.34	46374.20
577.54	46638.39
577.74	46558.52
577.94	46482.75
578.14	46695.74
578.34	46732.60
578.54	46206.27
578.74	46114.11
578.94	47279.41
579.14	46869.81
579.34	46759.22
579.54	47179.06
579.74	47344.94
579.94	47469.87
580.13	47318.32
580.33	47543.59
580.53	47486.25
580.73	47666.47
580.93	47576.36
581.13	47668.52
581.33	48184.61
581.53	48047.39
581.73	48028.96
581.93	48497.95
582.13	48411.93
582.33	48418.08
582.53	47928.61
582.73	48006.44
582.92	47971.62
583.12	48370.97
583.32	48393.50
583.52	48289.06
583.72	48702.74
583.92	48506.14
584.12	48682.27
584.32	49122.58
584.52	48821.53
584.72	49014.04
584.92	49030.42
585.11	49870.09
585.31	49214.74
585.51	48950.55
585.71	49169.68
585.91	49562.89
586.11	49077.52
586.31	49462.54
586.51	49587.47
586.71	49550.60
586.91	49560.84
587.10	49458.45
587.30	49517.84
587.50	49984.77
587.70	50251.01
587.90	49816.84
588.10	50183.43
588.30	50222.34
588.50	50468.09
