SpectraSuite Data File
++++++++++++++++++++++++++++++++++++
Date: Fri Jun 02 14:44:39 CEST 2017
User: INFO_000
Dark Spectrum Present: No
Reference Spectrum Present: No
Number of Sampled Component Spectra: 1
Spectrometers: USB4H00879
Integration Time (usec): 80000 (USB4H00879)
Spectra Averaged: 1 (USB4H00879)
Boxcar Smoothing: 0 (USB4H00879)
Correct for Electrical Dark: No (USB4H00879)
Strobe/Lamp Enabled: No (USB4H00879)
Correct for Detector Non-linearity: No (USB4H00879)
Correct for Stray Light: No (USB4H00879)
Number of Pixels in Processed Spectrum: 3648
>>>>>Begin Processed Spectral Data<<<<<
345.13	1269.74
345.34	1269.74
345.56	1269.74
345.78	1273.84
345.99	1193.97
346.21	1710.05
346.42	1703.91
346.64	1650.66
346.86	1767.40
347.07	1576.94
347.29	1703.91
347.50	1673.19
347.72	1699.81
347.94	1779.68
348.15	1556.46
348.37	1611.75
348.59	1763.30
348.80	1654.76
349.02	1730.53
349.23	1757.16
349.45	1804.26
349.67	1867.75
349.88	1830.88
350.10	1957.86
350.31	1771.49
350.53	1877.99
350.75	1855.46
350.96	1812.45
351.18	1834.98
351.39	1857.51
351.61	1732.58
351.82	1914.85
352.04	1902.56
352.26	1796.07
352.47	1882.08
352.69	1925.09
352.90	1726.44
353.12	1886.18
353.34	1834.98
353.55	1896.42
353.77	1884.13
353.98	1873.89
354.20	1806.31
354.41	1992.67
354.63	1933.28
354.85	1920.99
355.06	1929.19
355.28	1734.63
355.49	1882.08
355.71	1914.85
355.92	1849.32
356.14	1822.69
356.35	1869.80
356.57	1787.88
356.79	1949.67
357.00	1906.66
357.22	1982.43
357.43	1796.07
357.65	1904.61
357.86	1824.74
358.08	1857.51
358.29	1994.72
358.51	2011.11
358.72	1939.43
358.94	2002.91
359.16	1945.57
359.37	1968.10
359.59	1927.14
359.80	1978.34
360.02	2013.15
360.23	1974.24
360.45	2011.11
360.66	1959.91
360.88	1918.95
361.09	1959.91
361.31	1982.43
361.52	1972.19
361.74	2045.92
361.95	2076.64
362.17	1902.56
362.38	2117.60
362.60	2025.44
362.81	2027.49
363.03	1904.61
363.24	1974.24
363.46	2074.59
363.67	1986.53
363.89	2058.21
364.10	1982.43
364.32	1974.24
364.53	2052.06
364.75	1957.86
364.96	2043.87
365.18	2011.11
365.39	1910.75
365.61	1941.47
365.82	2056.16
366.04	2015.20
366.25	1994.72
366.47	2000.87
366.68	1968.10
366.90	1994.72
367.11	2076.64
367.33	2070.50
367.54	2060.26
367.76	1918.95
367.97	2093.02
368.19	2027.49
368.40	2146.27
368.62	1966.05
368.83	1957.86
369.05	1980.39
369.26	1900.52
369.48	1918.95
369.69	1961.95
369.91	2099.17
370.12	1966.05
370.33	2080.74
370.55	1955.81
370.76	2035.68
370.98	2158.56
371.19	2023.39
371.41	2025.44
371.62	2039.78
371.84	2023.39
372.05	2222.05
372.27	2121.70
372.48	2043.87
372.69	2078.69
372.91	2140.13
373.12	2136.03
373.34	2033.63
373.55	2086.88
373.77	2232.29
373.98	2082.78
374.20	2138.08
374.41	2222.05
374.62	2144.22
374.84	2174.94
375.05	2133.98
375.27	2150.37
375.48	2174.94
375.70	2150.37
375.91	2152.42
376.12	2299.87
376.34	2131.94
376.55	2228.19
376.77	2207.71
376.98	2154.46
377.19	2068.45
377.41	2162.66
377.62	2228.19
377.84	2263.01
378.05	2351.07
378.27	2236.38
378.48	2310.11
378.69	2357.21
378.91	2285.53
379.12	2213.85
379.34	2191.33
379.55	2203.61
379.76	2240.48
379.98	2168.80
380.19	2297.82
380.41	2256.86
380.62	2349.02
380.83	2285.53
381.05	2332.64
381.26	2473.95
381.47	2254.81
381.69	2273.25
381.90	2410.46
382.12	2295.77
382.33	2310.11
382.54	2236.38
382.76	2269.15
382.97	2299.87
383.19	2271.20
383.40	2420.70
383.61	2301.92
383.83	2236.38
384.04	2344.92
384.25	2396.12
384.47	2394.08
384.68	2349.02
384.89	2291.68
385.11	2236.38
385.32	2291.68
385.54	2326.49
385.75	2377.69
385.96	2447.32
386.18	2469.85
386.39	2486.23
386.60	2410.46
386.82	2428.89
387.03	2385.88
387.24	2404.32
387.46	2428.89
387.67	2471.90
387.88	2602.97
388.10	2457.56
388.31	2453.47
388.52	2551.77
388.74	2471.90
388.95	2449.37
389.16	2465.75
389.38	2478.04
389.59	2613.21
389.80	2629.59
390.02	2508.76
390.23	2570.20
390.44	2576.34
390.66	2627.54
390.87	2475.99
391.08	2525.15
391.30	2721.75
391.51	2592.73
391.72	2666.46
391.94	2666.46
392.15	2631.64
392.36	2547.67
392.58	2596.82
392.79	2596.82
393.00	2666.46
393.22	2699.22
393.43	2750.42
393.64	2670.55
393.85	2797.53
394.07	2701.27
394.28	2779.09
394.49	2754.52
394.71	2740.18
394.92	2881.49
395.13	2660.31
395.35	2740.18
395.56	2731.99
395.77	2822.10
395.98	2762.71
396.20	2873.30
396.41	2801.62
396.62	2856.92
396.84	2852.82
397.05	2858.96
397.26	2875.35
397.47	3047.38
397.69	2830.29
397.90	3043.28
398.11	2932.69
398.32	2838.48
398.54	2899.92
398.75	2873.30
398.96	2992.08
399.18	3035.09
399.39	2924.50
399.60	3012.56
399.81	2922.45
400.03	3035.09
400.24	3354.57
400.45	2981.84
400.66	3162.06
400.88	3035.09
401.09	3188.69
401.30	3051.47
401.51	3080.14
401.73	3039.19
401.94	3180.50
402.15	3190.74
402.36	3114.96
402.58	3280.85
402.79	3295.18
403.00	3194.83
403.21	3153.87
403.43	3268.56
403.64	3313.61
403.85	3192.78
404.06	3258.32
404.27	3149.78
404.49	3196.88
404.70	3155.92
404.91	3313.61
405.12	3282.89
405.34	3295.18
405.55	3454.92
405.76	3114.96
405.97	3325.90
406.19	3385.29
406.40	3352.52
406.61	3491.79
406.82	3407.82
407.03	3311.57
407.25	3276.75
407.46	3448.78
407.67	3467.21
407.88	3471.31
408.09	3336.14
408.31	3387.34
408.52	3463.12
408.73	3346.38
408.94	3299.28
409.15	3530.70
409.37	3538.89
409.58	3465.16
409.79	3522.51
410.00	3547.08
410.21	3485.64
410.43	3495.88
410.64	3512.27
410.85	3534.79
411.06	3504.07
411.27	3585.99
411.48	3669.96
411.70	3528.65
411.91	3573.71
412.12	3653.58
412.33	3553.23
412.54	3674.06
412.76	3696.58
412.97	3729.35
413.18	3512.27
413.39	3657.67
413.60	3766.21
413.81	3712.97
414.03	3702.73
414.24	3624.90
414.45	3762.12
414.66	3598.28
414.87	3786.69
415.08	3786.69
415.30	3862.47
415.51	3780.55
415.72	3780.55
415.93	3704.78
416.14	3770.31
416.35	3895.24
416.56	3755.97
416.78	3874.76
416.99	3876.80
417.20	3864.52
417.41	3946.44
417.62	4001.73
417.83	3977.16
418.04	3866.56
418.26	3921.86
418.47	3854.28
418.68	3944.39
418.89	4071.36
419.10	4104.13
419.31	3864.52
419.52	4071.36
419.73	4007.87
419.95	4081.60
420.16	4093.89
420.37	3856.33
420.58	4169.66
420.79	3903.43
421.00	4165.57
421.21	4018.11
421.42	3989.44
421.63	4083.65
421.85	4014.02
422.06	4255.68
422.27	4194.24
422.48	4122.56
422.69	4333.50
422.90	4261.82
423.11	4294.59
423.32	4345.79
423.53	4368.32
423.75	4265.92
423.96	4470.72
424.17	4353.98
424.38	4575.16
424.59	4382.65
424.80	4501.44
425.01	4401.08
425.22	4384.70
425.43	4607.93
425.64	4628.41
425.85	4628.41
426.06	4583.35
426.28	4503.48
426.49	4470.72
426.70	4515.77
426.91	4655.03
427.12	4689.85
427.33	4704.18
427.54	4487.10
427.75	4777.91
427.96	4816.82
428.17	4687.80
428.38	4808.63
428.59	4829.11
428.80	4788.15
429.01	4915.12
429.23	4794.29
429.44	5119.92
429.65	5035.96
429.86	4984.76
430.07	4794.29
430.28	5011.38
430.49	5087.15
430.70	5210.03
430.91	5021.62
431.12	5048.24
431.33	5189.55
431.54	5312.43
431.75	5124.02
431.96	5150.64
432.17	5242.80
432.38	5281.71
432.59	5402.54
432.80	5261.23
433.01	5398.45
433.22	5377.97
433.43	5373.87
433.64	5351.34
433.85	5310.38
434.06	5506.99
434.27	5341.10
434.49	5398.45
434.70	5578.67
434.91	5466.03
435.12	5494.70
435.33	5443.50
435.54	5625.77
435.75	5410.73
435.96	5736.36
436.17	5601.19
436.38	5717.93
436.59	5713.83
436.80	5545.90
437.01	5730.22
437.22	5838.76
437.43	5793.70
437.64	5580.71
437.85	5885.86
438.06	5939.11
438.27	5607.34
438.48	5900.20
438.69	5889.96
438.90	5932.97
439.11	5750.70
439.32	6152.10
439.53	5939.11
439.74	5951.40
439.95	5902.25
440.16	5773.22
440.37	6023.08
440.57	5865.38
440.78	6156.19
440.99	6137.76
441.20	6025.12
441.41	5941.16
441.62	6115.23
441.83	6078.37
442.04	6201.25
442.25	6102.95
442.46	6066.08
442.67	6207.39
442.88	6541.21
443.09	6098.85
443.30	6305.70
443.51	6197.15
443.72	6438.81
443.93	6260.64
444.14	6651.80
444.35	6332.32
444.56	6549.40
444.77	6334.37
444.98	6367.13
445.19	6485.92
445.40	6438.81
445.61	6373.28
445.81	6664.09
446.02	6598.56
446.23	6420.38
446.44	6391.71
446.65	6610.84
446.86	6715.29
447.07	6696.86
447.28	6700.95
447.49	6686.62
447.70	6576.03
447.91	6717.34
448.12	6561.69
448.33	6809.50
448.54	6770.58
448.74	6727.58
448.95	6852.50
449.16	6610.84
449.37	7198.61
449.58	6713.24
449.79	7047.06
450.00	6496.16
450.21	6838.17
450.42	6993.81
450.63	6875.03
450.84	7069.59
451.05	7012.24
451.25	6948.76
451.46	6834.07
451.67	7118.74
451.88	7206.80
452.09	7245.71
452.30	7108.50
452.51	7032.72
452.72	7274.38
452.93	7466.89
453.13	7116.69
453.34	7268.24
453.55	7294.86
453.76	7311.25
453.97	7479.18
454.18	7528.33
454.39	7589.77
454.60	7464.85
454.81	7303.06
455.01	7350.16
455.22	7487.37
455.43	7593.87
455.64	7849.86
455.85	7692.17
456.06	7976.84
456.27	7823.24
456.48	7761.80
456.68	7856.01
456.89	7870.34
457.10	7833.48
457.31	7800.71
457.52	7974.79
457.73	7966.60
457.94	8146.82
458.14	7929.74
458.35	8486.78
458.56	8365.95
458.77	8210.31
458.98	8259.46
459.19	8306.56
459.39	8314.75
459.60	8353.66
459.81	8335.23
460.02	8826.75
460.23	8437.63
460.44	8699.77
460.65	8605.56
460.85	8636.28
461.06	8724.35
461.27	8597.37
461.48	8845.18
461.69	9109.36
461.89	8871.80
462.10	9043.83
462.31	8943.48
462.52	8802.17
462.73	9113.46
462.94	9226.10
463.14	9232.24
463.35	9238.39
463.56	9658.22
463.77	9363.31
463.98	9082.74
464.18	9398.13
464.39	9412.46
464.60	9693.04
464.81	9949.03
465.02	9729.90
465.23	9891.69
465.43	9801.58
465.64	9924.46
465.85	9983.85
466.06	9807.72
466.27	10188.64
466.47	10243.94
466.68	10137.45
466.89	10076.01
467.10	10196.84
467.30	10014.57
467.51	10334.05
467.72	10770.27
467.93	10366.82
468.14	10497.89
468.34	10585.95
468.55	10866.52
468.76	10708.83
468.97	10686.30
469.17	10704.73
469.38	10954.58
469.59	11161.43
469.80	10692.44
470.01	11102.04
470.21	11380.56
470.42	11267.92
470.63	11388.75
470.84	11380.56
471.04	11493.20
471.25	11562.83
471.46	11468.62
471.67	11849.55
471.87	11478.86
472.08	11984.71
472.29	12150.60
472.50	11757.39
472.70	12068.68
472.91	12037.96
473.12	12052.30
473.33	12480.32
473.53	12463.94
473.74	12412.74
473.95	12554.05
474.16	12578.62
474.36	12693.31
474.57	12816.19
474.78	13100.86
474.99	12855.10
475.19	12820.28
475.40	13211.45
475.61	13246.26
475.81	13416.24
476.02	13442.87
476.23	13274.93
476.44	13467.44
476.64	13739.82
476.85	13911.85
477.06	13807.41
477.27	14090.02
477.47	14083.88
477.68	14106.41
477.89	14403.36
478.09	14118.70
478.30	14241.57
478.51	14096.17
478.71	14581.54
478.92	14446.37
479.13	14645.02
479.34	14772.00
479.54	14796.57
479.75	14958.36
479.96	14851.87
480.16	14968.60
480.37	15257.37
480.58	15157.02
480.78	15521.56
480.99	15423.25
481.20	15603.47
481.41	15490.84
481.61	15601.43
481.82	15894.29
482.03	15644.43
482.23	15765.26
482.44	16080.65
482.65	16115.47
482.85	16187.14
483.06	16459.52
483.27	16262.92
483.47	16353.03
483.68	16525.06
483.89	16674.56
484.09	16721.66
484.30	16680.71
484.51	16731.90
484.71	17153.79
484.92	17018.62
485.13	17073.92
485.33	17204.99
485.54	17012.48
485.75	17215.23
485.95	17286.90
486.16	17700.59
486.37	17530.61
486.57	17575.67
486.78	17438.45
486.98	17585.91
487.19	17829.62
487.40	18071.28
487.60	18093.80
487.81	18081.52
488.02	18474.73
488.22	18163.43
488.43	18489.06
488.64	18149.10
488.84	18450.15
489.05	18419.43
489.25	18593.51
489.46	18843.36
489.67	18747.11
489.87	18833.12
490.08	19095.26
490.29	18994.91
490.49	19412.70
490.70	19404.50
490.90	19427.03
491.11	19216.09
491.32	19728.08
491.52	19429.08
491.73	19658.45
491.94	19891.92
492.14	19599.06
492.35	19934.93
492.55	19957.46
492.76	19920.59
492.97	20201.16
493.17	20295.37
493.38	20569.80
493.58	20582.09
493.79	20676.29
494.00	20590.28
494.20	20604.61
494.41	20844.23
494.61	21059.26
494.82	21108.41
495.02	21085.89
495.23	21130.94
495.44	21266.11
495.64	21513.91
495.85	21491.38
496.05	21565.11
496.26	21542.58
496.47	21960.37
496.67	21456.57
496.88	22068.91
497.08	21571.25
497.29	21896.88
497.49	22116.01
497.70	21976.75
497.91	22206.13
498.11	22363.82
498.32	22445.74
498.52	22429.35
498.73	22716.07
498.93	22720.17
499.14	22927.01
499.34	22851.24
499.55	23119.52
499.76	23086.75
499.96	23109.28
500.17	23213.73
500.37	23518.87
500.58	23412.38
500.78	23477.91
500.99	23434.91
501.19	23754.39
501.40	23668.37
501.60	23535.26
501.81	23969.43
502.02	24194.70
502.22	23848.60
502.43	24041.11
502.63	24440.46
502.84	24651.40
503.04	24491.66
503.25	24202.89
503.45	24678.02
503.66	24692.36
503.86	24766.09
504.07	25040.51
504.27	24770.18
504.48	25058.95
504.68	24831.62
504.89	25306.75
505.09	24888.96
505.30	25157.25
505.50	25478.78
505.71	25800.31
505.91	25779.83
506.12	25630.33
506.32	25310.85
506.53	25693.82
506.73	26103.41
506.94	26062.45
507.14	25831.03
507.35	25919.09
507.55	26074.74
507.76	26101.36
507.96	25951.86
508.17	25855.61
508.37	26254.96
508.58	26553.96
508.78	26615.40
508.99	26807.91
509.19	26556.01
509.40	26910.31
509.60	26603.11
509.81	26920.55
510.01	26576.49
510.22	26947.17
510.42	27104.87
510.63	26957.41
510.83	27086.43
511.04	26740.33
511.24	26891.88
511.44	27229.79
511.65	27223.65
511.85	27235.94
512.06	27377.25
512.26	27672.15
512.47	27831.90
512.67	27604.57
512.88	27639.39
513.08	27770.46
513.29	27616.86
513.49	27881.05
513.69	27862.61
513.90	28100.18
514.10	28171.86
514.31	28124.75
514.51	28261.97
514.72	28665.42
514.92	28243.54
515.13	28229.20
515.33	28522.06
515.53	28315.22
515.74	28710.47
515.94	28597.84
516.15	28829.26
516.35	28120.66
516.56	28921.41
516.76	28661.32
516.96	28718.67
517.17	29294.14
517.37	29003.33
517.58	29161.03
517.78	29087.30
517.99	28962.37
518.19	29494.85
518.39	29130.31
518.60	29230.66
518.80	29111.88
519.01	29306.43
519.21	29591.10
519.41	29623.87
519.62	29535.81
519.82	29695.55
520.03	29443.65
520.23	29396.54
520.43	29816.38
520.64	30295.60
520.84	30332.47
521.05	30080.56
521.25	30068.28
521.45	29972.02
521.66	29982.26
521.86	30262.83
522.07	30260.79
522.27	30189.11
522.47	30072.37
522.68	30518.83
522.88	30072.37
523.08	30836.27
523.29	30500.40
523.49	30719.53
523.70	30598.70
523.90	30807.59
524.10	30852.65
524.31	30815.79
524.51	30762.54
524.71	31120.93
524.92	31147.56
525.12	31170.08
525.33	31137.32
525.53	31338.02
525.73	31211.04
525.94	31886.87
526.14	31252.00
526.34	31663.64
526.55	31544.86
526.75	31673.88
526.95	31731.23
527.16	31505.95
527.36	31604.25
527.56	31809.05
527.77	31829.53
527.97	32235.03
528.17	32181.78
528.38	32130.58
528.58	32175.64
528.78	32409.11
528.99	32443.92
529.19	32900.62
529.39	32304.66
529.60	33037.83
529.80	32638.48
530.00	32618.00
530.21	32878.09
530.41	33064.46
530.61	33111.56
530.82	32865.80
531.02	32861.71
531.22	33095.18
531.43	33216.01
531.63	33189.38
531.83	33590.78
532.04	33988.09
532.24	33269.25
532.44	33752.57
532.64	33621.50
532.85	34260.47
533.05	33687.04
533.25	34106.87
533.46	33912.31
533.66	34551.28
533.86	34278.90
534.07	34665.97
534.27	34237.94
534.47	34846.19
534.67	34391.54
534.88	34739.69
535.08	34541.04
535.28	34831.85
535.49	34983.40
535.69	35210.73
535.89	35147.24
536.09	35257.83
536.30	35569.12
536.50	35427.81
536.70	35507.68
536.91	35321.32
537.11	35462.63
537.31	35812.83
537.51	35671.52
537.72	36103.64
537.92	36181.46
538.12	36081.11
538.32	35954.14
538.53	36435.41
538.73	36199.90
538.93	36421.08
539.13	36247.00
539.34	36564.43
539.54	36410.84
539.74	36900.30
539.94	36738.51
540.15	36650.45
540.35	36871.63
540.55	37012.94
540.75	37101.00
540.96	37236.17
541.16	37144.01
541.36	37336.52
541.56	37309.89
541.77	37623.23
541.97	37731.78
542.17	37660.10
542.37	37649.86
542.58	38010.30
542.78	37830.08
542.98	37922.24
543.18	38354.36
543.38	38403.51
543.59	38411.70
543.79	38186.43
543.99	38002.11
544.19	38827.44
544.40	38630.83
544.60	39142.83
544.80	38788.53
545.00	38704.56
545.20	38946.22
545.41	38749.62
545.61	38892.97
545.81	39042.48
546.01	39538.08
546.21	39187.88
546.42	39251.37
546.62	39548.32
546.82	39120.30
547.02	39474.60
547.22	39499.17
547.43	39495.08
547.63	40175.00
547.83	39542.18
548.03	39642.53
548.23	40000.93
548.44	40164.76
548.64	40340.89
548.84	40646.04
549.04	40351.13
549.24	40742.29
549.45	41002.38
549.65	40588.69
549.85	40738.19
550.05	41012.62
550.25	40492.44
550.45	41088.40
550.66	40904.08
550.86	40922.51
551.06	41524.61
551.26	41280.91
551.46	41344.39
551.66	41282.95
551.87	41067.92
552.07	41758.08
552.27	42149.24
552.47	41923.97
552.67	41739.65
552.87	41733.51
553.07	41653.64
553.28	42280.31
553.48	42233.21
553.68	41710.98
553.88	42241.40
554.08	42194.30
554.28	42280.31
554.48	42222.97
554.69	42059.13
554.89	42605.94
555.09	42878.32
555.29	42354.04
555.49	42327.42
555.69	42722.68
555.89	42644.85
556.10	42962.29
556.30	42620.28
556.50	42868.08
556.70	42950.00
556.90	43226.48
557.10	43367.79
557.30	43079.02
557.50	43162.99
557.70	43298.16
557.91	43466.09
558.11	43654.50
558.31	43474.28
558.51	43158.89
558.71	43519.34
558.91	43449.70
559.11	43631.97
559.31	43668.84
559.51	43525.48
559.72	43519.34
559.92	44162.40
560.12	44025.18
560.32	44141.92
560.52	44307.80
560.72	44168.54
560.92	44520.79
561.12	44123.49
561.32	44252.51
561.52	44164.45
561.72	44758.36
561.93	44119.39
562.13	44252.51
562.33	44135.77
562.53	44832.08
562.73	44432.73
562.93	44285.28
563.13	44354.91
563.33	44488.03
563.53	44830.04
563.73	44660.05
563.93	44893.52
564.13	45057.36
564.33	44471.64
564.53	44602.71
564.74	44780.88
564.94	44297.56
565.14	45061.46
565.34	44571.99
565.54	45002.07
565.74	45204.81
565.94	45323.60
566.14	45167.95
566.34	45024.59
566.54	45587.78
566.74	45204.81
566.94	45172.05
567.14	45032.78
567.34	45006.16
567.54	45268.30
567.74	45022.54
567.94	44711.25
568.14	45135.18
568.34	45286.73
568.54	45698.37
568.74	45368.65
568.94	45370.70
569.14	45733.19
569.34	45733.19
569.54	45684.04
569.75	44975.44
569.95	45876.55
570.15	46228.80
570.35	45854.02
570.55	45831.49
570.75	45929.80
570.95	46187.84
571.15	46110.02
571.35	46138.69
571.55	45882.69
571.75	45862.21
571.95	46372.16
572.15	45917.51
572.35	46087.49
572.55	45837.64
572.75	46177.60
572.95	46406.97
573.15	46216.51
573.35	46163.26
573.55	46056.77
573.75	45903.17
573.95	46226.75
574.15	46507.32
574.35	46239.04
574.55	46038.34
574.75	46517.56
574.95	46085.44
575.15	46259.52
575.34	46693.69
575.54	46443.84
575.74	46796.09
575.94	46507.32
576.14	46189.89
576.34	46691.64
576.54	46730.55
576.74	46791.99
576.94	46415.16
577.14	46284.09
577.34	46800.18
577.54	46390.59
577.74	46796.09
577.94	46925.11
578.14	46857.52
578.34	47269.17
578.54	46290.24
578.74	46464.32
578.94	46994.74
579.14	46642.49
579.34	46890.29
579.54	46970.16
579.74	47140.14
579.94	46972.21
580.13	47398.19
580.33	47273.26
580.53	47383.85
580.73	47166.77
580.93	47314.22
581.13	47101.23
581.33	47150.38
581.53	47580.46
581.73	47394.09
581.93	47338.80
582.13	47117.62
582.33	47187.25
582.53	47281.45
582.73	47701.29
582.92	47488.30
583.12	47838.50
583.32	47713.58
583.52	47715.62
583.72	47768.87
583.92	47699.24
584.12	47744.30
584.32	47994.15
584.52	47645.99
584.72	47785.25
584.92	47764.78
585.11	48934.17
585.31	47785.25
585.51	47842.60
585.71	47836.45
585.91	48583.96
586.11	47875.37
586.31	48135.46
586.51	47680.81
586.71	48465.18
586.91	48231.71
587.10	48579.87
587.30	48700.70
587.50	48260.38
587.70	48653.59
587.90	48573.72
588.10	48602.39
588.30	48438.56
588.50	48622.87
