SpectraSuite Data File
++++++++++++++++++++++++++++++++++++
Date: Fri Jun 02 14:44:37 CEST 2017
User: INFO_000
Dark Spectrum Present: No
Reference Spectrum Present: No
Number of Sampled Component Spectra: 1
Spectrometers: USB4H00879
Integration Time (usec): 80000 (USB4H00879)
Spectra Averaged: 1 (USB4H00879)
Boxcar Smoothing: 0 (USB4H00879)
Correct for Electrical Dark: No (USB4H00879)
Strobe/Lamp Enabled: No (USB4H00879)
Correct for Detector Non-linearity: No (USB4H00879)
Correct for Stray Light: No (USB4H00879)
Number of Pixels in Processed Spectrum: 3648
>>>>>Begin Processed Spectral Data<<<<<
345.13	1286.12
345.34	1286.12
345.56	1286.12
345.78	1368.04
345.99	1245.16
346.21	1771.49
346.42	1744.87
346.64	1640.42
346.86	1724.39
347.07	1656.81
347.29	1691.62
347.50	1574.89
347.72	1689.57
347.94	1757.16
348.15	1533.93
348.37	1542.12
348.59	1687.53
348.80	1701.86
349.02	1738.73
349.23	1855.46
349.45	1769.44
349.67	1853.41
349.88	1843.17
350.10	1863.65
350.31	1832.93
350.53	1748.97
350.75	1920.99
350.96	1742.82
351.18	1845.22
351.39	1849.32
351.61	1847.27
351.82	1918.95
352.04	1851.36
352.26	1816.55
352.47	1888.23
352.69	1886.18
352.90	1751.01
353.12	1814.50
353.34	1785.83
353.55	1949.67
353.77	1900.52
353.98	1869.80
354.20	1728.49
354.41	1873.89
354.63	1898.47
354.85	1970.15
355.06	1832.93
355.28	1781.73
355.49	1841.12
355.71	1867.75
355.92	1931.23
356.14	1953.76
356.35	1845.22
356.57	1888.23
356.79	1976.29
357.00	1853.41
357.22	1916.90
357.43	1841.12
357.65	2074.59
357.86	1861.60
358.08	1869.80
358.29	1935.33
358.51	1925.09
358.72	1974.24
358.94	1886.18
359.16	2000.87
359.37	1964.00
359.59	1847.27
359.80	2045.92
360.02	1947.62
360.23	1929.19
360.45	2000.87
360.66	1902.56
360.88	1939.43
361.09	1834.98
361.31	1945.57
361.52	1961.95
361.74	1923.04
361.95	2082.78
362.17	1988.58
362.38	2109.41
362.60	2002.91
362.81	1888.23
363.03	1970.15
363.24	2013.15
363.46	2072.54
363.67	2021.35
363.89	2009.06
364.10	1974.24
364.32	1994.72
364.53	2007.01
364.75	1892.32
364.96	2084.83
365.18	2041.82
365.39	2015.20
365.61	1986.53
365.82	2058.21
366.04	1982.43
366.25	1929.19
366.47	2009.06
366.68	2009.06
366.90	2047.97
367.11	2125.79
367.33	2158.56
367.54	2082.78
367.76	2013.15
367.97	2125.79
368.19	2019.30
368.40	2074.59
368.62	1941.47
368.83	1929.19
369.05	2074.59
369.26	2019.30
369.48	2015.20
369.69	1974.24
369.91	2058.21
370.12	2062.30
370.33	2109.41
370.55	1988.58
370.76	2076.64
370.98	2131.94
371.19	2056.16
371.41	2035.68
371.62	1953.76
371.84	1982.43
372.05	2099.17
372.27	2078.69
372.48	2107.36
372.69	2099.17
372.91	2058.21
373.12	2162.66
373.34	2111.46
373.55	2076.64
373.77	2125.79
373.98	2121.70
374.20	2142.18
374.41	2275.29
374.62	2148.32
374.84	2207.71
375.05	2103.26
375.27	2160.61
375.48	2117.60
375.70	2224.09
375.91	2183.13
376.12	2306.01
376.34	2156.51
376.55	2203.61
376.77	2084.83
376.98	2111.46
377.19	2113.50
377.41	2099.17
377.62	2248.67
377.84	2226.14
378.05	2330.59
378.27	2174.94
378.48	2330.59
378.69	2336.73
378.91	2346.97
379.12	2248.67
379.34	2277.34
379.55	2279.39
379.76	2191.33
379.98	2138.08
380.19	2250.72
380.41	2291.68
380.62	2277.34
380.83	2310.11
381.05	2138.08
381.26	2422.75
381.47	2260.96
381.69	2314.20
381.90	2416.60
382.12	2314.20
382.33	2277.34
382.54	2396.12
382.76	2263.01
382.97	2277.34
383.19	2271.20
383.40	2426.84
383.61	2336.73
383.83	2215.90
384.04	2404.32
384.25	2412.51
384.47	2312.16
384.68	2363.36
384.89	2353.12
385.11	2375.64
385.32	2228.19
385.54	2297.82
385.75	2334.68
385.96	2484.19
386.18	2435.03
386.39	2508.76
386.60	2351.07
386.82	2492.38
387.03	2398.17
387.24	2578.39
387.46	2359.26
387.67	2473.95
387.88	2494.43
388.10	2473.95
388.31	2437.08
388.52	2541.53
388.74	2439.13
388.95	2525.15
389.16	2527.19
389.38	2519.00
389.59	2578.39
389.80	2656.22
390.02	2547.67
390.23	2629.59
390.44	2566.10
390.66	2478.04
390.87	2592.73
391.08	2574.30
391.30	2770.90
391.51	2572.25
391.72	2721.75
391.94	2740.18
392.15	2693.08
392.36	2635.74
392.58	2615.26
392.79	2658.26
393.00	2680.79
393.22	2789.33
393.43	2785.24
393.64	2736.09
393.85	2703.32
394.07	2645.98
394.28	2662.36
394.49	2742.23
394.71	2801.62
394.92	2852.82
395.13	2713.56
395.35	2795.48
395.56	2840.53
395.77	2801.62
395.98	2809.81
396.20	2820.05
396.41	2781.14
396.62	2904.02
396.84	2824.15
397.05	2789.33
397.26	2803.67
397.47	2940.88
397.69	2805.72
397.90	2977.75
398.11	2904.02
398.32	2840.53
398.54	2834.39
398.75	2924.50
398.96	2912.21
399.18	2973.65
399.39	2994.13
399.60	3047.38
399.81	3022.80
400.03	2861.01
400.24	3114.96
400.45	2969.55
400.66	3059.67
400.88	2994.13
401.09	3090.38
401.30	3100.62
401.51	3168.21
401.73	3262.41
401.94	3084.24
402.15	3176.40
402.36	3168.21
402.58	3141.58
402.79	3106.77
403.00	3194.83
403.21	3223.50
403.43	3219.41
403.64	3254.22
403.85	3043.28
404.06	3207.12
404.27	3166.16
404.49	3264.46
404.70	3256.27
404.91	3401.68
405.12	3213.26
405.34	3248.08
405.55	3491.79
405.76	3176.40
405.97	3358.67
406.19	3362.76
406.40	3272.65
406.61	3360.72
406.82	3321.81
407.03	3385.29
407.25	3237.84
407.46	3463.12
407.67	3377.10
407.88	3542.99
408.09	3477.45
408.31	3448.78
408.52	3608.52
408.73	3336.14
408.94	3350.48
409.15	3422.16
409.37	3528.65
409.58	3465.16
409.79	3532.75
410.00	3606.47
410.21	3422.16
410.43	3526.60
410.64	3422.16
410.85	3436.49
411.06	3551.18
411.27	3489.74
411.48	3645.38
411.70	3532.75
411.91	3407.82
412.12	3581.90
412.33	3547.08
412.54	3780.55
412.76	3674.06
412.97	3643.34
413.18	3583.95
413.39	3620.81
413.60	3678.15
413.81	3735.50
414.03	3633.10
414.24	3616.71
414.45	3827.65
414.66	3571.66
414.87	3776.45
415.08	3809.22
415.30	3794.89
415.51	3819.46
415.72	3674.06
415.93	3649.48
416.14	3839.94
416.35	3831.75
416.56	3846.09
416.78	3796.93
416.99	3786.69
417.20	3837.89
417.41	3921.86
417.62	3930.05
417.83	3925.96
418.04	3911.62
418.26	3932.10
418.47	3854.28
418.68	4040.64
418.89	4059.07
419.10	4067.27
419.31	3991.49
419.52	4081.60
419.73	3932.10
419.95	4130.75
420.16	3925.96
420.37	3962.82
420.58	4128.70
420.79	3973.06
421.00	4024.26
421.21	4110.27
421.42	4071.36
421.63	4227.01
421.85	4063.17
422.06	4138.94
422.27	4294.59
422.48	4265.92
422.69	4188.10
422.90	4251.58
423.11	4255.68
423.32	4298.69
423.53	4396.99
423.75	4421.56
423.96	4501.44
424.17	4304.83
424.38	4661.18
424.59	4446.14
424.80	4495.29
425.01	4390.84
425.22	4444.09
425.43	4472.76
425.64	4526.01
425.85	4603.83
426.06	4546.49
426.28	4575.16
426.49	4495.29
426.70	4497.34
426.91	4589.50
427.12	4779.96
427.33	4685.75
427.54	4759.48
427.75	4618.17
427.96	4767.67
428.17	4753.34
428.38	4820.92
428.59	4812.73
428.80	4679.61
429.01	4892.60
429.23	4849.59
429.44	5095.35
429.65	4964.28
429.86	5078.96
430.07	4800.44
430.28	4880.31
430.49	4962.23
430.70	5158.83
430.91	5181.36
431.12	5107.63
431.33	5113.78
431.54	5271.47
431.75	5111.73
431.96	5312.43
432.17	5064.63
432.38	5158.83
432.59	5337.01
432.80	5320.62
433.01	5275.57
433.22	5341.10
433.43	5392.30
433.64	5314.48
433.85	5271.47
434.06	5287.86
434.27	5267.38
434.49	5461.93
434.70	5466.03
434.91	5586.86
435.12	5588.91
435.33	5562.28
435.54	5527.47
435.75	5363.63
435.96	5732.26
436.17	5488.56
436.38	5564.33
436.59	5623.72
436.80	5566.38
437.01	5842.85
437.22	5771.18
437.43	5713.83
437.64	5541.80
437.85	5779.37
438.06	5924.77
438.27	5640.11
438.48	5836.71
438.69	5857.19
438.90	5912.49
439.11	5719.98
439.32	5975.97
439.53	5883.81
439.74	5965.73
439.95	6035.36
440.16	5982.12
440.37	5961.64
440.57	5875.62
440.78	6016.93
440.99	6059.94
441.20	5967.78
441.41	5900.20
441.62	5986.21
441.83	6109.09
442.04	6088.61
442.25	6043.56
442.46	6117.28
442.67	6258.59
442.88	6600.60
443.09	5975.97
443.30	6150.05
443.51	6283.17
443.72	6399.90
443.93	6113.19
444.14	6385.57
444.35	6203.30
444.56	6221.73
444.77	6473.63
444.98	6371.23
445.19	6481.82
445.40	6457.25
445.61	6438.81
445.81	6512.54
446.02	6559.64
446.23	6412.19
446.44	6340.51
446.65	6479.77
446.86	6496.16
447.07	6721.43
447.28	6899.61
447.49	6659.99
447.70	6483.87
447.91	6784.92
448.12	6743.96
448.33	6903.70
448.54	6807.45
448.74	6621.08
448.95	6825.88
449.16	6643.61
449.37	7040.92
449.58	6827.93
449.79	6959.00
450.00	6764.44
450.21	6711.19
450.42	7126.93
450.63	7153.55
450.84	6950.81
451.05	7128.98
451.25	6946.71
451.46	7106.45
451.67	7106.45
451.88	7409.55
452.09	7133.08
452.30	7036.82
452.51	7171.99
452.72	7389.07
452.93	7446.41
453.13	7255.95
453.34	7178.13
453.55	7389.07
453.76	7321.49
453.97	7696.27
454.18	7466.89
454.39	7370.64
454.60	7557.00
454.81	7550.86
455.01	7651.21
455.22	7356.30
455.43	7669.64
455.64	7790.47
455.85	7882.63
456.06	7966.60
456.27	7798.66
456.48	7694.22
456.68	7841.67
456.89	8056.71
457.10	8195.97
457.31	7952.26
457.52	8093.57
457.73	8210.31
457.94	8370.05
458.14	7991.17
458.35	8523.65
458.56	8300.42
458.77	8245.12
458.98	8357.76
459.19	8249.22
459.39	8503.17
459.60	8593.28
459.81	8488.83
460.02	8761.21
460.23	8644.48
460.44	8736.63
460.65	8802.17
460.85	8841.08
461.06	8808.31
461.27	8755.07
461.48	9025.40
461.69	9242.48
461.89	8810.36
462.10	9105.27
462.31	8943.48
462.52	8912.76
462.73	9158.52
462.94	9109.36
463.14	8966.01
463.35	9260.91
463.56	9781.10
463.77	9592.69
463.98	9445.23
464.18	9480.05
464.39	9580.40
464.60	9658.22
464.81	9711.47
465.02	9807.72
465.23	10071.91
465.43	9604.97
465.64	10055.53
465.85	9965.42
466.06	9795.43
466.27	10289.00
466.47	10215.27
466.68	10225.51
466.89	10149.73
467.10	10334.05
467.30	9895.78
467.51	10350.43
467.72	10516.32
467.93	10338.15
468.14	10700.64
468.34	10508.13
468.55	10610.53
468.76	10719.07
468.97	10559.33
469.17	11122.52
469.38	10807.13
469.59	11001.69
469.80	10956.63
470.01	10821.47
470.21	10970.97
470.42	11149.14
470.63	11169.62
470.84	11255.64
471.04	11333.46
471.25	11272.02
471.46	11554.64
471.67	11657.04
471.87	11689.81
472.08	11677.52
472.29	11974.47
472.50	11456.34
472.70	11784.01
472.91	12031.82
473.12	12046.15
473.33	11894.60
473.53	12236.61
473.74	12253.00
473.95	12345.16
474.16	12437.31
474.36	12441.41
474.57	12513.09
474.78	12775.23
474.99	12820.28
475.19	12783.42
475.40	12906.30
475.61	12812.09
475.81	12922.68
476.02	13182.77
476.23	13205.30
476.44	13127.48
476.64	13399.86
476.85	13817.65
477.06	13526.83
477.27	13723.44
477.47	13903.66
477.68	13915.95
477.89	13936.43
478.09	13838.12
478.30	14085.93
478.51	14020.39
478.71	14186.28
478.92	14368.55
479.13	14303.01
479.34	14550.82
479.54	14745.38
479.75	14741.28
479.96	14483.24
480.16	14831.39
480.37	14858.01
480.58	15085.34
480.78	15161.11
480.99	15300.37
481.20	15435.54
481.41	15359.77
481.61	15568.66
481.82	15599.38
482.03	15488.79
482.23	15685.39
482.44	15986.44
482.65	16137.99
482.85	16221.96
483.06	16123.66
483.27	16115.47
483.47	16078.60
483.68	16480.00
483.89	16588.55
484.09	16467.72
484.30	16561.92
484.51	16807.68
484.71	16967.42
484.92	16647.94
485.13	16977.66
485.33	16981.76
485.54	17082.11
485.75	17432.31
485.95	17473.27
486.16	17284.86
486.37	17655.54
486.57	17581.81
486.78	17731.31
486.98	17667.83
487.19	17755.89
487.40	17964.78
487.60	17846.00
487.81	18185.96
488.02	18269.93
488.22	18157.29
488.43	18532.07
488.64	18757.35
488.84	18712.29
489.05	18906.85
489.25	18652.90
489.46	19232.47
489.67	18933.47
489.87	19187.42
490.08	19316.44
490.29	19455.70
490.49	19775.19
490.70	19506.90
490.90	19576.53
491.11	19674.84
491.32	19672.79
491.52	19883.73
491.73	19844.82
491.94	19941.07
492.14	19898.06
492.35	20354.76
492.55	20668.10
492.76	20473.54
492.97	20795.07
493.17	20815.55
493.38	20932.29
493.58	20795.07
493.79	21065.41
494.00	20969.15
494.20	21038.78
494.41	21374.65
494.61	21163.71
494.82	21272.25
495.02	21421.75
495.23	21477.05
495.44	21593.78
495.64	21864.11
495.85	21769.91
496.05	22011.57
496.26	21749.43
496.47	22541.99
496.67	22294.19
496.88	22331.05
497.08	21976.75
497.29	22556.33
497.49	22597.29
497.70	22849.19
497.91	22476.46
498.11	22732.45
498.32	23244.45
498.52	22974.11
498.73	23238.30
498.93	23410.33
499.14	23074.46
499.34	23303.84
499.55	23543.45
499.76	23373.47
499.96	23447.19
500.17	23668.37
500.37	23907.99
500.58	23998.10
500.78	23682.71
500.99	23975.57
501.19	24180.37
501.40	24051.34
501.60	24086.16
501.81	24114.83
502.02	24462.99
502.22	24503.95
502.43	24399.50
502.63	24436.36
502.84	24555.15
503.04	24577.67
503.25	24637.06
503.45	24600.20
503.66	24864.39
503.86	24583.82
504.07	25314.94
504.27	24784.52
504.48	25198.21
504.68	25126.53
504.89	25251.45
505.09	25106.05
505.30	25433.72
505.50	25357.95
505.71	25368.19
505.91	25841.27
506.12	25624.18
506.32	25769.59
506.53	25591.42
506.73	25769.59
506.94	25835.13
507.14	25894.52
507.35	25917.04
507.55	26037.87
507.76	26121.84
507.96	26089.07
508.17	25933.43
508.37	26226.29
508.58	26199.66
508.78	26418.80
508.99	26324.59
509.19	26484.33
509.40	26418.80
509.60	26379.89
509.81	26693.22
510.01	26580.59
510.22	26410.60
510.42	26562.15
510.63	26900.07
510.83	26826.34
511.04	26601.07
511.24	26953.32
511.44	26627.69
511.65	26666.60
511.85	26799.72
512.06	26930.79
512.26	27121.25
512.47	27356.77
512.67	27254.37
512.88	27305.57
513.08	27014.76
513.29	27520.60
513.49	27158.11
513.69	27225.70
513.90	27448.93
514.10	27428.45
514.31	27481.69
514.51	27625.05
514.72	27270.75
514.92	27502.17
515.13	27633.24
515.33	27676.25
515.53	27731.54
515.74	27942.49
515.94	28030.55
516.15	27950.68
516.35	27932.25
516.56	27864.66
516.76	28065.36
516.96	27993.68
517.17	28347.98
517.37	28120.66
517.58	28378.70
517.78	28388.94
517.99	28491.34
518.19	28632.65
518.39	28565.07
518.60	28948.04
518.80	28395.09
519.01	28806.73
519.21	28806.73
519.41	29032.00
519.62	28724.81
519.82	29118.02
520.03	29007.43
520.23	28937.80
520.43	29197.89
520.64	29552.19
520.84	29539.90
521.05	29353.54
521.25	29756.99
521.45	29517.37
521.66	29707.83
521.86	29546.05
522.07	29634.11
522.27	29711.93
522.47	29650.49
522.68	30027.32
522.88	29867.58
523.08	29951.54
523.29	30105.14
523.49	30154.29
523.70	30436.91
523.90	30672.43
524.10	30473.78
524.31	30598.70
524.51	30469.68
524.71	30920.23
524.92	30584.37
525.12	31163.94
525.33	30856.75
525.53	30670.38
525.73	31469.09
525.94	31512.10
526.14	31389.22
526.34	31458.85
526.55	31520.29
526.75	31759.90
526.95	31753.76
527.16	31602.21
527.36	31972.89
527.56	31890.97
527.77	32044.57
527.97	31970.84
528.17	32136.73
528.38	32286.23
528.58	32114.20
528.78	32587.28
528.99	32628.24
529.19	32917.00
529.39	32155.16
529.60	33091.08
529.80	32957.96
530.00	33179.14
530.21	33238.53
530.41	33263.11
530.61	33338.88
530.82	33580.54
531.02	33592.83
531.22	33320.45
531.43	33508.86
531.63	33748.48
531.83	34153.97
532.04	34575.86
532.24	33719.81
532.44	34694.64
532.64	34274.80
532.85	34184.69
533.05	34448.88
533.25	34440.69
533.46	34457.07
533.66	34498.03
533.86	34661.87
534.07	35141.10
534.27	35139.05
534.47	35010.03
534.67	35319.27
534.88	35446.24
535.08	35329.51
535.28	35767.77
535.49	35749.34
535.69	35884.51
535.89	36144.60
536.09	35919.32
536.30	36328.92
536.50	36140.50
536.70	36320.73
536.91	36335.06
537.11	36482.52
537.31	36455.89
537.51	36703.70
537.72	36924.88
537.92	37041.61
538.12	37422.53
538.32	37078.47
538.53	37000.65
538.73	37121.48
538.93	37086.67
539.13	37574.08
539.34	37338.57
539.54	37537.22
539.74	38053.31
539.94	37578.18
540.15	37754.30
540.35	38036.92
540.55	37848.51
540.75	37987.77
540.96	38016.44
541.16	38235.58
541.36	37971.39
541.56	38563.25
541.77	38467.00
541.97	38540.72
542.17	38827.44
542.37	38884.78
542.58	38870.45
542.78	38909.36
542.98	38870.45
543.18	39032.24
543.38	39628.20
543.59	38974.89
543.79	39212.46
543.99	39214.51
544.19	39681.44
544.40	39691.68
544.60	39701.92
544.80	39630.24
545.00	39800.22
545.20	40138.14
545.41	39755.17
545.61	39771.55
545.81	40150.43
546.01	40064.41
546.21	39943.58
546.42	40256.92
546.62	40557.97
546.82	39933.34
547.02	40383.90
547.22	40562.07
547.43	40308.12
547.63	40539.54
547.83	40455.57
548.03	40400.28
548.23	40596.88
548.44	40723.86
548.64	40832.40
548.84	40502.68
549.04	40773.01
549.24	40998.29
549.45	41631.11
549.65	40754.58
549.85	41338.25
550.05	41354.63
550.25	40889.74
550.45	41692.55
550.66	41469.32
550.86	41123.21
551.06	41690.50
551.26	41385.35
551.46	41354.63
551.66	42102.14
551.87	41618.82
552.07	41768.32
552.27	41880.96
552.47	41395.59
552.67	42161.53
552.87	41559.43
553.07	42003.84
553.28	41833.86
553.48	42159.48
553.68	41962.88
553.88	42116.48
554.08	42163.58
554.28	42210.68
554.48	41629.06
554.69	42343.80
554.89	42327.42
555.09	41866.63
555.29	42302.84
555.49	42227.07
555.69	42540.41
555.89	42364.28
556.10	42524.02
556.30	42179.96
556.50	42401.14
556.70	42274.17
556.90	42589.56
557.10	42888.56
557.30	42798.45
557.50	42472.82
557.70	42581.37
557.91	42935.66
558.11	42657.14
558.31	42792.31
558.51	42915.19
558.71	42755.44
558.91	42710.39
559.11	42642.81
559.31	42816.88
559.51	42526.07
559.72	43095.41
559.92	43076.97
560.12	42806.64
560.32	43406.70
560.52	42800.50
560.72	43408.75
560.92	43140.46
561.12	43224.43
561.32	43238.76
561.52	42947.95
561.72	43867.49
561.93	42739.06
562.13	43119.98
562.33	43443.56
562.53	43306.35
562.73	43179.37
562.93	43081.07
563.13	43242.86
563.33	43451.75
563.53	43681.13
563.73	43251.05
563.93	43443.56
564.13	43906.40
564.33	43492.71
564.53	43472.23
564.74	43468.14
564.94	43255.15
565.14	43666.79
565.34	43304.30
565.54	44076.38
565.74	43617.64
565.94	43885.92
566.14	43816.29
566.34	43574.63
566.54	44291.42
566.74	43746.66
566.94	44090.72
567.14	43957.60
567.34	43656.55
567.54	43853.15
567.74	44086.62
567.94	43697.51
568.14	43990.37
568.34	44324.19
568.54	44244.32
568.74	44758.36
568.94	44250.46
569.14	44209.50
569.34	44653.91
569.54	44393.82
569.75	44412.25
569.95	44272.99
570.15	44672.34
570.35	44588.38
570.55	44340.57
570.75	44434.78
570.95	44602.71
571.15	44664.15
571.35	44942.67
571.55	44897.62
571.75	44328.28
571.95	44725.59
572.15	45086.03
572.35	45206.86
572.55	44803.41
572.75	44946.77
572.95	45124.94
573.15	45026.64
573.35	45243.73
573.55	45096.27
573.75	45167.95
573.95	45534.54
574.15	45284.68
574.35	45622.60
574.55	45808.96
574.75	45374.80
574.95	45509.96
575.15	45270.35
575.34	45579.59
575.54	45708.61
575.74	46052.67
575.94	45757.77
576.14	45671.75
576.34	46028.10
576.54	46048.58
576.74	45917.51
576.94	45843.78
577.14	45995.33
577.34	46581.05
577.54	46366.01
577.74	46658.87
577.94	46535.99
578.14	46486.84
578.34	46411.07
578.54	46099.78
578.74	46316.86
578.94	47134.00
579.14	46669.11
579.34	46634.30
579.54	46564.67
579.74	47371.57
579.94	47068.47
580.13	47377.71
580.33	47232.30
580.53	47500.59
580.73	47289.65
580.93	47543.59
581.13	47367.47
581.33	47543.59
581.53	47336.75
581.73	47578.41
581.93	47596.84
582.13	47641.90
582.33	48020.77
582.53	47482.16
582.73	48024.87
582.92	47842.60
583.12	48618.78
583.32	48160.03
583.52	48151.84
583.72	48241.95
583.92	48211.23
584.12	48364.83
584.32	48682.27
584.52	48401.69
584.72	48956.69
584.92	48534.81
585.11	49181.97
585.31	48887.06
585.51	49085.72
585.71	48743.70
585.91	49124.63
586.11	48993.56
586.31	48686.36
586.51	49120.53
586.71	49399.05
586.91	49624.33
587.10	49511.69
587.30	49773.83
587.50	49276.18
587.70	49554.70
587.90	49599.76
588.10	49747.21
588.30	49487.12
588.50	50248.96
