SpectraSuite Data File
++++++++++++++++++++++++++++++++++++
Date: Fri Jun 02 14:44:39 CEST 2017
User: INFO_000
Dark Spectrum Present: No
Reference Spectrum Present: No
Number of Sampled Component Spectra: 1
Spectrometers: USB4H00879
Integration Time (usec): 80000 (USB4H00879)
Spectra Averaged: 1 (USB4H00879)
Boxcar Smoothing: 0 (USB4H00879)
Correct for Electrical Dark: No (USB4H00879)
Strobe/Lamp Enabled: No (USB4H00879)
Correct for Detector Non-linearity: No (USB4H00879)
Correct for Stray Light: No (USB4H00879)
Number of Pixels in Processed Spectrum: 3648
>>>>>Begin Processed Spectral Data<<<<<
345.13	1251.31
345.34	1251.31
345.56	1251.31
345.78	1191.92
345.99	1265.64
346.21	1689.57
346.42	1685.48
346.64	1658.85
346.86	1830.88
347.07	1683.43
347.29	1773.54
347.50	1591.27
347.72	1691.62
347.94	1771.49
348.15	1552.36
348.37	1566.70
348.59	1658.85
348.80	1708.01
349.02	1773.54
349.23	1839.08
349.45	1851.36
349.67	1822.69
349.88	1832.93
350.10	1959.91
350.31	1828.84
350.53	1787.88
350.75	2004.96
350.96	1810.40
351.18	1855.46
351.39	1794.02
351.61	1841.12
351.82	1890.28
352.04	1937.38
352.26	1828.84
352.47	1904.61
352.69	1953.76
352.90	1761.25
353.12	1753.06
353.34	1810.40
353.55	1908.71
353.77	1812.45
353.98	1886.18
354.20	1896.42
354.41	1855.46
354.63	1920.99
354.85	1945.57
355.06	1914.85
355.28	1826.79
355.49	1945.57
355.71	1830.88
355.92	1814.50
356.14	1974.24
356.35	1912.80
356.57	1853.41
356.79	1894.37
357.00	1865.70
357.22	1955.81
357.43	1927.14
357.65	1951.71
357.86	1949.67
358.08	1918.95
358.29	1968.10
358.51	1992.67
358.72	1908.71
358.94	2000.87
359.16	1916.90
359.37	1898.47
359.59	2019.30
359.80	1978.34
360.02	1955.81
360.23	1898.47
360.45	2027.49
360.66	1892.32
360.88	1828.84
361.09	1855.46
361.31	2019.30
361.52	1929.19
361.74	1984.48
361.95	1998.82
362.17	1912.80
362.38	2076.64
362.60	1945.57
362.81	1976.29
363.03	1933.28
363.24	1986.53
363.46	2025.44
363.67	2068.45
363.89	2000.87
364.10	2041.82
364.32	2019.30
364.53	1982.43
364.75	1910.75
364.96	1978.34
365.18	2007.01
365.39	2033.63
365.61	1939.43
365.82	2080.74
366.04	2000.87
366.25	1949.67
366.47	2031.58
366.68	2064.35
366.90	2033.63
367.11	2017.25
367.33	2060.26
367.54	2115.55
367.76	2002.91
367.97	2062.30
368.19	2045.92
368.40	2056.16
368.62	2035.68
368.83	1970.15
369.05	2033.63
369.26	1986.53
369.48	1974.24
369.69	1961.95
369.91	2039.78
370.12	2031.58
370.33	2133.98
370.55	1988.58
370.76	2076.64
370.98	2060.26
371.19	2156.51
371.41	2007.01
371.62	1978.34
371.84	1966.05
372.05	2119.65
372.27	1966.05
372.48	1970.15
372.69	2080.74
372.91	2185.18
373.12	2164.70
373.34	2105.31
373.55	2154.46
373.77	2121.70
373.98	2133.98
374.20	2156.51
374.41	2271.20
374.62	2281.44
374.84	2082.78
375.05	2138.08
375.27	2181.09
375.48	2109.41
375.70	2265.05
375.91	2213.85
376.12	2334.68
376.34	2205.66
376.55	2146.27
376.77	2269.15
376.98	2158.56
377.19	2158.56
377.41	2140.13
377.62	2242.53
377.84	2283.49
378.05	2349.02
378.27	2176.99
378.48	2271.20
378.69	2346.97
378.91	2346.97
379.12	2254.81
379.34	2246.62
379.55	2359.26
379.76	2240.48
379.98	2224.09
380.19	2295.77
380.41	2306.01
380.62	2250.72
380.83	2289.63
381.05	2191.33
381.26	2328.54
381.47	2340.83
381.69	2240.48
381.90	2437.08
382.12	2289.63
382.33	2240.48
382.54	2189.28
382.76	2346.97
382.97	2310.11
383.19	2191.33
383.40	2351.07
383.61	2387.93
383.83	2283.49
384.04	2445.27
384.25	2344.92
384.47	2371.55
384.68	2361.31
384.89	2332.64
385.11	2263.01
385.32	2306.01
385.54	2367.45
385.75	2344.92
385.96	2453.47
386.18	2359.26
386.39	2308.06
386.60	2359.26
386.82	2387.93
387.03	2414.56
387.24	2541.53
387.46	2447.32
387.67	2465.75
387.88	2453.47
388.10	2469.85
388.31	2490.33
388.52	2600.92
388.74	2529.24
388.95	2478.04
389.16	2394.08
389.38	2478.04
389.59	2547.67
389.80	2627.54
390.02	2475.99
390.23	2621.40
390.44	2590.68
390.66	2568.15
390.87	2475.99
391.08	2641.88
391.30	2654.17
391.51	2693.08
391.72	2674.65
391.94	2674.65
392.15	2623.45
392.36	2729.94
392.58	2482.14
392.79	2684.89
393.00	2695.13
393.22	2709.46
393.43	2760.66
393.64	2703.32
393.85	2760.66
394.07	2717.65
394.28	2680.79
394.49	2738.13
394.71	2869.20
394.92	2908.12
395.13	2684.89
395.35	2682.84
395.56	2740.18
395.77	2815.96
395.98	2756.57
396.20	2873.30
396.41	2867.16
396.62	2998.23
396.84	2830.29
397.05	2803.67
397.26	2828.24
397.47	2936.79
397.69	2801.62
397.90	2983.89
398.11	2926.55
398.32	2908.12
398.54	2920.40
398.75	2887.64
398.96	2930.64
399.18	3114.96
399.39	3043.28
399.60	3114.96
399.81	2977.75
400.03	2981.84
400.24	3350.48
400.45	3063.76
400.66	3164.11
400.88	2998.23
401.09	3266.51
401.30	3039.19
401.51	3188.69
401.73	3112.91
401.94	3168.21
402.15	3059.67
402.36	3141.58
402.58	3153.87
402.79	3248.08
403.00	3121.10
403.21	3223.50
403.43	3237.84
403.64	3229.65
403.85	3028.95
404.06	3286.99
404.27	3166.16
404.49	3094.48
404.70	3190.74
404.91	3227.60
405.12	3311.57
405.34	3203.02
405.55	3385.29
405.76	3119.06
405.97	3268.56
406.19	3452.88
406.40	3270.61
406.61	3430.35
406.82	3381.20
407.03	3407.82
407.25	3303.37
407.46	3450.83
407.67	3542.99
407.88	3477.45
408.09	3295.18
408.31	3420.11
408.52	3467.21
408.73	3442.64
408.94	3315.66
409.15	3516.36
409.37	3489.74
409.58	3567.56
409.79	3354.57
410.00	3581.90
410.21	3366.86
410.43	3487.69
410.64	3508.17
410.85	3555.27
411.06	3540.94
411.27	3649.48
411.48	3645.38
411.70	3567.56
411.91	3594.19
412.12	3751.88
412.33	3610.57
412.54	3551.18
412.76	3667.91
412.97	3688.39
413.18	3516.36
413.39	3629.00
413.60	3657.67
413.81	3694.54
414.03	3561.42
414.24	3616.71
414.45	3817.41
414.66	3657.67
414.87	3669.96
415.08	3755.97
415.30	3774.41
415.51	3624.90
415.72	3614.66
415.93	3643.34
416.14	3874.76
416.35	3768.26
416.56	3794.89
416.78	3803.08
416.99	3784.65
417.20	3780.55
417.41	3934.15
417.62	3825.61
417.83	3911.62
418.04	3897.28
418.26	3909.57
418.47	3897.28
418.68	4044.74
418.89	4040.64
419.10	4040.64
419.31	3977.16
419.52	4018.11
419.73	3999.68
419.95	4079.55
420.16	3966.92
420.37	4065.22
420.58	3958.72
420.79	4038.59
421.00	4046.79
421.21	4100.03
421.42	4091.84
421.63	4140.99
421.85	4159.42
422.06	4251.58
422.27	4065.22
422.48	4251.58
422.69	4247.49
422.90	4315.07
423.11	4278.21
423.32	4298.69
423.53	4411.32
423.75	4253.63
423.96	4464.57
424.17	4435.90
424.38	4526.01
424.59	4421.56
424.80	4499.39
425.01	4427.71
425.22	4489.15
425.43	4448.19
425.64	4663.22
425.85	4642.75
426.06	4489.15
426.28	4736.95
426.49	4573.11
426.70	4675.51
426.91	4775.86
427.12	4698.04
427.33	4728.76
427.54	4591.55
427.75	4796.34
427.96	4849.59
428.17	4747.19
428.38	4804.53
428.59	4882.36
428.80	4837.30
429.01	4958.13
429.23	4833.21
429.44	5015.48
429.65	5171.12
429.86	5083.06
430.07	4915.12
430.28	4958.13
430.49	5056.43
430.70	5146.55
430.91	5263.28
431.12	5031.86
431.33	5191.60
431.54	5316.53
431.75	5298.10
431.96	5255.09
432.17	5265.33
432.38	5337.01
432.59	5541.80
432.80	5330.86
433.01	5420.97
433.22	5359.53
433.43	5355.44
433.64	5468.08
433.85	5201.84
434.06	5468.08
434.27	5361.58
434.49	5613.48
434.70	5470.12
434.91	5566.38
435.12	5719.98
435.33	5506.99
435.54	5533.61
435.75	5318.57
435.96	5412.78
436.17	5433.26
436.38	5525.42
436.59	5599.15
436.80	5705.64
437.01	5752.74
437.22	5932.97
437.43	5705.64
437.64	5597.10
437.85	5719.98
438.06	5826.47
438.27	5601.19
438.48	5787.56
438.69	5930.92
438.90	5881.77
439.11	5851.05
439.32	5836.71
439.53	5840.81
439.74	5982.12
439.95	5955.49
440.16	5988.26
440.37	5777.32
440.57	5902.25
440.78	6049.70
440.99	5932.97
441.20	6027.17
441.41	5840.81
441.62	6080.42
441.83	5844.90
442.04	6264.74
442.25	6041.51
442.46	6014.88
442.67	6244.26
442.88	6500.25
443.09	6080.42
443.30	6234.02
443.51	6274.98
443.72	6422.43
443.93	6180.77
444.14	6430.62
444.35	6250.40
444.56	6336.42
444.77	6207.39
444.98	6451.10
445.19	6373.28
445.40	6401.95
445.61	6231.97
445.81	6576.03
446.02	6461.34
446.23	6315.94
446.44	6272.93
446.65	6393.76
446.86	6496.16
447.07	6561.69
447.28	6545.31
447.49	6678.43
447.70	6490.01
447.91	6602.65
448.12	6678.43
448.33	6659.99
448.54	6768.54
448.74	6569.88
448.95	6711.19
449.16	6725.53
449.37	7020.44
449.58	6662.04
449.79	6813.59
450.00	6752.15
450.21	6907.80
450.42	7219.09
450.63	6909.85
450.84	6977.43
451.05	6975.38
451.25	6774.68
451.46	7020.44
451.67	7085.97
451.88	7200.66
452.09	7176.08
452.30	6952.85
452.51	7096.21
452.72	7446.41
452.93	7501.71
453.13	7081.88
453.34	7339.92
453.55	7178.13
453.76	7389.07
453.97	7626.64
454.18	7317.39
454.39	7493.52
454.60	7200.66
454.81	7501.71
455.01	7589.77
455.22	7354.26
455.43	7470.99
455.64	7774.09
455.85	7806.86
456.06	7997.32
456.27	7845.77
456.48	7851.91
456.68	7903.11
456.89	8062.85
457.10	8007.56
457.31	8009.61
457.52	8034.18
457.73	7919.50
457.94	8462.21
458.14	8046.47
458.35	8638.33
458.56	8411.01
458.77	8195.97
458.98	8312.71
459.19	8308.61
459.39	8425.34
459.60	8499.07
459.81	8515.45
460.02	8710.01
460.23	8554.37
460.44	8800.12
460.65	8718.20
460.85	8896.38
461.06	8761.21
461.27	8484.73
461.48	8945.53
461.69	9138.04
461.89	8859.51
462.10	9170.80
462.31	8855.42
462.52	8908.66
462.73	9117.56
462.94	9328.50
463.14	9152.37
463.35	9275.25
463.56	9641.84
463.77	9514.86
463.98	9359.22
464.18	9455.47
464.39	9725.80
464.60	9678.70
464.81	9639.79
465.02	9604.97
465.23	10018.66
465.43	9815.91
465.64	10024.81
465.85	10078.05
466.06	9850.73
466.27	10133.35
466.47	10295.14
466.68	10245.99
466.89	10256.23
467.10	10323.81
467.30	10284.90
467.51	10676.06
467.72	10585.95
467.93	10182.50
468.14	10553.18
468.34	10930.01
468.55	10649.44
468.76	10637.15
468.97	10813.28
469.17	10915.67
469.38	11147.09
469.59	11216.72
469.80	10848.09
470.01	11110.23
470.21	11177.81
470.42	11411.28
470.63	11423.57
470.84	11249.49
471.04	11485.01
471.25	11587.41
471.46	11550.54
471.67	11919.18
471.87	11689.81
472.08	11882.31
472.29	12085.06
472.50	11745.10
472.70	11941.71
472.91	11966.28
473.12	12021.58
473.33	12113.74
473.53	12349.25
473.74	12162.89
473.95	12343.11
474.16	12435.27
474.36	12308.29
474.57	12525.38
474.78	12822.33
474.99	12644.16
475.19	12660.54
475.40	12996.41
475.61	13014.84
475.81	12871.48
476.02	13467.44
476.23	13332.28
476.44	13297.46
476.64	13520.69
476.85	13657.90
477.06	13645.62
477.27	13969.19
477.47	13737.77
477.68	13797.17
477.89	13995.82
478.09	14096.17
478.30	14130.98
478.51	14294.82
478.71	14362.40
478.92	14370.60
479.13	14429.99
479.34	14653.22
479.54	14610.21
479.75	14716.70
479.96	14866.21
480.16	14716.70
480.37	14835.49
480.58	14923.55
480.78	15032.09
480.99	15294.23
481.20	15273.75
481.41	15302.42
481.61	15335.19
481.82	15724.30
482.03	15503.12
482.23	15243.03
482.44	15826.70
482.65	15945.48
482.85	16230.15
483.06	15929.10
483.27	16029.45
483.47	16207.62
483.68	16105.23
483.89	16410.37
484.09	16297.74
484.30	16602.88
484.51	16682.75
484.71	16670.47
484.92	16936.70
485.13	16836.35
485.33	17092.35
485.54	16807.68
485.75	17215.23
485.95	17428.21
486.16	17149.69
486.37	17420.02
486.57	17401.59
486.78	17612.53
486.98	17512.18
487.19	17647.35
487.40	17927.92
487.60	17985.26
487.81	18110.19
488.02	17956.59
488.22	18024.17
488.43	18161.39
488.64	18206.44
488.84	18452.20
489.05	18552.55
489.25	18347.75
489.46	18716.39
489.67	18697.95
489.87	18943.71
490.08	18833.12
490.29	18931.42
490.49	19230.43
490.70	19080.92
490.90	19424.98
491.11	19443.42
491.32	19420.89
491.52	19506.90
491.73	19533.53
491.94	19865.30
492.14	19877.58
492.35	20199.12
492.55	20207.31
492.76	20221.64
492.97	20608.71
493.17	20399.82
493.38	20651.72
493.58	20913.86
493.79	20719.30
494.00	20678.34
494.20	20944.58
494.41	20909.76
494.61	21372.60
494.82	21204.67
495.02	21221.05
495.23	21321.40
495.44	21405.37
495.64	21829.30
495.85	21518.01
496.05	21739.19
496.26	21679.80
496.47	21974.70
496.67	21972.66
496.88	22202.03
497.08	21726.90
497.29	22388.39
497.49	22259.37
497.70	22544.04
497.91	22546.09
498.11	22714.02
498.32	22453.93
498.52	22867.62
498.73	23076.51
498.93	22836.90
499.14	23299.74
499.34	23193.25
499.55	23256.73
499.76	23500.44
499.96	23506.59
500.17	23588.50
500.37	23445.15
500.58	23994.00
500.78	23981.71
500.99	23860.88
501.19	24172.18
501.40	23801.49
501.60	24028.82
501.81	24225.42
502.02	24516.23
502.22	24041.11
502.43	24520.33
502.63	24661.64
502.84	24708.74
503.04	24882.82
503.25	24872.58
503.45	24931.97
503.66	25243.26
503.86	24794.76
504.07	25683.58
504.27	25046.66
504.48	25349.76
504.68	25165.44
504.89	25298.56
505.09	25732.73
505.30	25642.62
505.50	25515.64
505.71	25728.63
505.91	25943.67
506.12	25747.06
506.32	25734.78
506.53	25894.52
506.73	25896.56
506.94	26347.12
507.14	25923.19
507.35	26320.49
507.55	26248.82
507.76	26015.35
507.96	25996.92
508.17	26654.31
508.37	26490.48
508.58	26543.72
508.78	26584.68
508.99	26861.16
509.19	26891.88
509.40	26926.69
509.60	26965.60
509.81	27104.87
510.01	26623.59
510.22	26732.14
510.42	27141.73
510.63	26963.56
510.83	27293.28
511.04	27213.41
511.24	27786.84
511.44	27496.03
511.65	27315.81
511.85	27332.19
512.06	27428.45
512.26	27469.40
512.47	27397.73
512.67	27819.61
512.88	27637.34
513.08	27676.25
513.29	27819.61
513.49	27852.38
513.69	27770.46
513.90	27960.92
514.10	27997.78
514.31	28212.82
514.51	27930.20
514.72	27809.37
514.92	27922.01
515.13	27879.00
515.33	28128.85
515.53	28057.17
515.74	28053.08
515.94	28337.74
516.15	28450.38
516.35	28644.94
516.56	28534.35
516.76	28567.12
516.96	28603.98
517.17	28642.89
517.37	28681.80
517.58	28427.85
517.78	28759.63
517.99	28589.64
518.19	28833.35
518.39	28995.14
518.60	29165.12
518.80	29062.72
519.01	28778.06
519.21	29210.18
519.41	29402.69
519.62	29316.67
519.82	29343.30
520.03	29230.66
520.23	29183.55
520.43	29120.07
520.64	29609.53
520.84	29713.98
521.05	29630.01
521.25	29498.94
521.45	29644.35
521.66	29654.59
521.86	29699.64
522.07	29775.42
522.27	29675.07
522.47	29777.47
522.68	30205.49
522.88	29754.94
523.08	30549.55
523.29	30301.75
523.49	30322.23
523.70	30215.73
523.90	30473.78
524.10	30297.65
524.31	30606.89
524.51	30246.45
524.71	31006.25
524.92	30803.50
525.12	30688.81
525.33	30815.79
525.53	30789.16
525.73	31096.36
525.94	31151.65
526.14	30924.33
526.34	31014.44
526.55	30848.55
526.75	30991.91
526.95	31436.32
527.16	31284.77
527.36	31411.74
527.56	31573.53
527.77	31671.84
527.97	31764.00
528.17	31897.11
528.38	31843.87
528.58	32052.76
528.78	31925.78
528.99	31985.18
529.19	32495.12
529.39	31870.49
529.60	32554.51
529.80	32185.88
530.00	32216.60
530.21	32699.92
530.41	32747.02
530.61	32603.66
530.82	32939.53
531.02	32892.43
531.22	32882.19
531.43	32925.19
531.63	33179.14
531.83	33183.24
532.04	33834.49
532.24	33349.12
532.44	33641.98
532.64	33887.74
532.85	33467.91
533.05	33973.75
533.25	33922.55
533.46	34018.81
533.66	34221.56
533.86	33953.27
534.07	34334.20
534.27	34254.33
534.47	34848.24
534.67	34498.03
534.88	34606.58
535.08	34473.46
535.28	34938.35
535.49	34997.74
535.69	35317.22
535.89	35263.97
536.09	35268.07
536.30	35710.43
536.50	35317.22
536.70	35442.15
536.91	35653.09
537.11	35833.31
537.31	35970.52
537.51	36097.50
537.72	36285.91
537.92	36363.73
538.12	36298.20
538.32	36376.02
538.53	36517.33
538.73	36371.92
538.93	36765.14
539.13	36535.76
539.34	36920.78
539.54	36865.49
539.74	37121.48
539.94	37078.47
540.15	36945.36
540.35	37578.18
540.55	37279.18
540.75	37311.94
540.96	37801.41
541.16	37713.34
541.36	37612.99
541.56	38108.60
541.77	38065.60
541.97	38032.83
542.17	37840.32
542.37	38589.88
542.58	38268.34
542.78	38235.58
542.98	38553.01
543.18	38340.02
543.38	38528.44
543.59	38739.38
543.79	38583.73
543.99	38542.77
544.19	38919.60
544.40	38948.27
544.60	39421.35
544.80	38800.82
545.00	39282.09
545.20	39636.39
545.41	39269.80
545.61	39626.15
545.81	39486.89
546.01	39812.51
546.21	39949.73
546.42	40023.45
546.62	40185.24
546.82	39890.34
547.02	40162.72
547.22	40396.18
547.43	40039.84
547.63	40275.35
547.83	40574.36
548.03	40449.43
548.23	40799.63
548.44	40525.21
548.64	40854.93
548.84	40738.19
549.04	40852.88
549.24	41344.39
549.45	41493.89
549.65	40836.50
549.85	41248.14
550.05	41188.75
550.25	41438.60
550.45	41741.70
550.66	41414.02
550.86	41440.65
551.06	41688.45
551.26	41866.63
551.46	42317.18
551.66	42022.27
551.87	41579.91
552.07	42179.96
552.27	42122.62
552.47	42188.16
552.67	42407.29
552.87	42829.17
553.07	42306.94
553.28	42366.33
553.48	42614.13
553.68	42284.41
553.88	42823.03
554.08	42812.79
554.28	42382.71
554.48	42835.31
554.69	43066.73
554.89	42874.23
555.09	42775.92
555.29	42900.85
555.49	43058.54
555.69	42937.71
555.89	43128.17
556.10	43197.80
556.30	43521.38
556.50	43095.41
556.70	43124.08
556.90	43410.79
557.10	43644.26
557.30	43425.13
557.50	43853.15
557.70	43578.73
557.91	43744.61
558.11	43685.22
558.31	43902.31
558.51	43468.14
558.71	43476.33
558.91	44160.35
559.11	43799.91
559.31	43701.61
559.51	43707.75
559.72	43818.34
559.92	43627.88
560.12	43994.46
560.32	44119.39
560.52	43785.57
560.72	44051.81
560.92	44004.70
561.12	44135.77
561.32	44490.07
561.52	44275.04
561.72	44813.65
561.93	44049.76
562.13	44258.65
562.33	44252.51
562.53	44756.31
562.73	44561.75
562.93	44197.21
563.13	44438.87
563.33	43980.13
563.53	44660.05
563.73	44483.93
563.93	44348.76
564.13	44840.28
564.33	44301.66
564.53	44557.66
564.74	44938.58
564.94	44617.05
565.14	44821.84
565.34	44698.97
565.54	44832.08
565.74	44680.53
565.94	45626.70
566.14	44625.24
566.34	44662.10
566.54	45342.03
566.74	44862.80
566.94	45045.07
567.14	45307.21
567.34	44967.25
567.54	44946.77
567.74	44952.91
567.94	45094.22
568.14	45434.19
568.34	45040.98
568.54	44735.83
568.74	45126.99
568.94	45135.18
569.14	45217.10
569.34	45180.24
569.54	45290.83
569.75	44604.76
569.95	44938.58
570.15	45503.82
570.35	45210.96
570.55	45395.28
570.75	45258.06
570.95	45366.60
571.15	45933.89
571.35	45487.43
571.55	45786.44
571.75	45413.71
571.95	45702.47
572.15	44975.44
572.35	45772.10
572.55	45583.69
572.75	45243.73
572.95	45823.30
573.15	45671.75
573.35	45729.09
573.55	45237.58
573.75	45653.32
573.95	46021.95
574.15	45550.92
574.35	45843.78
574.55	45847.88
574.75	45284.68
574.95	46040.39
575.15	45688.13
575.34	45573.45
575.54	45765.96
575.74	45741.38
575.94	45573.45
576.14	45780.29
576.34	46136.64
576.54	45980.99
576.74	46241.09
576.94	45880.64
577.14	46220.61
577.34	46314.81
577.54	45944.13
577.74	46300.48
577.94	46036.29
578.14	45929.80
578.34	46185.79
578.54	46179.65
578.74	45956.42
578.94	46366.01
579.14	46107.97
579.34	46175.55
579.54	46341.44
579.74	46755.13
579.94	46622.01
580.13	46550.33
580.33	46675.26
580.53	46554.43
580.73	46779.70
580.93	46812.47
581.13	46452.03
581.33	46808.37
581.53	46992.69
581.73	46705.98
581.93	47441.20
582.13	46794.04
582.33	46726.46
582.53	46857.52
582.73	47187.25
582.92	47248.69
583.12	47123.76
583.32	46964.02
583.52	46980.40
583.72	47310.13
583.92	46964.02
584.12	47232.30
584.32	48008.48
584.52	47404.33
584.72	47287.60
584.92	47719.72
585.11	47883.56
585.31	47539.50
585.51	48043.30
585.71	47920.42
585.91	48280.86
586.11	47785.25
586.31	47318.32
586.51	47766.82
586.71	47809.83
586.91	48600.35
587.10	48094.50
587.30	48076.07
587.50	48264.48
587.70	47973.67
587.90	48258.34
588.10	48090.40
588.30	48461.08
588.50	48710.94
