SpectraSuite Data File
++++++++++++++++++++++++++++++++++++
Date: Fri Jun 02 14:44:38 CEST 2017
User: INFO_000
Dark Spectrum Present: No
Reference Spectrum Present: No
Number of Sampled Component Spectra: 1
Spectrometers: USB4H00879
Integration Time (usec): 80000 (USB4H00879)
Spectra Averaged: 1 (USB4H00879)
Boxcar Smoothing: 0 (USB4H00879)
Correct for Electrical Dark: No (USB4H00879)
Strobe/Lamp Enabled: No (USB4H00879)
Correct for Detector Non-linearity: No (USB4H00879)
Correct for Stray Light: No (USB4H00879)
Number of Pixels in Processed Spectrum: 3648
>>>>>Begin Processed Spectral Data<<<<<
345.13	1296.36
345.34	1296.36
345.56	1296.36
345.78	1296.36
345.99	1343.47
346.21	1701.86
346.42	1712.10
346.64	1593.32
346.86	1800.16
347.07	1636.33
347.29	1667.05
347.50	1585.13
347.72	1619.94
347.94	1662.95
348.15	1585.13
348.37	1593.32
348.59	1699.81
348.80	1646.57
349.02	1814.50
349.23	1869.80
349.45	1839.08
349.67	1892.32
349.88	1779.68
350.10	1976.29
350.31	1916.90
350.53	1886.18
350.75	1896.42
350.96	1822.69
351.18	1843.17
351.39	1900.52
351.61	1830.88
351.82	1910.75
352.04	1953.76
352.26	1812.45
352.47	1900.52
352.69	1935.33
352.90	1785.83
353.12	1830.88
353.34	1820.64
353.55	1992.67
353.77	1896.42
353.98	1855.46
354.20	1740.77
354.41	1834.98
354.63	1847.27
354.85	2062.30
355.06	1906.66
355.28	1781.73
355.49	1892.32
355.71	1892.32
355.92	1890.28
356.14	1847.27
356.35	1890.28
356.57	1859.56
356.79	1892.32
357.00	1931.23
357.22	1976.29
357.43	1906.66
357.65	1904.61
357.86	1898.47
358.08	1896.42
358.29	1931.23
358.51	1986.53
358.72	1945.57
358.94	1929.19
359.16	1996.77
359.37	1933.28
359.59	1966.05
359.80	2035.68
360.02	1904.61
360.23	1961.95
360.45	2050.02
360.66	1972.19
360.88	1892.32
361.09	1888.23
361.31	2070.50
361.52	1968.10
361.74	2109.41
361.95	2097.12
362.17	1906.66
362.38	2078.69
362.60	2021.35
362.81	2009.06
363.03	1998.82
363.24	1947.62
363.46	2101.22
363.67	2095.07
363.89	1978.34
364.10	1943.52
364.32	1966.05
364.53	2084.83
364.75	1961.95
364.96	2066.40
365.18	2043.87
365.39	2004.96
365.61	1974.24
365.82	2090.98
366.04	2007.01
366.25	1976.29
366.47	2045.92
366.68	2095.07
366.90	2047.97
367.11	2086.88
367.33	2019.30
367.54	2129.89
367.76	2035.68
367.97	2115.55
368.19	2050.02
368.40	2088.93
368.62	2023.39
368.83	1961.95
369.05	2072.54
369.26	1986.53
369.48	2070.50
369.69	2009.06
369.91	2115.55
370.12	2002.91
370.33	2090.98
370.55	2011.11
370.76	2033.63
370.98	2080.74
371.19	2015.20
371.41	2052.06
371.62	2056.16
371.84	1945.57
372.05	2203.61
372.27	2043.87
372.48	2103.26
372.69	2066.40
372.91	2179.04
373.12	2074.59
373.34	2131.94
373.55	2176.99
373.77	2199.52
373.98	2131.94
374.20	2193.37
374.41	2129.89
374.62	2144.22
374.84	2236.38
375.05	2207.71
375.27	2220.00
375.48	2148.32
375.70	2170.85
375.91	2230.24
376.12	2287.58
376.34	2074.59
376.55	2222.05
376.77	2289.63
376.98	2043.87
377.19	2215.90
377.41	2164.70
377.62	2240.48
377.84	2256.86
378.05	2269.15
378.27	2240.48
378.48	2355.16
378.69	2435.03
378.91	2297.82
379.12	2287.58
379.34	2205.66
379.55	2260.96
379.76	2254.81
379.98	2166.75
380.19	2226.14
380.41	2334.68
380.62	2258.91
380.83	2181.09
381.05	2236.38
381.26	2293.72
381.47	2291.68
381.69	2244.57
381.90	2424.80
382.12	2269.15
382.33	2213.85
382.54	2301.92
382.76	2363.36
382.97	2310.11
383.19	2242.53
383.40	2344.92
383.61	2297.82
383.83	2277.34
384.04	2375.64
384.25	2351.07
384.47	2400.22
384.68	2402.27
384.89	2191.33
385.11	2332.64
385.32	2314.20
385.54	2410.46
385.75	2349.02
385.96	2451.42
386.18	2406.36
386.39	2406.36
386.60	2418.65
386.82	2389.98
387.03	2387.93
387.24	2502.62
387.46	2469.85
387.67	2478.04
387.88	2521.05
388.10	2535.39
388.31	2547.67
388.52	2566.10
388.74	2508.76
388.95	2441.18
389.16	2500.57
389.38	2537.43
389.59	2592.73
389.80	2559.96
390.02	2580.44
390.23	2600.92
390.44	2623.45
390.66	2533.34
390.87	2516.95
391.08	2652.12
391.30	2785.24
391.51	2670.55
391.72	2629.59
391.94	2658.26
392.15	2572.25
392.36	2629.59
392.58	2514.91
392.79	2641.88
393.00	2666.46
393.22	2731.99
393.43	2811.86
393.64	2811.86
393.85	2820.05
394.07	2705.37
394.28	2779.09
394.49	2822.10
394.71	2756.57
394.92	2803.67
395.13	2721.75
395.35	2770.90
395.56	2772.95
395.77	2711.51
395.98	2850.77
396.20	2801.62
396.41	2865.11
396.62	2924.50
396.84	2803.67
397.05	2805.72
397.26	2895.83
397.47	2940.88
397.69	2904.02
397.90	3012.56
398.11	2940.88
398.32	2901.97
398.54	2940.88
398.75	2879.44
398.96	2969.55
399.18	3000.27
399.39	3047.38
399.60	3088.34
399.81	2928.60
400.03	2899.92
400.24	3309.52
400.45	2967.51
400.66	3051.47
400.88	3024.85
401.09	3149.78
401.30	2951.12
401.51	3213.26
401.73	3086.29
401.94	3065.81
402.15	3233.74
402.36	2924.50
402.58	3035.09
402.79	3168.21
403.00	3217.36
403.21	3280.85
403.43	3219.41
403.64	3174.35
403.85	3055.57
404.06	3282.89
404.27	3172.30
404.49	3280.85
404.70	3209.17
404.91	3235.79
405.12	3278.80
405.34	3221.45
405.55	3442.64
405.76	3160.02
405.97	3254.22
406.19	3434.44
406.40	3205.07
406.61	3330.00
406.82	3338.19
407.03	3190.74
407.25	3276.75
407.46	3370.96
407.67	3405.77
407.88	3481.55
408.09	3272.65
408.31	3291.09
408.52	3370.96
408.73	3459.02
408.94	3348.43
409.15	3487.69
409.37	3487.69
409.58	3495.88
409.79	3489.74
410.00	3536.84
410.21	3397.58
410.43	3481.55
410.64	3381.20
410.85	3504.07
411.06	3618.76
411.27	3514.31
411.48	3702.73
411.70	3583.95
411.91	3616.71
412.12	3708.87
412.33	3669.96
412.54	3585.99
412.76	3676.10
412.97	3721.16
413.18	3499.98
413.39	3688.39
413.60	3729.35
413.81	3657.67
414.03	3655.62
414.24	3692.49
414.45	3846.09
414.66	3614.66
414.87	3698.63
415.08	3821.51
415.30	3749.83
415.51	3747.78
415.72	3839.94
415.93	3717.06
416.14	3706.82
416.35	3872.71
416.56	3925.96
416.78	3729.35
416.99	3860.42
417.20	3837.89
417.41	3938.24
417.62	3944.39
417.83	3917.76
418.04	3907.52
418.26	3856.33
418.47	3919.81
418.68	4063.17
418.89	4149.18
419.10	4046.79
419.31	4026.31
419.52	4179.90
419.73	4020.16
419.95	4030.40
420.16	4036.55
420.37	4140.99
420.58	4083.65
420.79	3997.64
421.00	4165.57
421.21	4222.91
421.42	4091.84
421.63	4048.83
421.85	4124.61
422.06	4241.34
422.27	4296.64
422.48	4249.54
422.69	4306.88
422.90	4278.21
423.11	4349.89
423.32	4233.15
423.53	4509.63
423.75	4374.46
423.96	4585.40
424.17	4429.76
424.38	4648.89
424.59	4507.58
424.80	4556.73
425.01	4579.26
425.22	4476.86
425.43	4472.76
425.64	4743.10
425.85	4667.32
426.06	4669.37
426.28	4569.02
426.49	4491.20
426.70	4616.12
426.91	4691.90
427.12	4769.72
427.33	4685.75
427.54	4638.65
427.75	4720.57
427.96	4878.26
428.17	4634.55
428.38	4741.05
428.59	4810.68
428.80	4855.73
429.01	4851.64
429.23	4825.01
429.44	5044.15
429.65	5001.14
429.86	5007.28
430.07	4806.58
430.28	4900.79
430.49	4937.65
430.70	5183.41
430.91	5156.79
431.12	4972.47
431.33	5126.07
431.54	5201.84
431.75	5087.15
431.96	5134.26
432.17	5185.46
432.38	5078.96
432.59	5404.59
432.80	5347.25
433.01	5281.71
433.22	5257.14
433.43	5255.09
433.64	5203.89
433.85	5265.33
434.06	5220.27
434.27	5423.02
434.49	5398.45
434.70	5648.30
434.91	5474.22
435.12	5472.17
435.33	5457.84
435.54	5361.58
435.75	5314.48
435.96	5631.91
436.17	5455.79
436.38	5664.68
436.59	5636.01
436.80	5617.58
437.01	5818.28
437.22	5818.28
437.43	5568.43
437.64	5406.64
437.85	5654.44
438.06	5779.37
438.27	5672.87
438.48	5629.87
438.69	5812.14
438.90	5803.94
439.11	5676.97
439.32	5853.09
439.53	5900.20
439.74	5898.15
439.95	5957.54
440.16	6002.60
440.37	5816.23
440.57	5930.92
440.78	6113.19
440.99	6041.51
441.20	6018.98
441.41	6076.32
441.62	6070.18
441.83	5867.43
442.04	6188.96
442.25	6195.11
442.46	6098.85
442.67	6197.15
442.88	6553.50
443.09	6191.01
443.30	6102.95
443.51	6422.43
443.72	6569.88
443.93	6041.51
444.14	6518.68
444.35	6322.08
444.56	6436.77
444.77	6397.85
444.98	6305.70
445.19	6502.30
445.40	6420.38
445.61	6334.37
445.81	6506.40
446.02	6610.84
446.23	6590.36
446.44	6350.75
446.65	6758.30
446.86	6621.08
447.07	6741.91
447.28	6809.50
447.49	6768.54
447.70	6743.96
447.91	6672.28
448.12	6789.02
448.33	6817.69
448.54	7036.82
448.74	6698.91
448.95	6893.46
449.16	6700.95
449.37	7149.46
449.58	6832.02
449.79	7237.52
450.00	6748.06
450.21	7065.49
450.42	7247.76
450.63	7155.60
450.84	7042.96
451.05	7184.27
451.25	7153.55
451.46	6954.90
451.67	7278.48
451.88	7421.84
452.09	7407.50
452.30	7102.36
452.51	7167.89
452.72	7507.85
452.93	7622.54
453.13	7237.52
453.34	7202.71
453.55	7493.52
453.76	7479.18
453.97	7829.38
454.18	7405.46
454.39	7620.49
454.60	7524.24
454.81	7573.39
455.01	7628.68
455.22	7436.17
455.43	7659.40
455.64	7767.95
455.85	8009.61
456.06	8081.28
456.27	7966.60
456.48	7825.29
456.68	8015.75
456.89	7948.17
457.10	8058.76
457.31	8247.17
457.52	8001.41
457.73	8169.35
457.94	8294.27
458.14	8030.09
458.35	8433.54
458.56	8292.23
458.77	8114.05
458.98	8257.41
459.19	8314.75
459.39	8402.82
459.60	8431.49
459.81	8378.24
460.02	8599.42
460.23	8662.91
460.44	8791.93
460.65	8667.00
460.85	8720.25
461.06	8781.69
461.27	8564.61
461.48	9232.24
461.69	9129.84
461.89	8662.91
462.10	8851.32
462.31	8814.46
462.52	8703.87
462.73	9006.97
462.94	9365.36
463.14	9293.68
463.35	9015.16
463.56	9545.58
463.77	9496.43
463.98	9127.80
464.18	9383.79
464.39	9531.25
464.60	9443.18
464.81	9541.49
465.02	9504.62
465.23	9838.44
465.43	9662.32
465.64	9875.31
465.85	9834.35
466.06	9750.38
466.27	10225.51
466.47	10078.05
466.68	10030.95
466.89	10039.14
467.10	9969.51
467.30	9934.70
467.51	10192.74
467.72	10524.51
467.93	10143.59
468.14	10465.12
468.34	10760.03
468.55	10678.11
468.76	10499.94
468.97	10420.06
469.17	10682.20
469.38	10760.03
469.59	10964.82
469.80	10833.75
470.01	10874.71
470.21	10784.60
470.42	11161.43
470.63	11071.32
470.84	10966.87
471.04	11364.18
471.25	11229.01
471.46	11329.36
471.67	11562.83
471.87	11454.29
472.08	11618.13
472.29	11730.76
472.50	11519.82
472.70	11718.48
472.91	12005.19
473.12	12068.68
473.33	12046.15
473.53	12349.25
473.74	12193.61
473.95	12316.48
474.16	12672.83
474.36	12437.31
474.57	12695.36
474.78	12748.61
474.99	12607.30
475.19	12640.06
475.40	12803.90
475.61	13111.10
475.81	13092.66
476.02	13418.29
476.23	13027.13
476.44	13377.33
476.64	13659.95
476.85	13528.88
477.06	13590.32
477.27	13764.40
477.47	13864.75
477.68	13840.17
477.89	14087.98
478.09	14112.55
478.30	14153.51
478.51	14237.48
478.71	14427.94
478.92	14532.39
479.13	14747.42
479.34	14913.31
479.54	14989.08
479.75	14878.49
479.96	14888.73
480.16	15120.15
480.37	15087.39
480.58	15116.06
480.78	15656.72
480.99	15320.85
481.20	15691.54
481.41	15628.05
481.61	15826.70
481.82	16070.41
482.03	15789.84
482.23	16031.50
482.44	16148.23
482.65	16594.69
482.85	16420.61
483.06	16178.95
483.27	16602.88
483.47	16443.14
483.68	16547.59
483.89	16885.50
484.09	16617.22
484.30	16889.60
484.51	17313.53
484.71	17215.23
484.92	17200.89
485.13	17540.85
485.33	17567.48
485.54	17379.06
485.75	17481.46
485.95	17770.22
486.16	17563.38
486.37	18030.32
486.57	17850.10
486.78	17839.86
486.98	18102.00
487.19	18218.73
487.40	18593.51
487.60	18364.14
487.81	18818.78
488.02	18378.47
488.22	18794.21
488.43	18716.39
488.64	18786.02
488.84	18878.18
489.05	19164.89
489.25	18927.33
489.46	19435.22
489.67	19379.93
489.87	19625.68
490.08	19320.54
490.29	19332.82
490.49	19660.50
490.70	19863.25
490.90	19906.26
491.11	19832.53
491.32	19832.53
491.52	20123.34
491.73	19988.18
491.94	20342.47
492.14	20149.96
492.35	20573.89
492.55	20532.93
492.76	20451.02
492.97	20616.90
493.17	20618.95
493.38	20874.95
493.58	20799.17
493.79	21122.75
494.00	21075.65
494.20	21300.92
494.41	20991.68
494.61	21298.88
494.82	21241.53
495.02	21268.16
495.23	21425.85
495.44	21335.74
495.64	21792.44
495.85	21728.95
496.05	21753.52
496.26	21767.86
496.47	22417.07
496.67	21866.16
496.88	22085.30
497.08	21751.48
497.29	22224.56
497.49	22128.30
497.70	22312.62
497.91	22419.11
498.11	22355.63
498.32	22787.75
498.52	22748.84
498.73	23070.37
498.93	22677.16
499.14	22773.41
499.34	22855.33
499.55	23115.42
499.76	22998.69
499.96	23066.27
500.17	22949.54
500.37	23299.74
500.58	23420.57
500.78	23164.57
500.99	23363.23
501.19	23727.77
501.40	23522.97
501.60	23367.32
501.81	23748.25
502.02	23920.28
502.22	23565.98
502.43	23813.78
502.63	24188.56
502.84	24008.34
503.04	24120.98
503.25	24196.75
503.45	24383.12
503.66	24440.46
503.86	24311.44
504.07	24497.80
504.27	24419.98
504.48	24790.66
504.68	24731.27
504.89	24952.45
505.09	24688.26
505.30	24733.32
505.50	24641.16
505.71	25083.52
505.91	24950.40
506.12	25167.49
506.32	25056.90
506.53	25161.34
506.73	25376.38
506.94	25323.13
507.14	25220.74
507.35	25173.63
507.55	25482.88
507.76	25804.41
507.96	25585.27
508.17	25638.52
508.37	25636.47
508.58	25876.09
508.78	25740.92
508.99	25917.04
509.19	25951.86
509.40	26361.45
509.60	26242.67
509.81	26332.78
510.01	26142.32
510.22	26142.32
510.42	26506.86
510.63	26443.37
510.83	26648.17
511.04	26639.98
511.24	26672.74
511.44	26760.81
511.65	26848.87
511.85	26566.25
512.06	26738.28
512.26	26949.22
512.47	26865.25
512.67	27090.53
512.88	27201.12
513.08	27104.87
513.29	27653.72
513.49	27618.91
513.69	27487.84
513.90	27264.61
514.10	27606.62
514.31	27690.59
514.51	27444.83
514.72	27608.67
514.92	27569.76
515.13	27999.83
515.33	28214.87
515.53	27864.66
515.74	28116.56
515.94	27817.56
516.15	28067.41
516.35	27999.83
516.56	28442.19
516.76	28364.37
516.96	28642.89
517.17	28671.56
517.37	28694.09
517.58	28724.81
517.78	28866.12
517.99	28411.47
518.19	29081.16
518.39	29374.02
518.60	29171.27
518.80	29388.35
519.01	29034.05
519.21	29515.33
519.41	29331.01
519.62	29365.82
519.82	29408.83
520.03	29642.30
520.23	29652.54
520.43	29656.64
520.64	29935.16
520.84	29851.19
521.05	29441.60
521.25	29969.97
521.45	29883.96
521.66	30049.85
521.86	30320.18
522.07	30031.41
522.27	30162.48
522.47	30426.67
522.68	30535.21
522.88	30590.51
523.08	31002.15
523.29	30797.35
523.49	30914.09
523.70	30750.25
523.90	31143.46
524.10	31071.78
524.31	31739.42
524.51	31200.80
524.71	31407.65
524.92	31600.16
525.12	31702.56
525.33	31798.81
525.53	31811.10
525.73	31741.47
525.94	32187.92
526.14	31870.49
526.34	31874.59
526.55	32257.56
526.75	32413.20
526.95	32724.49
527.16	32181.78
527.36	32204.31
527.56	32869.90
527.77	32775.69
527.97	32497.17
528.17	32822.80
528.38	32849.42
528.58	32830.99
528.78	33164.81
528.99	33048.07
529.19	32910.86
529.39	32919.05
529.60	33607.17
529.80	33756.67
530.00	33259.01
530.21	33711.61
530.41	33785.34
530.61	33666.56
530.82	34002.43
531.02	33803.77
531.22	34074.10
531.43	34338.29
531.63	33920.51
531.83	34362.87
532.04	34733.55
532.24	34233.85
532.44	34678.25
532.64	35016.17
532.85	34786.80
533.05	34731.50
533.25	34950.63
533.46	34870.76
533.66	35208.68
533.86	35012.07
534.07	35354.08
534.27	35304.93
534.47	35452.39
534.67	35573.22
534.88	35184.10
535.08	35655.14
535.28	35452.39
535.49	35753.44
535.69	36296.15
535.89	35997.15
536.09	35849.69
536.30	36636.11
536.50	36011.48
536.70	36296.15
536.91	36453.84
537.11	36367.83
537.31	36564.43
537.51	36562.39
537.72	36834.77
537.92	36974.03
538.12	37096.91
538.32	36744.66
538.53	36814.29
538.73	36859.34
538.93	36720.08
539.13	36912.59
539.34	36941.26
539.54	37014.99
539.74	37561.79
539.94	37258.70
540.15	37080.52
540.35	37780.93
540.55	37469.64
540.75	37402.05
540.96	37602.75
541.16	37393.86
541.36	37780.93
541.56	37909.95
541.77	37776.83
541.97	37426.63
542.17	38284.73
542.37	38096.31
542.58	38194.62
542.78	37768.64
542.98	38170.04
543.18	38331.83
543.38	38548.92
543.59	38383.03
543.79	38329.78
543.99	38417.85
544.19	38577.59
544.40	38546.87
544.60	38815.15
544.80	38712.75
545.00	38856.11
545.20	39187.88
545.41	38761.90
545.61	39275.94
545.81	39224.75
546.01	39122.35
546.21	39400.87
546.42	39239.08
546.62	39226.79
546.82	39157.16
547.02	39517.60
547.22	39556.52
547.43	39372.20
547.63	39400.87
547.83	40031.65
548.03	39493.03
548.23	39880.10
548.44	39835.04
548.64	39757.22
548.84	39683.49
549.04	39927.20
549.24	40492.44
549.45	40484.25
549.65	40068.51
549.85	40342.94
550.05	40539.54
550.25	40213.91
550.45	40652.18
550.66	40615.32
550.86	40002.97
551.06	40652.18
551.26	40459.67
551.46	40748.43
551.66	40586.64
551.87	40359.32
552.07	40920.46
552.27	40834.45
552.47	40801.68
552.67	41487.75
552.87	41051.53
553.07	40637.84
553.28	41364.87
553.48	41227.66
553.68	41112.97
553.88	41512.33
554.08	41665.92
554.28	41467.27
554.48	41280.91
554.69	41596.29
554.89	41547.14
555.09	41569.67
555.29	41293.19
555.49	41915.78
555.69	41596.29
555.89	41860.48
556.10	41946.50
556.30	41885.06
556.50	42188.16
556.70	42069.37
556.90	42237.31
557.10	42038.65
557.30	41545.09
557.50	42454.39
557.70	42276.22
557.91	42710.39
558.11	42294.65
558.31	42880.37
558.51	41975.17
558.71	42425.72
558.91	42696.05
559.11	42505.59
559.31	42323.32
559.51	42302.84
559.72	42440.06
559.92	42978.67
560.12	42968.43
560.32	43218.28
560.52	43199.85
560.72	43208.04
560.92	43171.18
561.12	43388.27
561.32	43537.77
561.52	43062.64
561.72	43386.22
561.93	43119.98
562.13	43275.63
562.33	43320.68
562.53	43861.35
562.73	43404.65
562.93	43562.34
563.13	43597.16
563.33	43650.41
563.53	44053.86
563.73	43758.95
563.93	44277.08
564.13	44060.00
564.33	43937.12
564.53	43902.31
564.74	44467.55
564.94	43984.22
565.14	44012.90
565.34	43994.46
565.54	44475.74
565.74	44666.20
565.94	44819.80
566.14	44389.72
566.34	44473.69
566.54	44871.00
566.74	44639.57
566.94	44631.38
567.14	44942.67
567.34	44701.01
567.54	45055.31
567.74	45182.29
567.94	44856.66
568.14	45053.26
568.34	45225.29
568.54	44907.86
568.74	45331.79
568.94	45307.21
569.14	45636.94
569.34	45456.71
569.54	45780.29
569.75	45278.54
569.95	45253.97
570.15	45868.36
570.35	45784.39
570.55	45466.95
570.75	45839.68
570.95	45317.45
571.15	46069.06
571.35	46007.62
571.55	45884.74
571.75	46036.29
571.95	46388.54
572.15	45884.74
572.35	46150.98
572.55	46056.77
572.75	46251.33
572.95	46171.46
573.15	46654.78
573.35	46312.77
573.55	46202.18
573.75	46208.32
573.95	46630.20
574.15	46327.10
574.35	46673.21
574.55	46673.21
574.75	46753.08
574.95	47033.65
575.15	46253.37
575.34	46722.36
575.54	46884.15
575.74	47160.62
575.94	46826.81
576.14	47101.23
576.34	47369.52
576.54	47097.14
576.74	46605.62
576.94	47332.65
577.14	47510.83
577.34	47582.51
577.54	47086.90
577.74	47416.62
577.94	47650.09
578.14	47555.88
578.34	47863.08
578.54	47172.91
578.74	47551.79
578.94	47627.56
579.14	47447.34
579.34	47392.04
579.54	48022.82
579.74	48309.53
579.94	47670.57
580.13	48469.28
580.33	48295.20
580.53	48203.04
580.73	48571.67
580.93	48209.18
581.13	48293.15
581.33	48649.50
581.53	48264.48
581.73	48563.48
581.93	48889.11
582.13	48772.38
582.33	48622.87
582.53	48583.96
582.73	48293.15
582.92	48600.35
583.12	48995.60
583.32	48794.90
583.52	48706.84
583.72	48764.18
583.92	48481.56
584.12	49118.48
584.32	49503.50
584.52	49374.48
584.72	49104.15
584.92	49261.84
585.11	49397.01
585.31	49138.96
585.51	49360.14
585.71	48839.96
585.91	49614.09
586.11	49255.70
586.31	49173.78
586.51	49397.01
586.71	48989.46
586.91	49595.66
587.10	49843.46
587.30	49599.76
587.50	49388.81
587.70	49784.07
587.90	49632.52
588.10	49878.28
588.30	49677.58
588.50	49896.71
