SpectraSuite Data File
++++++++++++++++++++++++++++++++++++
Date: Tue Jun 13 11:58:31 CEST 2017
User: INFO_000
Dark Spectrum Present: No
Reference Spectrum Present: No
Number of Sampled Component Spectra: 1
Spectrometers: USB4H00879
Integration Time (usec): 30000 (USB4H00879)
Spectra Averaged: 1 (USB4H00879)
Boxcar Smoothing: 0 (USB4H00879)
Correct for Electrical Dark: No (USB4H00879)
Strobe/Lamp Enabled: No (USB4H00879)
Correct for Detector Non-linearity: No (USB4H00879)
Correct for Stray Light: No (USB4H00879)
Number of Pixels in Processed Spectrum: 3648
>>>>>Begin Processed Spectral Data<<<<<
345.13	1351.66
345.34	1351.66
345.56	1351.66
345.78	1277.93
345.99	1335.28
346.21	1531.88
346.42	1501.16
346.64	1525.74
346.86	1552.36
347.07	1507.30
347.29	1460.20
347.50	1435.63
347.72	1527.78
347.94	1552.36
348.15	1486.83
348.37	1427.43
348.59	1505.26
348.80	1466.35
349.02	1554.41
349.23	1511.40
349.45	1562.60
349.67	1648.61
349.88	1595.37
350.10	1665.00
350.31	1634.28
350.53	1611.75
350.75	1660.90
350.96	1554.41
351.18	1611.75
351.39	1611.75
351.61	1675.24
351.82	1613.80
352.04	1572.84
352.26	1619.94
352.47	1591.27
352.69	1607.66
352.90	1546.22
353.12	1662.95
353.34	1619.94
353.55	1699.81
353.77	1785.83
353.98	1617.90
354.20	1593.32
354.41	1634.28
354.63	1660.90
354.85	1748.97
355.06	1609.70
355.28	1609.70
355.49	1716.20
355.71	1669.09
355.92	1613.80
356.14	1652.71
356.35	1621.99
356.57	1654.76
356.79	1679.33
357.00	1642.47
357.22	1677.29
357.43	1650.66
357.65	1624.04
357.86	1617.90
358.08	1644.52
358.29	1654.76
358.51	1665.00
358.72	1712.10
358.94	1644.52
359.16	1621.99
359.37	1652.71
359.59	1617.90
359.80	1757.16
360.02	1648.61
360.23	1626.09
360.45	1669.09
360.66	1687.53
360.88	1675.24
361.09	1705.96
361.31	1638.38
361.52	1751.01
361.74	1697.77
361.95	1728.49
362.17	1638.38
362.38	1708.01
362.60	1662.95
362.81	1644.52
363.03	1673.19
363.24	1703.91
363.46	1769.44
363.67	1755.11
363.89	1669.09
364.10	1695.72
364.32	1687.53
364.53	1720.29
364.75	1593.32
364.96	1710.05
365.18	1718.25
365.39	1773.54
365.61	1689.57
365.82	1744.87
366.04	1771.49
366.25	1687.53
366.47	1804.26
366.68	1697.77
366.90	1748.97
367.11	1791.97
367.33	1736.68
367.54	1832.93
367.76	1783.78
367.97	1796.07
368.19	1810.40
368.40	1781.73
368.62	1849.32
368.83	1697.77
369.05	1732.58
369.26	1656.81
369.48	1748.97
369.69	1767.40
369.91	1775.59
370.12	1755.11
370.33	1785.83
370.55	1742.82
370.76	1794.02
370.98	1826.79
371.19	1763.30
371.41	1748.97
371.62	1798.12
371.84	1794.02
372.05	1882.08
372.27	1773.54
372.48	1683.43
372.69	1763.30
372.91	1812.45
373.12	1839.08
373.34	1820.64
373.55	1753.06
373.77	1826.79
373.98	1789.92
374.20	1837.03
374.41	1785.83
374.62	1753.06
374.84	1839.08
375.05	1796.07
375.27	1867.75
375.48	1822.69
375.70	1869.80
375.91	1865.70
376.12	1894.37
376.34	1877.99
376.55	1877.99
376.77	1882.08
376.98	1830.88
377.19	1945.57
377.41	1873.89
377.62	1859.56
377.84	1867.75
378.05	1896.42
378.27	1916.90
378.48	2023.39
378.69	1947.62
378.91	1939.43
379.12	1851.36
379.34	1910.75
379.55	1970.15
379.76	1941.47
379.98	1920.99
380.19	1925.09
380.41	1972.19
380.62	1957.86
380.83	1986.53
381.05	1925.09
381.26	2078.69
381.47	1882.08
381.69	1947.62
381.90	2078.69
382.12	1955.81
382.33	1929.19
382.54	1988.58
382.76	1953.76
382.97	1925.09
383.19	2019.30
383.40	1992.67
383.61	1904.61
383.83	2037.73
384.04	1972.19
384.25	2021.35
384.47	2047.97
384.68	2017.25
384.89	2093.02
385.11	2021.35
385.32	2058.21
385.54	1945.57
385.75	2017.25
385.96	2074.59
386.18	2088.93
386.39	2140.13
386.60	2015.20
386.82	2064.35
387.03	2052.06
387.24	2148.32
387.46	2154.46
387.67	2103.26
387.88	2185.18
388.10	2099.17
388.31	2193.37
388.52	2185.18
388.74	2197.47
388.95	2162.66
389.16	2133.98
389.38	2197.47
389.59	2176.99
389.80	2211.81
390.02	2187.23
390.23	2306.01
390.44	2179.04
390.66	2181.09
390.87	2176.99
391.08	2172.89
391.30	2340.83
391.51	2232.29
391.72	2279.39
391.94	2295.77
392.15	2187.23
392.36	2244.57
392.58	2250.72
392.79	2328.54
393.00	2244.57
393.22	2375.64
393.43	2254.81
393.64	2312.16
393.85	2375.64
394.07	2330.59
394.28	2275.29
394.49	2283.49
394.71	2295.77
394.92	2332.64
395.13	2324.44
395.35	2381.79
395.56	2301.92
395.77	2377.69
395.98	2326.49
396.20	2369.50
396.41	2408.41
396.62	2459.61
396.84	2349.02
397.05	2430.94
397.26	2473.95
397.47	2492.38
397.69	2404.32
397.90	2574.30
398.11	2471.90
398.32	2535.39
398.54	2463.71
398.75	2484.19
398.96	2488.28
399.18	2670.55
399.39	2537.43
399.60	2553.82
399.81	2656.22
400.03	2527.19
400.24	2693.08
400.45	2605.02
400.66	2664.41
400.88	2559.96
401.09	2578.39
401.30	2639.83
401.51	2639.83
401.73	2588.63
401.94	2711.51
402.15	2701.27
402.36	2721.75
402.58	2676.70
402.79	2682.84
403.00	2695.13
403.21	2709.46
403.43	2703.32
403.64	2809.81
403.85	2715.61
404.06	2731.99
404.27	2705.37
404.49	2688.98
404.70	2783.19
404.91	2729.94
405.12	2791.38
405.34	2809.81
405.55	2793.43
405.76	2787.29
405.97	2852.82
406.19	2918.36
406.40	2807.77
406.61	2865.11
406.82	2916.31
407.03	2850.77
407.25	2873.30
407.46	2924.50
407.67	2838.48
407.88	2906.07
408.09	2883.54
408.31	2865.11
408.52	2865.11
408.73	2873.30
408.94	2904.02
409.15	2994.13
409.37	2961.36
409.58	2938.84
409.79	3008.47
410.00	3094.48
410.21	2963.41
410.43	2959.31
410.64	2981.84
410.85	3108.82
411.06	3012.56
411.27	3049.43
411.48	3106.77
411.70	3057.62
411.91	3110.86
412.12	3041.23
412.33	3131.34
412.54	3104.72
412.76	3170.26
412.97	3221.45
413.18	3174.35
413.39	3096.53
413.60	3223.50
413.81	3114.96
414.03	3178.45
414.24	3164.11
414.45	3276.75
414.66	3127.25
414.87	3377.10
415.08	3182.54
415.30	3315.66
415.51	3262.41
415.72	3348.43
415.93	3260.37
416.14	3256.27
416.35	3297.23
416.56	3350.48
416.78	3334.09
416.99	3272.65
417.20	3342.28
417.41	3401.68
417.62	3348.43
417.83	3477.45
418.04	3395.53
418.26	3327.95
418.47	3454.92
418.68	3469.26
418.89	3456.97
419.10	3411.92
419.31	3514.31
419.52	3540.94
419.73	3510.22
419.95	3610.57
420.16	3495.88
420.37	3477.45
420.58	3569.61
420.79	3551.18
421.00	3561.42
421.21	3573.71
421.42	3495.88
421.63	3577.80
421.85	3641.29
422.06	3694.54
422.27	3522.51
422.48	3610.57
422.69	3717.06
422.90	3839.94
423.11	3737.54
423.32	3743.69
423.53	3801.03
423.75	3897.28
423.96	3831.75
424.17	3887.04
424.38	3971.01
424.59	3856.33
424.80	3889.09
425.01	3891.14
425.22	3841.99
425.43	4028.35
425.64	4091.84
425.85	4026.31
426.06	3962.82
426.28	3936.20
426.49	3975.11
426.70	4065.22
426.91	3995.59
427.12	4147.14
427.33	4018.11
427.54	4014.02
427.75	4212.67
427.96	4259.78
428.17	4124.61
428.38	4177.86
428.59	4143.04
428.80	4237.25
429.01	4341.69
429.23	4210.62
429.44	4487.10
429.65	4272.06
429.86	4337.60
430.07	4126.66
430.28	4323.26
430.49	4376.51
430.70	4335.55
430.91	4409.28
431.12	4353.98
431.33	4530.11
431.54	4495.29
431.75	4566.97
431.96	4431.80
432.17	4571.07
432.38	4493.24
432.59	4693.94
432.80	4569.02
433.01	4595.64
433.22	4704.18
433.43	4620.22
433.64	4661.18
433.85	4663.22
434.06	4870.07
434.27	4695.99
434.49	4788.15
434.70	4857.78
434.91	4904.89
435.12	4829.11
435.33	4892.60
435.54	4865.97
435.75	4736.95
435.96	4655.03
436.17	4806.58
436.38	4831.16
436.59	4939.70
436.80	4951.99
437.01	5046.20
437.22	5140.40
437.43	4986.80
437.64	4835.25
437.85	4958.13
438.06	5124.02
438.27	4943.80
438.48	5048.24
438.69	5101.49
438.90	5214.13
439.11	5097.39
439.32	5195.70
439.53	5113.78
439.74	5162.93
439.95	5287.86
440.16	5244.85
440.37	5220.27
440.57	5171.12
440.78	5285.81
440.99	5371.82
441.20	5203.89
441.41	5261.23
441.62	5343.15
441.83	5222.32
442.04	5285.81
442.25	5449.64
442.46	5418.93
442.67	5590.95
442.88	5767.08
443.09	5425.07
443.30	5480.36
443.51	5488.56
443.72	5578.67
443.93	5523.37
444.14	5695.40
444.35	5371.82
444.56	5744.55
444.77	5762.98
444.98	5552.04
445.19	5724.07
445.40	5679.02
445.61	5652.39
445.81	5842.85
446.02	5803.94
446.23	5715.88
446.44	5582.76
446.65	5822.38
446.86	5797.80
447.07	5730.22
447.28	6039.46
447.49	5924.77
447.70	5824.42
447.91	5871.53
448.12	5908.39
448.33	6029.22
448.54	5963.68
448.74	5865.38
448.95	6045.60
449.16	6029.22
449.37	6184.87
449.58	5982.12
449.79	6342.56
450.00	6055.84
450.21	6309.79
450.42	6383.52
450.63	6180.77
450.84	6109.09
451.05	6457.25
451.25	6191.01
451.46	6285.22
451.67	6281.12
451.88	6481.82
452.09	6383.52
452.30	6242.21
452.51	6514.59
452.72	6498.20
452.93	6514.59
453.13	6469.53
453.34	6447.01
453.55	6522.78
453.76	6508.44
453.97	6928.28
454.18	6795.16
454.39	6737.82
454.60	6705.05
454.81	6664.09
455.01	6856.60
455.22	6664.09
455.43	6768.54
455.64	7020.44
455.85	7053.20
456.06	7151.51
456.27	6936.47
456.48	6924.18
456.68	7018.39
456.89	7069.59
457.10	7157.65
457.31	7149.46
457.52	6948.76
457.73	7241.62
457.94	7405.46
458.14	7241.62
458.35	7427.98
458.56	7258.00
458.77	7436.17
458.98	7532.43
459.19	7493.52
459.39	7536.52
459.60	7731.08
459.81	7509.90
460.02	7835.53
460.23	7577.48
460.44	7772.04
460.65	7864.20
460.85	7718.79
461.06	7966.60
461.27	7769.99
461.48	8175.49
461.69	8255.36
461.89	7864.20
462.10	7800.71
462.31	7847.82
462.52	7982.98
462.73	7929.74
462.94	8308.61
463.14	8265.60
463.35	8050.57
463.56	8433.54
463.77	8251.27
463.98	8236.93
464.18	8247.17
464.39	8419.20
464.60	8636.28
464.81	8501.12
465.02	8523.65
465.23	8845.18
465.43	8714.11
465.64	9119.60
465.85	8755.07
466.06	8763.26
466.27	9037.69
466.47	9082.74
466.68	8980.34
466.89	9013.11
467.10	9119.60
467.30	9023.35
467.51	8966.01
467.72	9437.04
467.93	9230.20
468.14	9344.88
468.34	9582.45
468.55	9389.94
468.76	9467.76
468.97	9342.83
469.17	9643.88
469.38	9744.24
469.59	9813.87
469.80	9672.56
470.01	9838.44
470.21	9568.11
470.42	10164.07
470.63	10061.67
470.84	9856.87
471.04	10174.31
471.25	10254.18
471.46	10291.04
471.67	10411.87
471.87	10116.97
472.08	10520.42
472.29	10676.06
472.50	10180.45
472.70	10458.98
472.91	10680.16
473.12	10717.02
473.33	10819.42
473.53	10927.96
473.74	10739.55
473.95	10975.06
474.16	11263.83
474.36	11050.84
474.57	11229.01
474.78	11401.04
474.99	11282.26
475.19	11351.89
475.40	11581.26
475.61	11427.67
475.81	11683.66
476.02	11835.21
476.23	11847.50
476.44	11835.21
476.64	12083.02
476.85	12226.37
477.06	11999.05
477.27	12246.85
477.47	12431.17
477.68	12384.07
477.89	12388.16
478.09	12699.45
478.30	12457.79
478.51	12558.14
478.71	12918.59
478.92	12971.83
479.13	12851.00
479.34	13104.95
479.54	13137.72
479.75	13395.76
479.96	13129.53
480.16	13274.93
480.37	13274.93
480.58	13451.06
480.78	13631.28
480.99	13606.70
481.20	13522.74
481.41	13645.62
481.61	13907.76
481.82	14081.83
482.03	14135.08
482.23	13877.04
482.44	14034.73
482.65	14409.51
482.85	14466.85
483.06	14409.51
483.27	14501.67
483.47	14331.69
483.68	14849.82
483.89	14751.52
484.09	14559.01
484.30	14636.83
484.51	15005.47
484.71	15161.11
484.92	15116.06
485.13	15142.68
485.33	15464.21
485.54	15490.84
485.75	15503.12
485.95	15298.33
486.16	15513.36
486.37	15701.78
486.57	15679.25
486.78	15724.30
486.98	15877.90
487.19	16070.41
487.40	16176.91
487.60	16000.78
487.81	16252.68
488.02	16191.24
488.22	16346.89
488.43	16439.05
488.64	16471.81
488.84	16592.64
489.05	16682.75
489.25	16848.64
489.46	16891.65
489.67	16936.70
489.87	16965.37
490.08	17012.48
490.29	17278.71
490.49	17479.41
490.70	17305.34
490.90	17395.45
491.11	17544.95
491.32	17633.01
491.52	17676.02
491.73	17860.34
491.94	17712.88
492.14	17616.63
492.35	17921.77
492.55	18065.13
492.76	18192.11
492.97	18204.39
493.17	18140.91
493.38	18188.01
493.58	18407.14
493.79	18413.29
494.00	18327.27
494.20	18675.43
494.41	18683.62
494.61	18929.38
494.82	18941.66
495.02	18663.14
495.23	18726.63
495.44	18917.09
495.64	19461.85
495.85	18956.00
496.05	19226.33
496.26	19150.56
496.47	19412.70
496.67	19214.04
496.88	19691.22
497.08	19377.88
497.29	19539.67
497.49	19488.47
497.70	19881.68
497.91	19789.52
498.11	19762.90
498.32	20006.61
498.52	19799.76
498.73	20281.03
498.93	20027.09
499.14	20111.05
499.34	20109.01
499.55	20348.62
499.76	20160.20
499.96	20539.08
500.17	20614.85
500.37	20596.42
500.58	20924.10
500.78	20827.84
500.99	20858.56
501.19	21010.11
501.40	21020.35
501.60	21024.45
501.81	21214.91
502.02	21055.17
502.22	21137.09
502.43	20960.96
502.63	21616.31
502.84	21214.91
503.04	21456.57
503.25	21290.68
503.45	21284.54
503.66	21612.21
503.86	21536.44
504.07	21800.63
504.27	21786.29
504.48	22032.05
504.68	21946.03
504.89	22030.00
505.09	21943.99
505.30	21774.00
505.50	21841.59
505.71	21950.13
505.91	22263.47
506.12	22300.33
506.32	22507.18
506.53	22263.47
506.73	22415.02
506.94	22372.01
507.14	22253.23
507.35	22523.56
507.55	22218.41
507.76	22648.49
507.96	22582.95
508.17	22875.81
508.37	22703.78
508.58	22849.19
508.78	22591.14
508.99	22601.38
509.19	22998.69
509.40	23000.74
509.60	23029.41
509.81	23119.52
510.01	23160.48
510.22	23307.93
510.42	23176.86
510.63	22996.64
510.83	22959.78
511.04	23187.10
511.24	23307.93
511.44	23500.44
511.65	23340.70
511.85	23189.15
512.06	23465.63
512.26	23305.88
512.47	23547.54
512.67	23660.18
512.88	23482.01
513.08	23570.07
513.29	23864.98
513.49	23901.84
513.69	23756.44
513.90	23570.07
514.10	23729.81
514.31	24012.43
514.51	24018.58
514.72	23860.88
514.92	23766.68
515.13	24270.48
515.33	24186.51
515.53	24395.40
515.74	24084.11
515.94	24487.56
516.15	24102.54
516.35	24630.92
516.56	24331.92
516.76	24612.49
516.96	24237.71
517.17	24866.44
517.37	24770.18
517.58	24710.79
517.78	24561.29
517.99	24909.44
518.19	24964.74
518.39	25153.15
518.60	24897.16
518.80	24852.10
519.01	24942.21
519.21	24948.36
519.41	25450.11
519.62	25284.22
519.82	25577.08
520.03	25261.69
520.23	25742.97
520.43	25525.88
520.64	25540.22
520.84	25802.36
521.05	25540.22
521.25	25710.20
521.45	25894.52
521.66	25841.27
521.86	25802.36
522.07	25839.22
522.27	25904.76
522.47	26154.61
522.68	26109.55
522.88	25931.38
523.08	26316.40
523.29	25902.71
523.49	26435.18
523.70	26381.93
523.90	26207.86
524.10	26531.44
524.31	26353.26
524.51	26031.73
524.71	26564.20
524.92	26451.56
525.12	26709.61
525.33	26830.44
525.53	26799.72
525.73	26818.15
525.94	26992.23
526.14	27076.19
526.34	27047.52
526.55	27299.42
526.75	27299.42
526.95	27364.96
527.16	27391.58
527.36	27592.28
527.56	27422.30
527.77	28036.69
527.97	27477.60
528.17	27543.13
528.38	27764.31
528.58	27934.29
528.78	27911.77
528.99	27876.95
529.19	28026.45
529.39	27997.78
529.60	28264.02
529.80	28036.69
530.00	27940.44
530.21	28429.90
530.41	28540.49
530.61	28210.77
530.82	28493.39
531.02	28407.37
531.22	28601.93
531.43	28268.11
531.63	28718.67
531.83	29054.53
532.04	29148.74
532.24	29058.63
532.44	29081.16
532.64	29275.71
532.85	29150.79
533.05	29359.68
533.25	29277.76
533.46	29115.97
533.66	29779.51
533.86	29742.65
534.07	29865.53
534.27	29687.36
534.47	29724.22
534.67	29941.30
534.88	29900.34
535.08	30094.90
535.28	30268.98
535.49	30275.12
535.69	30627.37
535.89	30316.08
536.09	30369.33
536.30	30783.02
536.50	30395.95
536.70	30576.17
536.91	30305.84
537.11	30856.75
537.31	30592.56
537.51	30729.77
537.72	31262.24
537.92	31209.00
538.12	30920.23
538.32	31313.44
538.53	31471.14
538.73	30932.52
538.93	31252.00
539.13	31215.14
539.34	31161.89
539.54	31235.62
539.74	31901.21
539.94	31614.49
540.15	31340.07
540.35	32030.23
540.55	31438.37
540.75	31843.87
540.96	31559.20
541.16	31774.24
541.36	31829.53
541.56	31526.43
541.77	32110.10
541.97	31929.88
542.17	32224.79
542.37	32235.03
542.58	32321.04
542.78	32341.52
542.98	32167.45
543.18	32740.88
543.38	32917.00
543.59	32398.87
543.79	32810.51
543.99	32574.99
544.19	32728.59
544.40	32704.01
544.60	33162.76
544.80	32779.79
545.00	32726.54
545.20	33275.40
545.41	33203.72
545.61	33160.71
545.81	33252.87
546.01	33476.10
546.21	33109.51
546.42	33375.75
546.62	33359.36
546.82	33201.67
547.02	33502.72
547.22	33680.89
547.43	33494.53
547.63	33234.44
547.83	33560.06
548.03	33297.92
548.23	33445.38
548.44	33375.75
548.64	33588.74
548.84	33789.44
549.04	33756.67
549.24	33699.33
549.45	33654.27
549.65	33551.87
549.85	33934.84
550.05	33902.07
550.25	34014.71
550.45	33967.61
550.66	34196.98
550.86	34076.15
551.06	34225.65
551.26	34471.41
551.46	34117.11
551.66	34547.18
551.87	34121.21
552.07	34334.20
552.27	34330.10
552.47	34567.66
552.67	34774.51
552.87	34002.43
553.07	34360.82
553.28	34852.33
553.48	34518.51
553.68	34385.40
553.88	34735.60
554.08	34821.61
554.28	34442.74
554.48	34582.00
554.69	34655.73
554.89	34444.79
555.09	34770.41
555.29	34715.12
555.49	34907.63
555.69	34680.30
555.89	34633.20
556.10	34776.56
556.30	34717.17
556.50	34825.71
556.70	34684.40
556.90	35200.49
557.10	34743.79
557.30	34964.97
557.50	35007.98
557.70	35304.93
557.91	35519.97
558.11	35671.52
558.31	35231.21
558.51	35163.62
558.71	35380.71
558.91	35012.07
559.11	34909.68
559.31	35192.30
559.51	34981.35
559.72	35413.48
559.92	35548.64
560.12	35225.06
560.32	35630.56
560.52	34926.06
560.72	35327.46
560.92	35376.61
561.12	35436.00
561.32	35796.45
561.52	35151.34
561.72	35880.41
561.93	35255.78
562.13	35343.84
562.33	35313.13
562.53	35997.15
562.73	35323.36
562.93	35479.01
563.13	35388.90
563.33	35304.93
563.53	35706.34
563.73	35483.11
563.93	35651.04
564.13	36083.16
564.33	36066.78
564.53	35556.83
564.74	35837.41
564.94	35943.90
565.14	35982.81
565.34	35767.77
565.54	36351.45
565.74	35978.72
565.94	36179.42
566.14	35818.97
566.34	36001.24
566.54	36050.39
566.74	35874.27
566.94	36097.50
567.14	36160.98
567.34	36101.59
567.54	36222.42
567.74	35694.05
567.94	36163.03
568.14	36195.80
568.34	36044.25
568.54	36062.68
568.74	36214.23
568.94	36437.46
569.14	36347.35
569.34	36435.41
569.54	36220.38
569.75	36503.00
569.95	36199.90
570.15	36802.00
570.35	36367.83
570.55	36247.00
570.75	36431.32
570.95	36513.23
571.15	36382.16
571.35	36658.64
571.55	36613.59
571.75	36556.24
571.95	36724.18
572.15	36527.57
572.35	36675.02
572.55	36412.88
572.75	36877.77
572.95	36517.33
573.15	36894.16
573.35	36765.14
573.55	36363.73
573.75	36611.54
573.95	36343.25
574.15	36777.42
574.35	36996.56
574.55	36728.27
574.75	36711.89
574.95	36908.49
575.15	36672.98
575.34	36789.71
575.54	37193.16
575.74	36668.88
575.94	37201.35
576.14	36842.96
576.34	37193.16
576.54	37189.06
576.74	37035.47
576.94	37342.66
577.14	37340.61
577.34	37062.09
577.54	37047.75
577.74	37559.75
577.94	37111.24
578.14	37039.56
578.34	37262.79
578.54	37094.86
578.74	37096.91
578.94	37371.33
579.14	37166.54
579.34	37465.54
579.54	37545.41
579.74	37379.53
579.94	37858.75
580.13	38020.54
580.33	37725.63
580.53	37651.91
580.73	38038.97
580.93	37604.80
581.13	37565.89
581.33	37686.72
581.53	37588.42
581.73	37588.42
581.93	37813.70
582.13	37887.42
582.33	38018.49
582.53	37795.26
582.73	38022.59
582.92	37879.23
583.12	37971.39
583.32	37828.03
583.52	37690.82
583.72	38145.47
583.92	37633.47
584.12	37944.76
584.32	38442.42
584.52	38051.26
584.72	38354.36
584.92	38434.23
585.11	38522.29
585.31	38190.52
585.51	38663.60
585.71	38102.46
585.91	38385.08
586.11	38026.68
586.31	38020.54
586.51	37762.50
586.71	38374.84
586.91	38286.78
587.10	38460.85
587.30	38591.92
587.50	38454.71
587.70	38307.26
587.90	38639.03
588.10	38610.35
588.30	38221.24
588.50	38641.07
588.69	38761.90
