SpectraSuite Data File
++++++++++++++++++++++++++++++++++++
Date: Tue Jun 13 11:50:59 CEST 2017
User: INFO_000
Dark Spectrum Present: No
Reference Spectrum Present: No
Number of Sampled Component Spectra: 1
Spectrometers: USB4H00879
Integration Time (usec): 30000 (USB4H00879)
Spectra Averaged: 1 (USB4H00879)
Boxcar Smoothing: 0 (USB4H00879)
Correct for Electrical Dark: No (USB4H00879)
Strobe/Lamp Enabled: No (USB4H00879)
Correct for Detector Non-linearity: No (USB4H00879)
Correct for Stray Light: No (USB4H00879)
Number of Pixels in Processed Spectrum: 3648
>>>>>Begin Processed Spectral Data<<<<<
345.13	1341.42
345.34	1341.42
345.56	1341.42
345.78	1327.08
345.99	1325.04
346.21	1503.21
346.42	1540.07
346.64	1480.68
346.86	1521.64
347.07	1472.49
347.29	1433.58
347.50	1495.02
347.72	1499.11
347.94	1533.93
348.15	1533.93
348.37	1476.59
348.59	1546.22
348.80	1495.02
349.02	1628.14
349.23	1648.61
349.45	1531.88
349.67	1648.61
349.88	1640.42
350.10	1708.01
350.31	1595.37
350.53	1572.84
350.75	1681.38
350.96	1634.28
351.18	1626.09
351.39	1691.62
351.61	1667.05
351.82	1710.05
352.04	1644.52
352.26	1658.85
352.47	1689.57
352.69	1656.81
352.90	1595.37
353.12	1564.65
353.34	1691.62
353.55	1685.48
353.77	1652.71
353.98	1652.71
354.20	1593.32
354.41	1736.68
354.63	1751.01
354.85	1734.63
355.06	1634.28
355.28	1597.42
355.49	1650.66
355.71	1671.14
355.92	1597.42
356.14	1681.38
356.35	1667.05
356.57	1681.38
356.79	1738.73
357.00	1677.29
357.22	1697.77
357.43	1630.18
357.65	1677.29
357.86	1609.70
358.08	1679.33
358.29	1675.24
358.51	1738.73
358.72	1746.92
358.94	1830.88
359.16	1685.48
359.37	1578.98
359.59	1757.16
359.80	1777.64
360.02	1701.86
360.23	1687.53
360.45	1738.73
360.66	1753.06
360.88	1693.67
361.09	1744.87
361.31	1714.15
361.52	1720.29
361.74	1802.21
361.95	1855.46
362.17	1765.35
362.38	1781.73
362.60	1769.44
362.81	1767.40
363.03	1748.97
363.24	1802.21
363.46	1773.54
363.67	1794.02
363.89	1744.87
364.10	1683.43
364.32	1718.25
364.53	1732.58
364.75	1748.97
364.96	1781.73
365.18	1736.68
365.39	1726.44
365.61	1773.54
365.82	1832.93
366.04	1806.31
366.25	1726.44
366.47	1763.30
366.68	1828.84
366.90	1736.68
367.11	1814.50
367.33	1859.56
367.54	1806.31
367.76	1736.68
367.97	1810.40
368.19	1867.75
368.40	1783.78
368.62	1814.50
368.83	1820.64
369.05	1746.92
369.26	1804.26
369.48	1884.13
369.69	1769.44
369.91	1808.36
370.12	1861.60
370.33	1861.60
370.55	1830.88
370.76	1742.82
370.98	1918.95
371.19	1820.64
371.41	1910.75
371.62	1837.03
371.84	1875.94
372.05	1888.23
372.27	1853.41
372.48	1902.56
372.69	1914.85
372.91	1896.42
373.12	1951.71
373.34	1937.38
373.55	1972.19
373.77	1945.57
373.98	2013.15
374.20	1925.09
374.41	1890.28
374.62	1957.86
374.84	2068.45
375.05	2000.87
375.27	2000.87
375.48	2058.21
375.70	2002.91
375.91	1976.29
376.12	2023.39
376.34	2027.49
376.55	2072.54
376.77	2015.20
376.98	1955.81
377.19	2074.59
377.41	2019.30
377.62	2009.06
377.84	2023.39
378.05	2103.26
378.27	2117.60
378.48	2064.35
378.69	2105.31
378.91	2076.64
379.12	2097.12
379.34	2064.35
379.55	2133.98
379.76	2082.78
379.98	2123.74
380.19	2050.02
380.41	2076.64
380.62	2088.93
380.83	2086.88
381.05	2105.31
381.26	2220.00
381.47	2058.21
381.69	2136.03
381.90	2238.43
382.12	2179.04
382.33	2164.70
382.54	2125.79
382.76	2185.18
382.97	2170.85
383.19	2090.98
383.40	2263.01
383.61	2181.09
383.83	2215.90
384.04	2160.61
384.25	2209.76
384.47	2277.34
384.68	2250.72
384.89	2152.42
385.11	2211.81
385.32	2217.95
385.54	2260.96
385.75	2281.44
385.96	2279.39
386.18	2156.51
386.39	2322.40
386.60	2314.20
386.82	2357.21
387.03	2263.01
387.24	2361.31
387.46	2359.26
387.67	2332.64
387.88	2396.12
388.10	2394.08
388.31	2334.68
388.52	2475.99
388.74	2385.88
388.95	2361.31
389.16	2510.81
389.38	2422.75
389.59	2447.32
389.80	2449.37
390.02	2402.27
390.23	2516.95
390.44	2404.32
390.66	2475.99
390.87	2482.14
391.08	2426.84
391.30	2553.82
391.51	2559.96
391.72	2504.67
391.94	2504.67
392.15	2551.77
392.36	2529.24
392.58	2527.19
392.79	2551.77
393.00	2516.95
393.22	2668.50
393.43	2658.26
393.64	2662.36
393.85	2639.83
394.07	2498.52
394.28	2637.78
394.49	2709.46
394.71	2621.40
394.92	2676.70
395.13	2686.94
395.35	2658.26
395.56	2691.03
395.77	2719.70
395.98	2822.10
396.20	2889.68
396.41	2832.34
396.62	2838.48
396.84	2740.18
397.05	2787.29
397.26	2865.11
397.47	2883.54
397.69	2772.95
397.90	2910.16
398.11	2824.15
398.32	2764.76
398.54	2901.97
398.75	2877.40
398.96	2801.62
399.18	2942.93
399.39	3002.32
399.60	2959.31
399.81	2910.16
400.03	2914.26
400.24	3102.67
400.45	2906.07
400.66	3000.27
400.88	3063.76
401.09	3137.49
401.30	3155.92
401.51	3045.33
401.73	3094.48
401.94	3033.04
402.15	3190.74
402.36	3119.06
402.58	3045.33
402.79	3151.82
403.00	3264.46
403.21	3160.02
403.43	3155.92
403.64	3297.23
403.85	3192.78
404.06	3221.45
404.27	3125.20
404.49	3260.37
404.70	3190.74
404.91	3356.62
405.12	3299.28
405.34	3215.31
405.55	3383.24
405.76	3246.03
405.97	3346.38
406.19	3342.28
406.40	3231.69
406.61	3350.48
406.82	3389.39
407.03	3358.67
407.25	3295.18
407.46	3411.92
407.67	3479.50
407.88	3332.05
408.09	3477.45
408.31	3383.24
408.52	3442.64
408.73	3459.02
408.94	3368.91
409.15	3557.32
409.37	3606.47
409.58	3561.42
409.79	3526.60
410.00	3614.66
410.21	3483.59
410.43	3667.91
410.64	3463.12
410.85	3624.90
411.06	3510.22
411.27	3557.32
411.48	3680.20
411.70	3588.04
411.91	3590.09
412.12	3755.97
412.33	3774.41
412.54	3725.26
412.76	3889.09
412.97	3772.36
413.18	3647.43
413.39	3659.72
413.60	3735.50
413.81	3876.80
414.03	3872.71
414.24	4003.78
414.45	3864.52
414.66	3776.45
414.87	3977.16
415.08	3809.22
415.30	3907.52
415.51	3817.41
415.72	3938.24
415.93	3966.92
416.14	4032.45
416.35	3893.19
416.56	3977.16
416.78	3901.38
416.99	4050.88
417.20	4054.98
417.41	4061.12
417.62	4071.36
417.83	4130.75
418.04	4212.67
418.26	4114.37
418.47	4147.14
418.68	4237.25
418.89	4124.61
419.10	4165.57
419.31	4265.92
419.52	4204.48
419.73	4204.48
419.95	4341.69
420.16	4229.06
420.37	4380.61
420.58	4241.34
420.79	4194.24
421.00	4288.45
421.21	4411.32
421.42	4274.11
421.63	4351.93
421.85	4345.79
422.06	4534.20
422.27	4431.80
422.48	4513.72
422.69	4546.49
422.90	4499.39
423.11	4548.54
423.32	4460.48
423.53	4644.79
423.75	4663.22
423.96	4816.82
424.17	4706.23
424.38	4786.10
424.59	4702.14
424.80	4851.64
425.01	4906.93
425.22	4734.90
425.43	4775.86
425.64	4923.32
425.85	4904.89
426.06	4810.68
426.28	5046.20
426.49	4847.54
426.70	4980.66
426.91	4876.21
427.12	5056.43
427.33	5019.57
427.54	5124.02
427.75	5146.55
427.96	5222.32
428.17	5048.24
428.38	5248.94
428.59	5226.42
428.80	5248.94
429.01	5361.58
429.23	4988.85
429.44	5533.61
429.65	5451.69
429.86	5425.07
430.07	5263.28
430.28	5351.34
430.49	5357.49
430.70	5541.80
430.91	5509.04
431.12	5466.03
431.33	5568.43
431.54	5582.76
431.75	5539.76
431.96	5539.76
432.17	5687.21
432.38	5498.80
432.59	5885.86
432.80	5662.63
433.01	5918.63
433.22	5998.50
433.43	5705.64
433.64	5767.08
433.85	5611.43
434.06	5892.01
434.27	5914.53
434.49	5898.15
434.70	5945.25
434.91	6041.51
435.12	6115.23
435.33	5984.16
435.54	6023.08
435.75	5916.58
435.96	6107.04
436.17	6000.55
436.38	6117.28
436.59	6156.19
436.80	6246.30
437.01	6440.86
437.22	6432.67
437.43	6197.15
437.64	6117.28
437.85	6334.37
438.06	6533.02
438.27	6295.46
438.48	6303.65
438.69	6494.11
438.90	6422.43
439.11	6277.02
439.32	6475.68
439.53	6655.90
439.74	6614.94
439.95	6606.75
440.16	6553.50
440.37	6606.75
440.57	6553.50
440.78	6502.30
440.99	6825.88
441.20	6563.74
441.41	6854.55
441.62	6750.10
441.83	6684.57
442.04	6721.43
442.25	6864.79
442.46	6864.79
442.67	6989.72
442.88	7231.38
443.09	6827.93
443.30	6813.59
443.51	6952.85
443.72	7214.99
443.93	7024.53
444.14	7192.47
444.35	6965.14
444.56	7212.95
444.77	7219.09
444.98	7059.35
445.19	7327.63
445.40	7217.04
445.61	7194.51
445.81	7391.12
446.02	7456.65
446.23	7202.71
446.44	7161.75
446.65	7270.29
446.86	7282.58
447.07	7391.12
447.28	7622.54
447.49	7518.09
447.70	7495.57
447.91	7653.26
448.12	7468.94
448.33	7688.07
448.54	7671.69
448.74	7520.14
448.95	7757.71
449.16	7593.87
449.37	7937.93
449.58	7653.26
449.79	7993.22
450.00	7624.59
450.21	7878.54
450.42	7894.92
450.63	8112.00
450.84	7905.16
451.05	8075.14
451.25	8069.00
451.46	7765.90
451.67	8069.00
451.88	8443.78
452.09	8169.35
452.30	8202.11
452.51	8308.61
452.72	8271.75
452.93	8638.33
453.13	8351.62
453.34	8345.47
453.55	8226.69
453.76	8292.23
453.97	8712.06
454.18	8552.32
454.39	8656.76
454.60	8572.80
454.81	8722.30
455.01	8818.55
455.22	8636.28
455.43	8791.93
455.64	9043.83
455.85	9068.41
456.06	9195.38
456.27	8939.38
456.48	8875.90
456.68	9107.32
456.89	8931.19
457.10	9265.01
457.31	9090.93
457.52	9129.84
457.73	9326.45
457.94	9482.10
458.14	9338.74
458.35	9682.80
458.56	9406.32
458.77	9389.94
458.98	9693.04
459.19	9525.10
459.39	9789.29
459.60	9850.73
459.81	9760.62
460.02	9983.85
460.23	9906.02
460.44	10018.66
460.65	9985.90
460.85	10182.50
461.06	10119.01
461.27	9854.83
461.48	10387.30
461.69	10463.07
461.89	10205.03
462.10	10565.47
462.31	10270.56
462.52	10250.08
462.73	10358.63
462.94	10620.77
463.14	10547.04
463.35	10633.05
463.56	10993.50
463.77	11054.94
463.98	10870.62
464.18	10753.88
464.39	10962.78
464.60	11231.06
464.81	11095.89
465.02	11018.07
465.23	11474.77
465.43	11241.30
465.64	11716.43
465.85	11462.48
466.06	11333.46
466.27	11775.82
466.47	11644.75
466.68	11632.46
466.89	11671.37
467.10	11913.03
467.30	11861.84
467.51	11775.82
467.72	12255.04
467.93	11704.14
468.14	12089.16
468.34	12328.77
468.55	12369.73
468.76	12259.14
468.97	12228.42
469.17	12568.38
469.38	12777.28
469.59	12719.93
469.80	12560.19
470.01	12894.01
470.21	12840.76
470.42	12996.41
470.63	13190.97
470.84	12947.26
471.04	13416.24
471.25	13100.86
471.46	13025.08
471.67	13477.68
471.87	13758.25
472.08	13639.47
472.29	13772.59
472.50	13330.23
472.70	13793.07
472.91	13936.43
473.12	14069.55
473.33	14047.02
473.53	14348.07
473.74	14223.14
473.95	14372.64
474.16	14853.92
474.36	14673.70
474.57	14638.88
474.78	14833.44
474.99	14632.74
475.19	14706.46
475.40	15023.90
475.61	15124.25
475.81	15365.91
476.02	15761.17
476.23	15449.88
476.44	15775.50
476.64	16092.94
476.85	16013.07
477.06	16117.51
477.27	16258.82
477.47	16269.06
477.68	16250.63
477.89	16455.43
478.09	16527.11
478.30	16461.57
478.51	16649.99
478.71	16834.30
478.92	16826.11
479.13	17037.05
479.34	17374.97
479.54	17069.82
479.75	17211.13
479.96	17606.39
480.16	17745.65
480.37	17606.39
480.58	17952.49
480.78	17893.10
480.99	18114.28
481.20	18093.80
481.41	18312.94
481.61	18437.86
481.82	18577.12
482.03	18685.67
482.23	18609.89
482.44	18790.11
482.65	18855.65
482.85	18908.90
483.06	19125.98
483.27	18972.38
483.47	19232.47
483.68	19336.92
483.89	19535.57
484.09	19588.82
484.30	19691.22
484.51	20256.46
484.71	20299.47
484.92	20072.14
485.13	20291.27
485.33	20158.16
485.54	20246.22
485.75	20580.04
485.95	20840.13
486.16	20856.51
486.37	20756.16
486.57	20920.00
486.78	21020.35
486.98	21003.97
487.19	21352.12
487.40	21520.06
487.60	21456.57
487.81	21731.00
488.02	21819.06
488.22	21599.93
488.43	22060.72
488.64	22066.86
488.84	22163.12
489.05	22226.60
489.25	22283.95
489.46	22578.86
489.67	22496.94
489.87	22763.17
490.08	22617.77
490.29	22568.62
490.49	23334.56
490.70	23365.28
490.90	23289.50
491.11	23275.16
491.32	23508.63
491.52	23490.20
491.73	23527.06
491.94	23801.49
492.14	24045.20
492.35	24319.63
492.55	24209.04
492.76	24368.78
492.97	24456.84
493.17	24174.22
493.38	24620.68
493.58	24682.12
493.79	24733.32
494.00	24839.81
494.20	24852.10
494.41	24938.12
494.61	25161.34
494.82	25187.97
495.02	25329.28
495.23	25308.80
495.44	25493.12
495.64	25470.59
495.85	25845.37
496.05	25953.91
496.26	25835.13
496.47	25947.76
496.67	25685.62
496.88	26238.58
497.08	25833.08
497.29	26300.01
497.49	26529.39
497.70	26746.47
497.91	26666.60
498.11	26984.04
498.32	26947.17
498.52	26891.88
498.73	27266.66
498.93	27125.35
499.14	27381.34
499.34	27186.79
499.55	27311.71
499.76	27506.27
499.96	27407.97
500.17	27543.13
500.37	27803.22
500.58	27846.23
500.78	27840.09
500.99	27985.49
501.19	28108.37
501.40	28237.39
501.60	28190.29
501.81	28409.42
502.02	28874.31
502.22	28372.56
502.43	28726.86
502.63	28612.17
502.84	28767.82
503.04	28616.27
503.25	28812.87
503.45	28876.36
503.66	29185.60
503.86	28823.11
504.07	29613.63
504.27	29224.51
504.48	29523.52
504.68	29179.46
504.89	29802.04
505.09	29646.40
505.30	29713.98
505.50	29808.19
505.71	29820.47
505.91	30066.23
506.12	29922.87
506.32	30078.52
506.53	30238.26
506.73	30377.52
506.94	30522.93
507.14	30033.46
507.35	30187.06
507.55	30516.78
507.76	30633.52
507.96	30379.57
508.17	30826.03
508.37	30776.87
508.58	30551.60
508.78	30676.52
508.99	31280.67
509.19	30887.46
509.40	31125.03
509.60	31221.28
509.81	31131.17
510.01	31211.04
510.22	31098.41
510.42	31485.47
510.63	31481.38
510.83	31485.47
511.04	31436.32
511.24	31573.53
511.44	31499.81
511.65	31329.83
511.85	31802.91
512.06	31761.95
512.26	32370.19
512.47	32052.76
512.67	31909.40
512.88	32101.91
513.08	32079.38
513.29	32534.03
513.49	32368.15
513.69	32499.22
513.90	32263.70
514.10	32429.59
514.31	32540.18
514.51	32654.86
514.72	32814.60
514.92	32753.16
515.13	32783.88
515.33	32824.84
515.53	32806.41
515.74	32859.66
515.94	33170.95
516.15	33052.17
516.35	32888.33
516.56	33445.38
516.76	33250.82
516.96	33402.37
517.17	33490.43
517.37	33461.76
517.58	33662.46
517.78	33658.37
517.99	33568.26
518.19	33793.53
518.39	34225.65
518.60	34176.50
518.80	34035.19
519.01	33938.94
519.21	34108.92
519.41	34205.17
519.62	34350.58
519.82	34364.92
520.03	34612.72
520.23	34461.17
520.43	34326.00
520.64	34766.32
520.84	34862.57
521.05	34848.24
521.25	35018.22
521.45	35354.08
521.66	35180.01
521.86	34919.92
522.07	35075.56
522.27	35296.74
522.47	35102.18
522.68	35780.06
522.88	35558.88
523.08	35622.37
523.29	35827.17
523.49	35980.76
523.70	35800.54
523.90	36406.74
524.10	35976.67
524.31	36163.03
524.51	36036.06
524.71	36361.69
524.92	36255.19
525.12	36564.43
525.33	36330.97
525.53	36652.50
525.73	36806.09
525.94	37012.94
526.14	36953.55
526.34	37012.94
526.55	37045.71
526.75	36926.92
526.95	37682.62
527.16	37492.16
527.36	37268.94
527.56	37492.16
527.77	37557.70
527.97	37475.78
528.17	37807.55
528.38	37989.82
528.58	37850.56
528.78	37942.72
528.99	37828.03
529.19	38233.53
529.39	38090.17
529.60	38489.52
529.80	38227.38
530.00	38196.67
530.21	38716.85
530.41	38718.90
530.61	38915.50
530.82	39093.68
531.02	38901.17
531.22	39079.34
531.43	38976.94
531.63	39673.25
531.83	39763.36
532.04	39677.35
532.24	39501.22
532.44	40226.20
532.64	39916.96
532.85	40304.02
533.05	40277.40
533.25	40125.85
533.46	39818.66
533.66	41002.38
533.86	40084.89
534.07	40805.78
534.27	40721.81
534.47	41008.53
534.67	40818.07
534.88	40578.45
535.08	41063.82
535.28	41285.00
535.49	41618.82
535.69	41350.54
535.89	41692.55
536.09	41786.75
536.30	41465.22
536.50	41678.21
536.70	42153.34
536.91	41999.74
537.11	42018.17
537.31	41946.50
537.51	42403.19
537.72	42515.83
537.92	42198.40
538.12	42900.85
538.32	42849.65
538.53	42995.06
538.73	42476.92
538.93	42587.51
539.13	42929.52
539.34	43019.63
539.54	42800.50
539.74	43656.55
539.94	43513.19
540.15	43287.92
540.35	43615.59
540.55	43212.14
540.75	43418.99
540.96	43771.24
541.16	43775.33
541.36	43908.45
541.56	43943.27
541.77	44107.10
541.97	43871.59
542.17	44309.85
542.37	44246.36
542.58	44221.79
542.78	44270.94
542.98	44453.21
543.18	44604.76
543.38	44782.93
543.59	44877.14
543.79	44551.51
543.99	44961.11
544.19	44977.49
544.40	45231.44
544.60	45292.88
544.80	44930.39
545.00	45069.65
545.20	45008.21
545.41	45174.09
545.61	45002.07
545.81	45784.39
546.01	45593.93
546.21	45464.91
546.42	45704.52
546.62	45172.05
546.82	45712.71
547.02	45497.67
547.22	45923.65
547.43	45751.62
547.63	45886.79
547.83	46003.52
548.03	45600.07
548.23	46073.15
548.44	45956.42
548.64	46183.74
548.84	46474.55
549.04	46218.56
549.24	46372.16
549.45	46370.11
549.65	46624.06
549.85	46728.50
550.05	46804.28
550.25	46699.83
550.45	47156.53
550.66	46619.96
550.86	46599.48
551.06	46873.91
551.26	46693.69
551.46	46869.81
551.66	46927.16
551.87	46916.92
552.07	47447.34
552.27	47230.26
552.47	47058.23
552.67	47469.87
552.87	47303.98
553.07	47351.09
553.28	47600.94
553.48	47482.16
553.68	47287.60
553.88	47869.22
554.08	47703.34
554.28	47744.30
554.48	47484.20
554.69	47777.06
554.89	47398.19
555.09	48198.94
555.29	47945.00
555.49	47873.32
555.69	47973.67
555.89	47973.67
556.10	47924.52
556.30	47725.86
556.50	48223.52
556.70	47881.51
556.90	48356.64
557.10	48491.80
557.30	48057.63
557.50	48407.84
557.70	48391.45
557.91	48438.56
558.11	48102.69
558.31	48755.99
558.51	48430.36
558.71	48278.82
558.91	48932.12
559.11	48180.51
559.31	48698.65
559.51	48882.97
559.72	48659.74
559.92	48905.49
560.12	48518.43
560.32	48835.86
560.52	48778.52
560.72	48749.85
560.92	48938.26
561.12	48604.44
561.32	49095.95
561.52	48774.42
561.72	49462.54
561.93	48956.69
562.13	49204.50
562.33	48520.48
562.53	49573.13
562.73	48975.12
562.93	48940.31
563.13	49112.34
563.33	48753.94
563.53	49583.37
563.73	49077.52
563.93	49057.04
564.13	49589.52
564.33	49261.84
564.53	49159.44
564.74	49667.34
564.94	49386.77
565.14	49317.14
565.34	49255.70
565.54	49812.74
565.74	49523.98
565.94	50144.51
566.14	49675.53
566.34	49657.10
566.54	50242.82
566.74	49401.10
566.94	50062.60
567.14	49796.36
567.34	49464.59
567.54	49702.15
567.74	49339.66
567.94	49939.72
568.14	50021.64
568.34	49941.77
568.54	50017.54
568.74	50042.12
568.94	50095.36
569.14	50173.19
569.34	50015.49
569.54	50220.29
569.75	50025.73
569.95	50201.86
570.15	50625.79
570.35	50164.99
570.55	50439.42
570.75	50312.45
570.95	50535.68
571.15	50156.80
571.35	50267.39
571.55	50638.08
571.75	49943.81
571.95	50937.08
572.15	50248.96
572.35	50889.98
572.55	50732.28
572.75	50380.03
572.95	51246.32
573.15	50666.75
573.35	50865.40
573.55	50629.88
573.75	50724.09
573.95	51092.72
574.15	50842.87
574.35	51152.12
574.55	50910.46
574.75	51348.72
574.95	51084.53
575.15	50922.74
575.34	50769.15
575.54	51391.73
575.74	51287.28
575.94	51698.92
576.14	51102.96
576.34	51565.81
576.54	52004.07
576.74	52034.79
576.94	51442.93
577.14	51766.51
577.34	52147.43
577.54	51612.91
577.74	51428.59
577.94	51756.27
578.14	51764.46
578.34	51901.67
578.54	51627.24
578.74	52028.65
578.94	52014.31
579.14	51569.90
579.34	51811.56
579.54	51901.67
579.74	52419.81
579.94	52004.07
580.13	52341.99
580.33	51985.64
580.53	52346.08
580.73	52327.65
580.93	52350.18
581.13	52548.83
581.33	52956.38
581.53	52591.84
581.73	52591.84
581.93	52583.65
582.13	52780.25
582.33	52428.00
582.53	52589.79
582.73	52761.82
582.92	52577.50
583.12	53005.53
583.32	52776.15
583.52	52425.95
583.72	53011.67
583.92	52739.29
584.12	53040.34
584.32	53783.76
584.52	53126.36
584.72	53075.16
584.92	53109.97
585.11	53640.40
585.31	53279.96
585.51	53349.59
585.71	53103.83
585.91	53519.57
586.11	53050.58
586.31	53124.31
586.51	53400.79
586.71	53425.36
586.91	54076.61
587.10	53662.93
587.30	53640.40
587.50	53765.32
587.70	53705.93
587.90	54152.39
588.10	53826.76
588.30	53845.19
