SpectraSuite Data File
++++++++++++++++++++++++++++++++++++
Date: Tue Jun 13 11:52:07 CEST 2017
User: INFO_000
Dark Spectrum Present: No
Reference Spectrum Present: No
Number of Sampled Component Spectra: 1
Spectrometers: USB4H00879
Integration Time (usec): 30000 (USB4H00879)
Spectra Averaged: 1 (USB4H00879)
Boxcar Smoothing: 0 (USB4H00879)
Correct for Electrical Dark: No (USB4H00879)
Strobe/Lamp Enabled: No (USB4H00879)
Correct for Detector Non-linearity: No (USB4H00879)
Correct for Stray Light: No (USB4H00879)
Number of Pixels in Processed Spectrum: 3648
>>>>>Begin Processed Spectral Data<<<<<
345.13	1357.80
345.34	1357.80
345.56	1357.80
345.78	1308.65
345.99	1329.13
346.21	1460.20
346.42	1554.41
346.64	1419.24
346.86	1517.54
347.07	1533.93
347.29	1593.32
347.50	1505.26
347.72	1550.31
347.94	1533.93
348.15	1468.39
348.37	1458.15
348.59	1523.69
348.80	1507.30
349.02	1611.75
349.23	1681.38
349.45	1675.24
349.67	1624.04
349.88	1593.32
350.10	1650.66
350.31	1675.24
350.53	1652.71
350.75	1679.33
350.96	1646.57
351.18	1656.81
351.39	1605.61
351.61	1644.52
351.82	1718.25
352.04	1605.61
352.26	1656.81
352.47	1675.24
352.69	1695.72
352.90	1624.04
353.12	1583.08
353.34	1609.70
353.55	1662.95
353.77	1691.62
353.98	1609.70
354.20	1605.61
354.41	1589.22
354.63	1699.81
354.85	1722.34
355.06	1611.75
355.28	1617.90
355.49	1634.28
355.71	1660.90
355.92	1636.33
356.14	1726.44
356.35	1679.33
356.57	1683.43
356.79	1699.81
357.00	1705.96
357.22	1701.86
357.43	1691.62
357.65	1644.52
357.86	1693.67
358.08	1751.01
358.29	1681.38
358.51	1638.38
358.72	1705.96
358.94	1675.24
359.16	1755.11
359.37	1730.53
359.59	1703.91
359.80	1722.34
360.02	1691.62
360.23	1726.44
360.45	1787.88
360.66	1654.76
360.88	1589.22
361.09	1658.85
361.31	1671.14
361.52	1783.78
361.74	1794.02
361.95	1882.08
362.17	1816.55
362.38	1775.59
362.60	1724.39
362.81	1730.53
363.03	1738.73
363.24	1806.31
363.46	1734.63
363.67	1748.97
363.89	1771.49
364.10	1773.54
364.32	1669.09
364.53	1806.31
364.75	1703.91
364.96	1839.08
365.18	1748.97
365.39	1773.54
365.61	1632.23
365.82	1869.80
366.04	1710.05
366.25	1865.70
366.47	1841.12
366.68	1886.18
366.90	1697.77
367.11	1818.60
367.33	1812.45
367.54	1785.83
367.76	1785.83
367.97	1785.83
368.19	1820.64
368.40	1816.55
368.62	1740.77
368.83	1791.97
369.05	1828.84
369.26	1791.97
369.48	1832.93
369.69	1834.98
369.91	1812.45
370.12	1810.40
370.33	1806.31
370.55	1826.79
370.76	1794.02
370.98	1914.85
371.19	1834.98
371.41	1814.50
371.62	1837.03
371.84	1802.21
372.05	1890.28
372.27	1914.85
372.48	1943.52
372.69	1845.22
372.91	1900.52
373.12	1892.32
373.34	1918.95
373.55	1863.65
373.77	1918.95
373.98	1910.75
374.20	1896.42
374.41	1904.61
374.62	1927.14
374.84	1968.10
375.05	1968.10
375.27	1986.53
375.48	1896.42
375.70	1923.04
375.91	1953.76
376.12	2080.74
376.34	1972.19
376.55	1998.82
376.77	1964.00
376.98	1920.99
377.19	1972.19
377.41	1951.71
377.62	2039.78
377.84	2041.82
378.05	2080.74
378.27	1964.00
378.48	1959.91
378.69	2076.64
378.91	2152.42
379.12	2058.21
379.34	2043.87
379.55	2119.65
379.76	2082.78
379.98	2037.73
380.19	2062.30
380.41	2056.16
380.62	2101.22
380.83	2109.41
381.05	2121.70
381.26	2154.46
381.47	2123.74
381.69	2133.98
381.90	2150.37
382.12	2131.94
382.33	2078.69
382.54	2174.94
382.76	2148.32
382.97	2138.08
383.19	2148.32
383.40	2215.90
383.61	2142.18
383.83	2121.70
384.04	2217.95
384.25	2123.74
384.47	2058.21
384.68	2238.43
384.89	2244.57
385.11	2146.27
385.32	2240.48
385.54	2281.44
385.75	2256.86
385.96	2232.29
386.18	2269.15
386.39	2211.81
386.60	2328.54
386.82	2326.49
387.03	2172.89
387.24	2338.78
387.46	2228.19
387.67	2330.59
387.88	2365.40
388.10	2301.92
388.31	2357.21
388.52	2385.88
388.74	2338.78
388.95	2424.80
389.16	2318.30
389.38	2475.99
389.59	2377.69
389.80	2475.99
390.02	2398.17
390.23	2437.08
390.44	2490.33
390.66	2361.31
390.87	2420.70
391.08	2453.47
391.30	2527.19
391.51	2523.10
391.72	2473.95
391.94	2525.15
392.15	2523.10
392.36	2439.13
392.58	2473.95
392.79	2512.86
393.00	2584.54
393.22	2590.68
393.43	2609.11
393.64	2643.93
393.85	2602.97
394.07	2590.68
394.28	2684.89
394.49	2641.88
394.71	2705.37
394.92	2734.04
395.13	2748.37
395.35	2656.22
395.56	2633.69
395.77	2635.74
395.98	2686.94
396.20	2770.90
396.41	2691.03
396.62	2754.52
396.84	2787.29
397.05	2723.80
397.26	2838.48
397.47	2805.72
397.69	2736.09
397.90	2891.73
398.11	2840.53
398.32	2815.96
398.54	2957.27
398.75	2799.57
398.96	2807.77
399.18	2987.99
399.39	2850.77
399.60	2963.41
399.81	2914.26
400.03	2951.12
400.24	3059.67
400.45	2895.83
400.66	3104.72
400.88	3162.06
401.09	2926.55
401.30	3123.15
401.51	3059.67
401.73	3055.57
401.94	3049.43
402.15	3076.05
402.36	3121.10
402.58	3053.52
402.79	3022.80
403.00	3209.17
403.21	3205.07
403.43	3074.00
403.64	3227.60
403.85	3131.34
404.06	3166.16
404.27	3143.63
404.49	3182.54
404.70	3123.15
404.91	3223.50
405.12	3348.43
405.34	3278.80
405.55	3198.93
405.76	3217.36
405.97	3207.12
406.19	3336.14
406.40	3319.76
406.61	3266.51
406.82	3309.52
407.03	3389.39
407.25	3368.91
407.46	3336.14
407.67	3450.83
407.88	3395.53
408.09	3356.62
408.31	3360.72
408.52	3395.53
408.73	3366.86
408.94	3350.48
409.15	3344.33
409.37	3465.16
409.58	3618.76
409.79	3547.08
410.00	3551.18
410.21	3524.55
410.43	3704.78
410.64	3530.70
410.85	3569.61
411.06	3612.62
411.27	3631.05
411.48	3678.15
411.70	3551.18
411.91	3743.69
412.12	3561.42
412.33	3569.61
412.54	3727.30
412.76	3669.96
412.97	3616.71
413.18	3692.49
413.39	3784.65
413.60	3846.09
413.81	3774.41
414.03	3690.44
414.24	3706.82
414.45	3776.45
414.66	3715.02
414.87	3938.24
415.08	3850.18
415.30	3868.61
415.51	3899.33
415.72	3901.38
415.93	3950.53
416.14	3985.35
416.35	3893.19
416.56	3913.67
416.78	4001.73
416.99	3999.68
417.20	3995.59
417.41	3989.44
417.62	4022.21
417.83	3966.92
418.04	4052.93
418.26	4169.66
418.47	3985.35
418.68	4114.37
418.89	4005.83
419.10	4270.01
419.31	4173.76
419.52	4251.58
419.73	4132.80
419.95	4298.69
420.16	4057.03
420.37	4136.90
420.58	4233.15
420.79	4212.67
421.00	4429.76
421.21	4442.04
421.42	4120.51
421.63	4366.27
421.85	4302.78
422.06	4364.22
422.27	4435.90
422.48	4429.76
422.69	4515.77
422.90	4546.49
423.11	4509.63
423.32	4480.96
423.53	4575.16
423.75	4616.12
423.96	4734.90
424.17	4534.20
424.38	4618.17
424.59	4671.42
424.80	4954.04
425.01	4698.04
425.22	4685.75
425.43	4677.56
425.64	4888.50
425.85	5011.38
426.06	4904.89
426.28	4886.45
426.49	4794.29
426.70	4798.39
426.91	4853.69
427.12	4804.53
427.33	4974.52
427.54	4949.94
427.75	4980.66
427.96	5134.26
428.17	5013.43
428.38	5148.59
428.59	5228.46
428.80	5150.64
429.01	5193.65
429.23	5197.74
429.44	5365.68
429.65	5220.27
429.86	5179.31
430.07	5214.13
430.28	5185.46
430.49	5371.82
430.70	5435.31
430.91	5402.54
431.12	5664.68
431.33	5607.34
431.54	5441.45
431.75	5525.42
431.96	5486.51
432.17	5406.64
432.38	5517.23
432.59	5830.57
432.80	5543.85
433.01	5748.65
433.22	5844.90
433.43	5719.98
433.64	5685.16
433.85	5666.73
434.06	5699.50
434.27	5775.27
434.49	5957.54
434.70	5978.02
434.91	5900.20
435.12	5859.24
435.33	5945.25
435.54	5879.72
435.75	5828.52
435.96	6039.46
436.17	5926.82
436.38	6104.99
436.59	6188.96
436.80	6121.38
437.01	6444.96
437.22	6176.67
437.43	6176.67
437.64	6090.66
437.85	6434.72
438.06	6307.74
438.27	6195.11
438.48	6293.41
438.69	6438.81
438.90	6422.43
439.11	6342.56
439.32	6465.44
439.53	6524.83
439.74	6608.80
439.95	6635.42
440.16	6571.93
440.37	6545.31
440.57	6399.90
440.78	6436.77
440.99	6659.99
441.20	6485.92
441.41	6483.87
441.62	6727.58
441.83	6606.75
442.04	6670.23
442.25	6727.58
442.46	6721.43
442.67	6952.85
442.88	7122.84
443.09	6705.05
443.30	6676.38
443.51	6911.89
443.72	7171.99
443.93	6852.50
444.14	7180.18
444.35	6770.58
444.56	7022.48
444.77	7149.46
444.98	7200.66
445.19	7165.84
445.40	7128.98
445.61	7061.40
445.81	7319.44
446.02	7229.33
446.23	7268.24
446.44	7090.07
446.65	7346.06
446.86	7298.96
447.07	7407.50
447.28	7362.45
447.49	7464.85
447.70	7337.87
447.91	7563.15
448.12	7450.51
448.33	7778.19
448.54	7557.00
448.74	7452.56
448.95	7747.47
449.16	7462.80
449.37	7874.44
449.58	7552.91
449.79	7876.49
450.00	7585.68
450.21	7868.30
450.42	7999.37
450.63	7907.21
450.84	7905.16
451.05	7919.50
451.25	7888.78
451.46	7872.39
451.67	8005.51
451.88	8091.52
452.09	8189.83
452.30	7974.79
452.51	8095.62
452.72	8255.36
452.93	8380.29
453.13	8025.99
453.34	8130.44
453.55	8191.88
453.76	8261.51
453.97	8857.46
454.18	8425.34
454.39	8591.23
454.60	8472.45
454.81	8652.67
455.01	8652.67
455.22	8456.06
455.43	8617.85
455.64	8783.74
455.85	8902.52
456.06	9056.12
456.27	8898.42
456.48	8912.76
456.68	8959.86
456.89	9015.16
457.10	9170.80
457.31	9101.17
457.52	9002.87
457.73	9131.89
457.94	9494.38
458.14	9213.81
458.35	9467.76
458.56	9332.59
458.77	9400.18
458.98	9439.09
459.19	9291.63
459.39	9559.92
459.60	9834.35
459.81	9607.02
460.02	9797.48
460.23	9695.08
460.44	9963.37
460.65	9989.99
460.85	9879.40
461.06	10016.62
461.27	9774.95
461.48	10231.65
461.69	10323.81
461.89	9973.61
462.10	10147.69
462.31	10088.29
462.52	10284.90
462.73	10465.12
462.94	10375.01
463.14	10448.74
463.35	10463.07
463.56	10860.38
463.77	10684.25
463.98	10440.54
464.18	10639.20
464.39	10737.50
464.60	11091.80
464.81	10985.30
465.02	10882.91
465.23	11267.92
465.43	11038.55
465.64	11618.13
465.85	11284.31
466.06	11181.91
466.27	11716.43
466.47	11634.51
466.68	11370.32
466.89	11790.16
467.10	11769.68
467.30	11585.36
467.51	11652.94
467.72	12052.30
467.93	11857.74
468.14	12095.30
468.34	12146.50
468.55	12158.79
468.76	12037.96
468.97	12130.12
469.17	12402.50
469.38	12482.37
469.59	12449.60
469.80	12248.90
470.01	12613.44
470.21	12564.29
470.42	12963.64
470.63	13102.90
470.84	12560.19
471.04	13203.25
471.25	13014.84
471.46	13068.09
471.67	13213.49
471.87	13254.45
472.08	13680.43
472.29	13672.24
472.50	13365.04
472.70	13403.96
472.91	13846.32
473.12	13879.08
473.33	14069.55
473.53	14280.49
473.74	14198.57
473.95	14331.69
474.16	14358.31
474.36	14554.91
474.57	14704.42
474.78	14878.49
474.99	14665.50
475.19	14516.00
475.40	14978.84
475.61	14989.08
475.81	15130.39
476.02	15406.87
476.23	15288.09
476.44	15519.51
476.64	15677.20
476.85	15693.58
477.06	15798.03
477.27	15879.95
477.47	16084.75
477.68	16078.60
477.89	16264.97
478.09	16291.59
478.30	16267.02
478.51	16449.28
478.71	16576.26
478.92	16713.47
479.13	16842.50
479.34	16717.57
479.54	17071.87
479.75	17168.12
479.96	17032.96
480.16	17325.82
480.37	17190.65
480.58	17331.96
480.78	17909.49
480.99	17833.71
481.20	17954.54
481.41	18032.36
481.61	18138.86
481.82	18271.98
482.03	18321.13
482.23	18198.25
482.44	18616.04
482.65	18835.17
482.85	18831.07
483.06	19105.50
483.27	18943.71
483.47	18884.32
483.68	19275.48
483.89	19400.41
484.09	19322.59
484.30	19664.60
484.51	19717.84
484.71	20080.33
484.92	19889.87
485.13	20033.23
485.33	20049.61
485.54	19881.68
485.75	20623.05
485.95	20451.02
486.16	20379.34
486.37	20844.23
486.57	20893.38
486.78	20758.21
486.98	20911.81
487.19	21382.84
487.40	20969.15
487.60	21262.01
487.81	21550.78
488.02	21450.42
488.22	21372.60
488.43	21567.16
488.64	21712.56
488.84	22079.15
489.05	21792.44
489.25	21857.97
489.46	22570.66
489.67	22087.34
489.87	22609.58
490.08	22582.95
490.29	22699.69
490.49	22898.34
490.70	23125.66
490.90	22931.11
491.11	23203.49
491.32	23348.89
491.52	23314.08
491.73	23565.98
491.94	23840.40
492.14	23482.01
492.35	23838.36
492.55	23842.45
492.76	23705.24
492.97	24069.78
493.17	24125.07
493.38	24188.56
493.58	24264.33
493.79	24346.25
494.00	24426.12
494.20	24780.42
494.41	24817.29
494.61	24831.62
494.82	24964.74
495.02	24862.34
495.23	25134.72
495.44	25015.94
495.64	25740.92
495.85	25362.04
496.05	25521.79
496.26	25495.16
496.47	25704.06
496.67	25714.30
496.88	25898.61
497.08	25683.58
497.29	26070.64
497.49	26205.81
497.70	26607.21
497.91	26723.94
498.11	26613.35
498.32	26701.42
498.52	26769.00
498.73	27074.15
498.93	26760.81
499.14	27055.72
499.34	26758.76
499.55	27326.05
499.76	27211.36
499.96	27154.02
500.17	27344.48
500.37	27254.37
500.58	27733.59
500.78	27811.42
500.99	27602.52
501.19	27913.81
501.40	27680.35
501.60	27948.63
501.81	27911.77
502.02	28003.92
502.22	27987.54
502.43	28513.87
502.63	28769.86
502.84	28343.89
503.04	28061.27
503.25	28587.60
503.45	28710.47
503.66	28837.45
503.86	28810.82
504.07	29054.53
504.27	28989.00
504.48	29343.30
504.68	29388.35
504.89	29394.50
505.09	29736.51
505.30	29664.83
505.50	29509.18
505.71	29347.39
505.91	29785.66
506.12	29404.74
506.32	29650.49
506.53	30193.20
506.73	29974.07
506.94	30043.70
507.14	30203.44
507.35	29963.83
507.55	30248.50
507.76	30498.35
507.96	29822.52
508.17	30328.37
508.37	30502.45
508.58	30535.21
508.78	30514.73
508.99	30967.34
509.19	30625.32
509.40	30551.60
509.60	30887.46
509.81	30850.60
510.01	31086.12
510.22	30797.35
510.42	31131.17
510.63	31426.08
510.83	31262.24
511.04	31286.82
511.24	31442.46
511.44	31534.62
511.65	31567.39
511.85	31227.43
512.06	31532.57
512.26	31927.83
512.47	31716.89
512.67	31794.71
512.88	31817.24
513.08	31825.43
513.29	32343.57
513.49	31878.68
513.69	32060.95
513.90	31927.83
514.10	32181.78
514.31	32413.20
514.51	32634.38
514.72	32118.29
514.92	32601.61
515.13	32548.37
515.33	32706.06
515.53	32628.24
515.74	32544.27
515.94	32880.14
516.15	33076.74
516.35	32517.65
516.56	33082.89
516.76	32878.09
516.96	33187.33
517.17	33129.99
517.37	33025.54
517.58	33218.05
517.78	33746.43
517.99	33220.10
518.19	33527.30
518.39	33535.49
518.60	33549.82
518.80	33885.69
519.01	34049.53
519.21	33996.28
519.41	33760.76
519.62	33758.72
519.82	33895.93
520.03	33928.70
520.23	34160.12
520.43	34190.84
520.64	34641.39
520.84	34551.28
521.05	34694.64
521.25	34895.34
521.45	34842.09
521.66	34881.00
521.86	34704.88
522.07	34782.70
522.27	35081.70
522.47	35044.84
522.68	35208.68
522.88	34979.31
523.08	35534.31
523.29	35692.00
523.49	35544.55
523.70	35257.83
523.90	35812.83
524.10	35794.40
524.31	36128.22
524.51	35677.66
524.71	36277.72
524.92	36140.50
525.12	36410.84
525.33	36550.10
525.53	36306.39
525.73	36603.35
525.94	36462.04
526.14	36433.36
526.34	37172.68
526.55	37154.25
526.75	37191.11
526.95	37490.12
527.16	37066.19
527.36	37256.65
527.56	37258.70
527.77	37508.55
527.97	37285.32
528.17	37676.48
528.38	38301.11
528.58	37524.93
528.78	37981.63
528.99	37631.43
529.19	38329.78
529.39	37836.22
529.60	38460.85
529.80	38108.60
530.00	38167.99
530.21	38651.31
530.41	39425.45
530.61	38206.90
530.82	38796.72
531.02	39108.01
531.22	39079.34
531.43	39128.49
531.63	39648.68
531.83	39202.22
532.04	39755.17
532.24	39327.14
532.44	40013.21
532.64	39554.47
532.85	39896.48
533.05	39876.00
533.25	40015.26
533.46	39806.37
533.66	40684.95
533.86	40211.87
534.07	40426.90
534.27	40691.09
534.47	40719.76
534.67	40258.97
534.88	40725.91
535.08	40643.99
535.28	41426.31
535.49	41170.32
535.69	41219.47
535.89	41024.91
536.09	41360.78
536.30	41479.56
536.50	41530.76
536.70	41926.02
536.91	41557.38
537.11	42036.61
537.31	42528.12
537.51	42018.17
537.72	42208.64
537.92	42628.47
538.12	42569.08
538.32	42349.95
538.53	42831.22
538.73	42315.13
538.93	42732.92
539.13	42728.82
539.34	42786.16
539.54	42622.33
539.74	42921.33
539.94	42968.43
540.15	42487.16
540.35	43316.59
540.55	43154.80
540.75	43277.68
540.96	43519.34
541.16	43445.61
541.36	43558.25
541.56	43521.38
541.77	44082.53
541.97	43851.11
542.17	44205.41
542.37	44135.77
542.58	44078.43
542.78	43996.51
542.98	44293.47
543.18	44393.82
543.38	44526.94
543.59	44850.52
543.79	44547.42
543.99	44592.47
544.19	44758.36
544.40	44506.46
544.60	44997.97
544.80	44909.91
545.00	44950.87
545.20	45122.90
545.41	45061.46
545.61	44983.63
545.81	45354.32
546.01	45712.71
546.21	45458.76
546.42	44995.92
546.62	45434.19
546.82	45528.39
547.02	45436.23
547.22	45866.31
547.43	45698.37
547.63	45667.66
547.83	46077.25
548.03	45667.66
548.23	46150.98
548.44	46003.52
548.64	46318.91
548.84	46382.40
549.04	46296.38
549.24	46249.28
549.45	46593.34
549.65	46150.98
549.85	46433.60
550.05	46734.65
550.25	46892.34
550.45	47297.84
550.66	46740.79
550.86	46458.17
551.06	46974.26
551.26	47050.03
551.46	47099.19
551.66	47113.52
551.87	47267.12
552.07	47166.77
552.27	47308.08
552.47	47086.90
552.67	46818.61
552.87	47541.55
553.07	47324.46
553.28	47490.35
553.48	47801.64
553.68	47437.10
553.88	47861.03
554.08	47789.35
554.28	47396.14
554.48	47697.19
554.69	47445.29
554.89	47652.14
555.09	47670.57
555.29	47373.61
555.49	48186.66
555.69	47787.30
555.89	47887.65
556.10	48235.81
556.30	47633.71
556.50	48117.03
556.70	47994.15
556.90	48465.18
557.10	47838.50
557.30	47760.68
557.50	48688.41
557.70	48155.94
557.91	48551.20
558.11	48069.92
558.31	48682.27
558.51	48471.32
558.71	48614.68
558.91	48925.97
559.11	48397.60
559.31	48366.88
559.51	48538.91
559.72	48573.72
559.92	48866.58
560.12	48729.37
560.32	48966.93
560.52	48839.96
560.72	48956.69
560.92	48985.36
561.12	48971.03
561.32	49337.62
561.52	48770.33
561.72	49265.94
561.93	48794.90
562.13	49106.19
562.33	48923.93
562.53	49747.21
562.73	49153.30
562.93	49116.43
563.13	49272.08
563.33	48866.58
563.53	48962.84
563.73	48987.41
563.93	49607.95
564.13	49521.93
564.33	49489.16
564.53	49513.74
564.74	49607.95
564.94	49257.74
565.14	49812.74
565.34	49362.19
565.54	49765.64
565.74	49657.10
565.94	49964.29
566.14	49806.60
566.34	49728.78
566.54	50105.60
566.74	49446.16
566.94	50066.69
567.14	50107.65
567.34	49849.61
567.54	49681.67
567.74	49767.69
567.94	50197.76
568.14	50359.55
568.34	49876.23
568.54	50062.60
568.74	50474.24
568.94	50289.92
569.14	50695.42
569.34	49874.18
569.54	50500.86
569.75	49884.42
569.95	50070.79
570.15	50859.26
570.35	50496.77
570.55	50502.91
570.75	50654.46
570.95	50543.87
571.15	50568.44
571.35	50871.54
571.55	50902.26
571.75	50218.24
571.95	50728.19
572.15	50576.64
572.35	51105.01
572.55	50742.52
572.75	51201.27
572.95	50980.09
573.15	50621.69
573.35	50945.27
573.55	50924.79
573.75	51006.71
573.95	51201.27
574.15	50787.58
574.35	51215.60
574.55	51348.72
574.75	50973.94
574.95	51418.35
575.15	51170.55
575.34	51395.82
575.54	51574.00
575.74	51920.10
575.94	51530.99
576.14	51199.22
576.34	51758.31
576.54	51936.49
576.74	51965.16
576.94	51936.49
577.14	52055.27
577.34	52534.49
577.54	51893.48
577.74	52278.50
577.94	52206.82
578.14	52143.33
578.34	52151.52
578.54	51844.33
578.74	51870.95
578.94	52688.09
579.14	52204.77
579.34	52255.97
579.54	52178.15
579.74	52802.78
579.94	52094.18
580.13	52532.45
580.33	52567.26
580.53	52538.59
580.73	52823.26
580.93	52853.98
581.13	52786.39
581.33	52475.10
581.53	52780.25
581.73	52464.86
581.93	53173.46
582.13	53032.15
582.33	53009.62
582.53	52858.07
582.73	53132.50
582.92	53378.26
583.12	53462.22
583.32	53322.96
583.52	53081.30
583.72	53224.66
583.92	53216.47
584.12	53312.72
584.32	53540.05
584.52	53566.67
584.72	53314.77
584.92	53679.31
585.11	54219.97
585.31	53853.39
585.51	53822.67
585.71	53906.63
585.91	54058.18
586.11	53554.38
586.31	54031.56
586.51	54467.78
586.71	53982.41
586.91	54146.25
587.10	54273.22
587.30	54154.44
587.50	54127.81
587.70	54328.52
587.90	54697.15
588.10	54541.50
588.30	54291.65
