SpectraSuite Data File
++++++++++++++++++++++++++++++++++++
Date: Tue Jun 13 11:53:15 CEST 2017
User: INFO_000
Dark Spectrum Present: No
Reference Spectrum Present: No
Number of Sampled Component Spectra: 1
Spectrometers: USB4H00879
Integration Time (usec): 30000 (USB4H00879)
Spectra Averaged: 1 (USB4H00879)
Boxcar Smoothing: 0 (USB4H00879)
Correct for Electrical Dark: No (USB4H00879)
Strobe/Lamp Enabled: No (USB4H00879)
Correct for Detector Non-linearity: No (USB4H00879)
Correct for Stray Light: No (USB4H00879)
Number of Pixels in Processed Spectrum: 3648
>>>>>Begin Processed Spectral Data<<<<<
345.13	1382.38
345.34	1382.38
345.56	1382.38
345.78	1300.46
345.99	1329.13
346.21	1507.30
346.42	1521.64
346.64	1517.54
346.86	1591.27
347.07	1535.98
347.29	1521.64
347.50	1441.77
347.72	1486.83
347.94	1595.37
348.15	1468.39
348.37	1472.49
348.59	1529.83
348.80	1480.68
349.02	1621.99
349.23	1638.38
349.45	1691.62
349.67	1581.03
349.88	1556.46
350.10	1640.42
350.31	1591.27
350.53	1599.46
350.75	1642.47
350.96	1572.84
351.18	1619.94
351.39	1634.28
351.61	1599.46
351.82	1634.28
352.04	1615.85
352.26	1597.42
352.47	1619.94
352.69	1658.85
352.90	1576.94
353.12	1601.51
353.34	1621.99
353.55	1646.57
353.77	1634.28
353.98	1605.61
354.20	1648.61
354.41	1626.09
354.63	1607.66
354.85	1718.25
355.06	1675.24
355.28	1585.13
355.49	1591.27
355.71	1638.38
355.92	1568.74
356.14	1660.90
356.35	1640.42
356.57	1621.99
356.79	1630.18
357.00	1656.81
357.22	1650.66
357.43	1570.79
357.65	1755.11
357.86	1640.42
358.08	1671.14
358.29	1646.57
358.51	1658.85
358.72	1654.76
358.94	1642.47
359.16	1708.01
359.37	1699.81
359.59	1699.81
359.80	1703.91
360.02	1673.19
360.23	1662.95
360.45	1673.19
360.66	1685.48
360.88	1626.09
361.09	1660.90
361.31	1695.72
361.52	1679.33
361.74	1673.19
361.95	1808.36
362.17	1681.38
362.38	1781.73
362.60	1636.33
362.81	1759.21
363.03	1693.67
363.24	1695.72
363.46	1804.26
363.67	1654.76
363.89	1679.33
364.10	1716.20
364.32	1675.24
364.53	1757.16
364.75	1665.00
364.96	1712.10
365.18	1685.48
365.39	1687.53
365.61	1732.58
365.82	1738.73
366.04	1720.29
366.25	1667.05
366.47	1859.56
366.68	1820.64
366.90	1650.66
367.11	1763.30
367.33	1738.73
367.54	1832.93
367.76	1644.52
367.97	1712.10
368.19	1716.20
368.40	1759.21
368.62	1726.44
368.83	1730.53
369.05	1808.36
369.26	1791.97
369.48	1699.81
369.69	1775.59
369.91	1732.58
370.12	1834.98
370.33	1859.56
370.55	1708.01
370.76	1699.81
370.98	1810.40
371.19	1822.69
371.41	1761.25
371.62	1861.60
371.84	1810.40
372.05	1779.68
372.27	1769.44
372.48	1773.54
372.69	1730.53
372.91	1855.46
373.12	1857.51
373.34	1818.60
373.55	1857.51
373.77	1855.46
373.98	1828.84
374.20	1802.21
374.41	1910.75
374.62	1855.46
374.84	1869.80
375.05	1863.65
375.27	1863.65
375.48	1902.56
375.70	1869.80
375.91	1861.60
376.12	1968.10
376.34	1953.76
376.55	1882.08
376.77	1900.52
376.98	1955.81
377.19	1845.22
377.41	1896.42
377.62	1916.90
377.84	1947.62
378.05	1992.67
378.27	1923.04
378.48	1951.71
378.69	1943.52
378.91	2058.21
379.12	1953.76
379.34	1978.34
379.55	2002.91
379.76	1957.86
379.98	1935.33
380.19	1970.15
380.41	2009.06
380.62	2047.97
380.83	1978.34
381.05	1877.99
381.26	2162.66
381.47	1935.33
381.69	1988.58
381.90	2066.40
382.12	2060.26
382.33	2072.54
382.54	2058.21
382.76	2054.11
382.97	1947.62
383.19	2013.15
383.40	2066.40
383.61	2086.88
383.83	2070.50
384.04	1970.15
384.25	2156.51
384.47	2054.11
384.68	2064.35
384.89	1935.33
385.11	2021.35
385.32	2052.06
385.54	2078.69
385.75	2109.41
385.96	2146.27
386.18	2007.01
386.39	2074.59
386.60	2064.35
386.82	2101.22
387.03	2158.56
387.24	2127.84
387.46	2240.48
387.67	2269.15
387.88	2303.96
388.10	2154.46
388.31	2150.37
388.52	2263.01
388.74	2197.47
388.95	2230.24
389.16	2238.43
389.38	2181.09
389.59	2263.01
389.80	2207.71
390.02	2269.15
390.23	2283.49
390.44	2246.62
390.66	2201.57
390.87	2195.42
391.08	2320.35
391.30	2385.88
391.51	2367.45
391.72	2389.98
391.94	2271.20
392.15	2303.96
392.36	2301.92
392.58	2279.39
392.79	2295.77
393.00	2330.59
393.22	2432.99
393.43	2338.78
393.64	2482.14
393.85	2336.73
394.07	2392.03
394.28	2404.32
394.49	2377.69
394.71	2475.99
394.92	2549.72
395.13	2424.80
395.35	2420.70
395.56	2414.56
395.77	2451.42
395.98	2533.34
396.20	2514.91
396.41	2488.28
396.62	2439.13
396.84	2498.52
397.05	2574.30
397.26	2625.50
397.47	2664.41
397.69	2543.58
397.90	2650.07
398.11	2547.67
398.32	2592.73
398.54	2523.10
398.75	2590.68
398.96	2559.96
399.18	2602.97
399.39	2678.74
399.60	2680.79
399.81	2580.44
400.03	2654.17
400.24	2801.62
400.45	2674.65
400.66	2787.29
400.88	2775.00
401.09	2768.85
401.30	2748.37
401.51	2742.23
401.73	2809.81
401.94	2789.33
402.15	2752.47
402.36	2752.47
402.58	2785.24
402.79	2691.03
403.00	2822.10
403.21	2838.48
403.43	2826.20
403.64	2883.54
403.85	2836.44
404.06	2873.30
404.27	2842.58
404.49	2858.96
404.70	2820.05
404.91	2930.64
405.12	2764.76
405.34	2869.20
405.55	2979.79
405.76	2797.53
405.97	2910.16
406.19	2932.69
406.40	2908.12
406.61	2961.36
406.82	3035.09
407.03	2985.94
407.25	2877.40
407.46	2985.94
407.67	2918.36
407.88	3094.48
408.09	2990.03
408.31	2985.94
408.52	3028.95
408.73	3100.62
408.94	3053.52
409.15	3035.09
409.37	3096.53
409.58	3147.73
409.79	3200.98
410.00	3162.06
410.21	3065.81
410.43	3155.92
410.64	3114.96
410.85	3190.74
411.06	3180.50
411.27	3160.02
411.48	3143.63
411.70	3076.05
411.91	3237.84
412.12	3188.69
412.33	3180.50
412.54	3358.67
412.76	3235.79
412.97	3215.31
413.18	3104.72
413.39	3157.97
413.60	3237.84
413.81	3377.10
414.03	3219.41
414.24	3258.32
414.45	3297.23
414.66	3268.56
414.87	3360.72
415.08	3385.29
415.30	3364.81
415.51	3305.42
415.72	3389.39
415.93	3389.39
416.14	3452.88
416.35	3416.01
416.56	3399.63
416.78	3493.83
416.99	3395.53
417.20	3391.44
417.41	3573.71
417.62	3499.98
417.83	3536.84
418.04	3502.03
418.26	3463.12
418.47	3502.03
418.68	3610.57
418.89	3532.75
419.10	3526.60
419.31	3641.29
419.52	3672.01
419.73	3530.70
419.95	3692.49
420.16	3518.41
420.37	3635.14
420.58	3690.44
420.79	3639.24
421.00	3663.82
421.21	3690.44
421.42	3727.30
421.63	3661.77
421.85	3829.70
422.06	3758.02
422.27	3715.02
422.48	3872.71
422.69	3866.56
422.90	3880.90
423.11	3885.00
423.32	3811.27
423.53	3921.86
423.75	3907.52
423.96	4042.69
424.17	3987.40
424.38	3971.01
424.59	4057.03
424.80	4108.23
425.01	4052.93
425.22	4120.51
425.43	3938.24
425.64	4110.27
425.85	4063.17
426.06	4014.02
426.28	4155.33
426.49	4145.09
426.70	4233.15
426.91	4200.38
427.12	4138.94
427.33	4272.06
427.54	4190.14
427.75	4296.64
427.96	4464.57
428.17	4310.97
428.38	4396.99
428.59	4343.74
428.80	4456.38
429.01	4317.12
429.23	4462.52
429.44	4657.08
429.65	4462.52
429.86	4599.74
430.07	4364.22
430.28	4413.37
430.49	4399.04
430.70	4693.94
430.91	4548.54
431.12	4540.35
431.33	4622.27
431.54	4569.02
431.75	4730.81
431.96	4747.19
432.17	4749.24
432.38	4632.51
432.59	4779.96
432.80	4810.68
433.01	4761.53
433.22	4829.11
433.43	4782.01
433.64	4804.53
433.85	4792.25
434.06	4888.50
434.27	4904.89
434.49	4865.97
434.70	5019.57
434.91	4960.18
435.12	5027.76
435.33	4949.94
435.54	5033.91
435.75	4868.02
435.96	4908.98
436.17	4865.97
436.38	4947.89
436.59	5244.85
436.80	5081.01
437.01	5273.52
437.22	5214.13
437.43	5048.24
437.64	5201.84
437.85	5246.90
438.06	5330.86
438.27	5345.20
438.48	5205.94
438.69	5259.18
438.90	5459.88
439.11	5224.37
439.32	5418.93
439.53	5390.25
439.74	5384.11
439.95	5418.93
440.16	5416.88
440.37	5545.90
440.57	5355.44
440.78	5627.82
440.99	5455.79
441.20	5494.70
441.41	5474.22
441.62	5615.53
441.83	5525.42
442.04	5576.62
442.25	5593.00
442.46	5572.52
442.67	5734.31
442.88	5953.45
443.09	5513.13
443.30	5814.18
443.51	5722.02
443.72	5982.12
443.93	5799.85
444.14	5994.40
444.35	5584.81
444.56	5818.28
444.77	5832.62
444.98	5883.81
445.19	5910.44
445.40	5916.58
445.61	5814.18
445.81	5980.07
446.02	5900.20
446.23	5967.78
446.44	5840.81
446.65	5928.87
446.86	6043.56
447.07	6125.47
447.28	6231.97
447.49	6174.63
447.70	6180.77
447.91	6014.88
448.12	6127.52
448.33	6207.39
448.54	6174.63
448.74	6129.57
448.95	6178.72
449.16	6191.01
449.37	6313.89
449.58	6270.88
449.79	6424.48
450.00	6225.82
450.21	6492.06
450.42	6557.60
450.63	6485.92
450.84	6553.50
451.05	6352.80
451.25	6420.38
451.46	6492.06
451.67	6612.89
451.88	6508.44
452.09	6559.64
452.30	6731.67
452.51	6586.27
452.72	6614.94
452.93	6866.84
453.13	6676.38
453.34	6563.74
453.55	6754.20
453.76	6825.88
453.97	7235.47
454.18	6963.09
454.39	6954.90
454.60	7051.16
454.81	7022.48
455.01	7128.98
455.22	6774.68
455.43	7120.79
455.64	7188.37
455.85	7278.48
456.06	7434.13
456.27	7157.65
456.48	7149.46
456.68	7262.10
456.89	7223.19
457.10	7335.82
457.31	7550.86
457.52	7321.49
457.73	7298.96
457.94	7659.40
458.14	7380.88
458.35	7849.86
458.56	7575.44
458.77	7544.72
458.98	7739.27
459.19	7716.75
459.39	7851.91
459.60	7944.07
459.81	7792.52
460.02	7917.45
460.23	7774.09
460.44	8122.24
460.65	8212.35
460.85	8060.80
461.06	8161.16
461.27	7888.78
461.48	8191.88
461.69	8339.33
461.89	8046.47
462.10	8243.07
462.31	8152.96
462.52	8155.01
462.73	8238.98
462.94	8269.70
463.14	8384.38
463.35	8384.38
463.56	8900.47
463.77	8683.39
463.98	8699.77
464.18	8503.17
464.39	8800.12
464.60	8849.27
464.81	8966.01
465.02	8705.92
465.23	9025.40
465.43	9019.25
465.64	9009.01
465.85	8935.29
466.06	8855.42
466.27	9054.07
466.47	9205.62
466.68	9160.56
466.89	9236.34
467.10	9410.42
467.30	9195.38
467.51	9490.29
467.72	9787.24
467.93	9441.14
468.14	9531.25
468.34	9627.50
468.55	9815.91
468.76	9734.00
468.97	9666.41
469.17	9750.38
469.38	9854.83
469.59	10200.93
469.80	9975.66
470.01	10057.57
470.21	9992.04
470.42	10276.71
470.63	10243.94
470.84	10178.40
471.04	10350.43
471.25	10141.54
471.46	10319.71
471.67	10579.81
471.87	10624.86
472.08	10766.17
472.29	10874.71
472.50	10458.98
472.70	10596.19
472.91	10870.62
473.12	10950.49
473.33	11241.30
473.53	11243.35
473.74	11097.94
473.95	11296.60
474.16	11282.26
474.36	11505.49
474.57	11626.32
474.78	11657.04
474.99	11577.17
475.19	11411.28
475.40	11773.77
475.61	11896.65
475.81	12076.87
476.02	12181.32
476.23	11913.03
476.44	12130.12
476.64	12361.54
476.85	12336.96
477.06	12269.38
477.27	12445.51
477.47	12656.45
477.68	12580.67
477.89	12764.99
478.09	12742.46
478.30	12930.87
478.51	13010.75
478.71	13029.18
478.92	13141.82
479.13	13016.89
479.34	13264.69
479.54	13440.82
479.75	13438.77
479.96	13328.18
480.16	13522.74
480.37	13659.95
480.58	13758.25
480.78	13928.24
480.99	13758.25
481.20	14159.66
481.41	14171.94
481.61	14137.13
481.82	14311.21
482.03	14032.68
482.23	14497.57
482.44	14395.17
482.65	14628.64
482.85	14645.02
483.06	14716.70
483.27	14829.34
483.47	14882.59
483.68	14894.88
483.89	15275.80
484.09	15048.47
484.30	15337.24
484.51	15593.23
484.71	15413.01
484.92	15410.96
485.13	15437.59
485.33	15515.41
485.54	15642.39
485.75	15621.91
485.95	15849.23
486.16	15949.58
486.37	16197.38
486.57	16072.46
486.78	16080.65
486.98	16144.14
487.19	16320.26
487.40	16486.15
487.60	16240.39
487.81	16729.86
488.02	16774.91
488.22	16758.53
488.43	16895.74
488.64	16918.27
488.84	16670.47
489.05	17180.41
489.25	17221.37
489.46	17231.61
489.67	17307.38
489.87	17379.06
490.08	17495.80
490.29	17530.61
490.49	17753.84
490.70	17649.39
490.90	17792.75
491.11	17858.29
491.32	17948.40
491.52	18093.80
491.73	18073.32
491.94	18335.46
492.14	17882.86
492.35	18308.84
492.55	18339.56
492.76	18333.42
492.97	18489.06
493.17	18771.68
493.38	18378.47
493.58	18683.62
493.79	18978.53
494.00	18937.57
494.20	19039.97
494.41	18863.84
494.61	19003.10
494.82	19140.32
495.02	19119.84
495.23	19146.46
495.44	19269.34
495.64	19332.82
495.85	19347.16
496.05	19484.37
496.26	19431.13
496.47	19617.49
496.67	19300.06
496.88	20098.77
497.08	19941.07
497.29	19891.92
497.49	19871.44
497.70	20321.99
497.91	20170.44
498.11	20444.87
498.32	20285.13
498.52	20598.47
498.73	20649.67
498.93	20530.89
499.14	20614.85
499.34	20348.62
499.55	21089.98
499.76	20657.86
499.96	20850.37
500.17	20684.48
500.37	21022.40
500.58	21159.61
500.78	21096.13
500.99	21382.84
501.19	21307.07
501.40	21104.32
501.60	21049.02
501.81	21354.17
502.02	21368.51
502.22	21110.46
502.43	21475.00
502.63	21483.19
502.84	21755.57
503.04	21743.28
503.25	21790.39
503.45	21698.23
503.66	21882.55
503.86	21892.79
504.07	22384.30
504.27	21878.45
504.48	22283.95
504.68	22410.92
504.89	22107.82
505.09	22392.49
505.30	22230.70
505.50	22036.14
505.71	22556.33
505.91	22744.74
506.12	22423.21
506.32	22286.00
506.53	22818.47
506.73	22906.53
506.94	22931.11
507.14	22410.92
507.35	22595.24
507.55	22802.08
507.76	22853.28
507.96	22834.85
508.17	22853.28
508.37	22927.01
508.58	22970.02
508.78	23103.14
508.99	23111.33
509.19	23295.64
509.40	23324.32
509.60	23295.64
509.81	23488.15
510.01	23053.98
510.22	23185.05
510.42	23482.01
510.63	23674.52
510.83	23496.35
511.04	23408.28
511.24	23531.16
511.44	23291.55
511.65	23815.83
511.85	23731.86
512.06	23641.75
512.26	23834.26
512.47	23682.71
512.67	23885.46
512.88	24039.06
513.08	23848.60
513.29	24100.50
513.49	24004.24
513.69	23858.84
513.90	24223.37
514.10	23953.04
514.31	24223.37
514.51	24204.94
514.72	24172.18
514.92	24229.52
515.13	24358.54
515.33	24422.03
515.53	24327.82
515.74	24501.90
515.94	24569.48
516.15	24501.90
516.35	24313.48
516.56	24727.17
516.76	24614.54
516.96	24637.06
517.17	24778.37
517.37	24837.76
517.58	24651.40
517.78	24864.39
517.99	25036.42
518.19	25149.06
518.39	24950.40
518.60	25222.78
518.80	25149.06
519.01	25241.21
519.21	25290.37
519.41	25151.10
519.62	25255.55
519.82	25380.48
520.03	25294.46
520.23	25337.47
520.43	25378.43
520.64	25605.75
520.84	25820.79
521.05	25597.56
521.25	25339.52
521.45	25624.18
521.66	25792.12
521.86	25532.03
522.07	25826.93
522.27	25945.72
522.47	25904.76
522.68	26148.46
522.88	26107.51
523.08	26226.29
523.29	26027.63
523.49	26220.14
523.70	26619.50
523.90	26400.37
524.10	26426.99
524.31	26445.42
524.51	26084.98
524.71	27008.61
524.92	26734.18
525.12	26467.95
525.33	26852.97
525.53	26930.79
525.73	26828.39
525.94	26852.97
526.14	26908.26
526.34	26912.36
526.55	27176.55
526.75	27057.76
526.95	27252.32
527.16	27145.83
527.36	27377.25
527.56	27424.35
527.77	27706.97
527.97	27715.16
528.17	27342.43
528.38	27512.41
528.58	27432.54
528.78	27960.92
528.99	27498.08
529.19	27932.25
529.39	27788.89
529.60	27956.82
529.80	27776.60
530.00	27854.42
530.21	28108.37
530.41	28292.69
530.61	28255.82
530.82	28186.19
531.02	28182.10
531.22	28665.42
531.43	28589.64
531.63	28626.51
531.83	28434.00
532.04	28800.58
532.24	28837.45
532.44	28745.29
532.64	28929.61
532.85	28931.65
533.05	29050.44
533.25	29398.59
533.46	29492.80
533.66	29326.91
533.86	29101.64
534.07	29648.44
534.27	29288.00
534.47	29791.80
534.67	29236.80
534.88	29283.91
535.08	29523.52
535.28	29871.67
535.49	29969.97
535.69	29756.99
535.89	30058.04
536.09	29752.89
536.30	30090.80
536.50	30182.96
536.70	30228.02
536.91	30012.98
537.11	30225.97
537.31	30668.33
537.51	30115.38
537.72	30398.00
537.92	30572.08
538.12	30740.01
538.32	30336.56
538.53	30883.37
538.73	30580.27
538.93	30529.07
539.13	30793.26
539.34	30684.72
539.54	30746.15
539.74	31192.61
539.94	30907.94
540.15	30887.46
540.35	31073.83
540.55	31221.28
540.75	30991.91
540.96	31430.18
541.16	31471.14
541.36	31286.82
541.56	31286.82
541.77	31718.94
541.97	31618.59
542.17	31815.19
542.37	31505.95
542.58	31583.77
542.78	31643.17
542.98	31677.98
543.18	31651.36
543.38	31798.81
543.59	32095.77
543.79	31845.91
543.99	31989.27
544.19	31897.11
544.40	32130.58
544.60	32118.29
544.80	31823.39
545.00	32151.06
545.20	31981.08
545.41	32308.76
545.61	32212.50
545.81	32323.09
546.01	32278.04
546.21	32126.49
546.42	32235.03
546.62	32605.71
546.82	32564.75
547.02	32642.57
547.22	32785.93
547.43	32413.20
547.63	32753.16
547.83	32927.24
548.03	32284.18
548.23	32548.37
548.44	32949.77
548.64	32853.51
548.84	32765.45
549.04	32372.24
549.24	32730.64
549.45	33046.02
549.65	32454.16
549.85	32919.05
550.05	32931.34
550.25	33125.89
550.45	33488.38
550.66	32863.75
550.86	33234.44
551.06	33230.34
551.26	32894.47
551.46	33338.88
551.66	33408.51
551.87	33113.61
552.07	33127.94
552.27	33342.98
552.47	33211.91
552.67	33189.38
552.87	33404.42
553.07	33275.40
553.28	33426.95
553.48	33455.62
553.68	33668.61
553.88	33400.32
554.08	33332.74
554.28	33596.93
554.48	33011.21
554.69	33412.61
554.89	33687.04
555.09	33336.84
555.29	33523.20
555.49	33451.52
555.69	33613.31
555.89	33678.85
556.10	33805.82
556.30	33691.13
556.50	33594.88
556.70	33721.85
556.90	33787.39
557.10	33998.33
557.30	33811.96
557.50	33746.43
557.70	34119.16
557.91	33728.00
558.11	33889.79
558.31	33914.36
558.51	34022.90
558.71	33768.96
558.91	34139.64
559.11	34070.01
559.31	33596.93
559.51	33936.89
559.72	33504.77
559.92	34067.96
560.12	33736.19
560.32	34047.48
560.52	34016.76
560.72	34178.55
560.92	34260.47
561.12	34190.84
561.32	33863.16
561.52	33748.48
561.72	34457.07
561.93	34067.96
562.13	34270.71
562.33	33732.09
562.53	34461.17
562.73	33930.75
562.93	33986.04
563.13	34080.25
563.33	33857.02
563.53	33949.18
563.73	33922.55
563.93	34086.39
564.13	34510.32
564.33	33969.66
564.53	34301.43
564.74	34457.07
564.94	34397.68
565.14	34362.87
565.34	34239.99
565.54	34356.72
565.74	34342.39
565.94	34452.98
566.14	34516.47
566.34	34334.20
566.54	34729.45
566.74	34035.19
566.94	34158.07
567.14	34674.16
567.34	34397.68
567.54	34606.58
567.74	34438.64
567.94	34334.20
568.14	34612.72
568.34	34731.50
568.54	34362.87
568.74	34747.89
568.94	34422.26
569.14	34799.08
569.34	34563.57
569.54	34717.17
569.75	34401.78
569.95	34495.99
570.15	34915.82
570.35	34948.59
570.55	34448.88
570.75	34313.72
570.95	34686.45
571.15	34672.11
571.35	34711.02
571.55	34751.98
571.75	34751.98
571.95	34778.61
572.15	34608.62
572.35	34979.31
572.55	34622.96
572.75	34809.32
572.95	34891.24
573.15	34647.54
573.35	34842.09
573.55	34780.65
573.75	34782.70
573.95	34881.00
574.15	34358.77
574.35	35022.31
574.55	34930.16
574.75	34878.96
574.95	34917.87
575.15	34633.20
575.34	34467.31
575.54	35030.51
575.74	35290.60
575.94	34893.29
576.14	34983.40
576.34	35085.80
576.54	35122.66
576.74	35306.98
576.94	35145.19
577.14	35016.17
577.34	35481.06
577.54	35034.60
577.74	35190.25
577.94	35126.76
578.14	34952.68
578.34	35524.07
578.54	34823.66
578.74	35188.20
578.94	35333.60
579.14	34907.63
579.34	35298.79
579.54	35239.40
579.74	35501.54
579.94	35411.43
580.13	35366.37
580.33	35384.80
580.53	35605.98
580.73	35409.38
580.93	35255.78
581.13	35235.30
581.33	35464.67
581.53	35921.37
581.73	35552.74
581.93	35700.19
582.13	35571.17
582.33	35962.33
582.53	35700.19
582.73	35644.90
582.92	35950.04
583.12	35503.59
583.32	35814.88
583.52	35319.27
583.72	35874.27
583.92	35796.45
584.12	35954.14
584.32	36287.96
584.52	36083.16
584.72	36189.66
584.92	36189.66
585.11	36179.42
585.31	35792.35
585.51	35935.71
585.71	35892.70
585.91	36257.24
586.11	35886.56
586.31	35802.59
586.51	36306.39
586.71	36044.25
586.91	35943.90
587.10	35866.08
587.30	36148.70
587.50	36537.81
587.70	36351.45
587.90	36322.77
588.10	36181.46
588.30	36017.63
588.50	36279.77
588.69	36242.90
