SpectraSuite Data File
++++++++++++++++++++++++++++++++++++
Date: Tue Jun 13 11:52:07 CEST 2017
User: INFO_000
Dark Spectrum Present: No
Reference Spectrum Present: No
Number of Sampled Component Spectra: 1
Spectrometers: USB4H00879
Integration Time (usec): 30000 (USB4H00879)
Spectra Averaged: 1 (USB4H00879)
Boxcar Smoothing: 0 (USB4H00879)
Correct for Electrical Dark: No (USB4H00879)
Strobe/Lamp Enabled: No (USB4H00879)
Correct for Detector Non-linearity: No (USB4H00879)
Correct for Stray Light: No (USB4H00879)
Number of Pixels in Processed Spectrum: 3648
>>>>>Begin Processed Spectral Data<<<<<
345.13	1341.42
345.34	1341.42
345.56	1341.42
345.78	1312.75
345.99	1316.84
346.21	1515.50
346.42	1511.40
346.64	1531.88
346.86	1507.30
347.07	1497.07
347.29	1519.59
347.50	1476.59
347.72	1492.97
347.94	1566.70
348.15	1492.97
348.37	1535.98
348.59	1521.64
348.80	1458.15
349.02	1632.23
349.23	1685.48
349.45	1601.51
349.67	1685.48
349.88	1576.94
350.10	1638.38
350.31	1636.33
350.53	1601.51
350.75	1683.43
350.96	1589.22
351.18	1626.09
351.39	1599.46
351.61	1566.70
351.82	1644.52
352.04	1640.42
352.26	1562.60
352.47	1673.19
352.69	1630.18
352.90	1630.18
353.12	1599.46
353.34	1568.74
353.55	1656.81
353.77	1644.52
353.98	1630.18
354.20	1613.80
354.41	1671.14
354.63	1699.81
354.85	1767.40
355.06	1662.95
355.28	1730.53
355.49	1642.47
355.71	1624.04
355.92	1595.37
356.14	1722.34
356.35	1697.77
356.57	1660.90
356.79	1679.33
357.00	1648.61
357.22	1705.96
357.43	1718.25
357.65	1738.73
357.86	1630.18
358.08	1681.38
358.29	1732.58
358.51	1695.72
358.72	1726.44
358.94	1691.62
359.16	1636.33
359.37	1748.97
359.59	1748.97
359.80	1800.16
360.02	1714.15
360.23	1777.64
360.45	1767.40
360.66	1753.06
360.88	1662.95
361.09	1710.05
361.31	1783.78
361.52	1738.73
361.74	1761.25
361.95	1816.55
362.17	1757.16
362.38	1830.88
362.60	1826.79
362.81	1722.34
363.03	1644.52
363.24	1734.63
363.46	1689.57
363.67	1777.64
363.89	1808.36
364.10	1728.49
364.32	1746.92
364.53	1812.45
364.75	1677.29
364.96	1716.20
365.18	1839.08
365.39	1818.60
365.61	1789.92
365.82	1804.26
366.04	1759.21
366.25	1773.54
366.47	1843.17
366.68	1820.64
366.90	1800.16
367.11	1804.26
367.33	1818.60
367.54	1744.87
367.76	1726.44
367.97	1851.36
368.19	1796.07
368.40	1775.59
368.62	1767.40
368.83	1783.78
369.05	1787.88
369.26	1783.78
369.48	1796.07
369.69	1839.08
369.91	1824.74
370.12	1783.78
370.33	1843.17
370.55	1804.26
370.76	1824.74
370.98	1904.61
371.19	1818.60
371.41	1806.31
371.62	1869.80
371.84	1834.98
372.05	1894.37
372.27	1820.64
372.48	1832.93
372.69	1849.32
372.91	1957.86
373.12	1927.14
373.34	1900.52
373.55	1857.51
373.77	1918.95
373.98	1857.51
374.20	1968.10
374.41	2039.78
374.62	1980.39
374.84	1941.47
375.05	1935.33
375.27	1974.24
375.48	1970.15
375.70	1984.48
375.91	1978.34
376.12	1974.24
376.34	2000.87
376.55	1961.95
376.77	1920.99
376.98	1990.63
377.19	1984.48
377.41	1970.15
377.62	1990.63
377.84	2031.58
378.05	2011.11
378.27	2084.83
378.48	2064.35
378.69	2185.18
378.91	2099.17
379.12	2035.68
379.34	2037.73
379.55	2179.04
379.76	2060.26
379.98	2138.08
380.19	2017.25
380.41	2095.07
380.62	2017.25
380.83	2146.27
381.05	2023.39
381.26	2142.18
381.47	2074.59
381.69	2097.12
381.90	2148.32
382.12	2113.50
382.33	2205.66
382.54	2021.35
382.76	2136.03
382.97	2133.98
383.19	2107.36
383.40	2283.49
383.61	2125.79
383.83	2123.74
384.04	2170.85
384.25	2156.51
384.47	2230.24
384.68	2203.61
384.89	2156.51
385.11	2332.64
385.32	2156.51
385.54	2185.18
385.75	2129.89
385.96	2238.43
386.18	2254.81
386.39	2322.40
386.60	2269.15
386.82	2328.54
387.03	2283.49
387.24	2279.39
387.46	2299.87
387.67	2357.21
387.88	2383.84
388.10	2416.60
388.31	2392.03
388.52	2349.02
388.74	2389.98
388.95	2412.51
389.16	2441.18
389.38	2441.18
389.59	2449.37
389.80	2482.14
390.02	2430.94
390.23	2435.03
390.44	2410.46
390.66	2389.98
390.87	2398.17
391.08	2525.15
391.30	2514.91
391.51	2473.95
391.72	2521.05
391.94	2521.05
392.15	2480.09
392.36	2486.23
392.58	2451.42
392.79	2494.43
393.00	2594.78
393.22	2506.71
393.43	2609.11
393.64	2697.17
393.85	2652.12
394.07	2557.91
394.28	2678.74
394.49	2633.69
394.71	2627.54
394.92	2600.92
395.13	2594.78
395.35	2633.69
395.56	2717.65
395.77	2684.89
395.98	2838.48
396.20	2756.57
396.41	2777.05
396.62	2865.11
396.84	2738.13
397.05	2789.33
397.26	2801.62
397.47	2840.53
397.69	2734.04
397.90	2856.92
398.11	2777.05
398.32	2852.82
398.54	2779.09
398.75	2842.58
398.96	2891.73
399.18	2938.84
399.39	2897.88
399.60	2955.22
399.81	3018.71
400.03	2879.44
400.24	3117.01
400.45	2938.84
400.66	3014.61
400.88	2987.99
401.09	3037.14
401.30	3024.85
401.51	2975.70
401.73	3002.32
401.94	3125.20
402.15	3129.30
402.36	3074.00
402.58	3155.92
402.79	3071.95
403.00	3160.02
403.21	3110.86
403.43	3104.72
403.64	3229.65
403.85	3069.91
404.06	3188.69
404.27	3119.06
404.49	3168.21
404.70	3241.93
404.91	3186.64
405.12	3129.30
405.34	3182.54
405.55	3309.52
405.76	3112.91
405.97	3252.17
406.19	3350.48
406.40	3309.52
406.61	3291.09
406.82	3377.10
407.03	3360.72
407.25	3360.72
407.46	3426.25
407.67	3352.52
407.88	3450.83
408.09	3307.47
408.31	3399.63
408.52	3459.02
408.73	3364.81
408.94	3399.63
409.15	3479.50
409.37	3502.03
409.58	3534.79
409.79	3420.11
410.00	3545.03
410.21	3481.55
410.43	3532.75
410.64	3561.42
410.85	3616.71
411.06	3530.70
411.27	3530.70
411.48	3657.67
411.70	3579.85
411.91	3653.58
412.12	3690.44
412.33	3532.75
412.54	3561.42
412.76	3772.36
412.97	3604.42
413.18	3608.52
413.39	3702.73
413.60	3657.67
413.81	3776.45
414.03	3651.53
414.24	3790.79
414.45	3837.89
414.66	3760.07
414.87	3919.81
415.08	3803.08
415.30	3835.85
415.51	3968.96
415.72	3866.56
415.93	3844.04
416.14	3891.14
416.35	4005.83
416.56	3923.91
416.78	3995.59
416.99	3952.58
417.20	3932.10
417.41	4038.59
417.62	4063.17
417.83	4138.94
418.04	3966.92
418.26	3964.87
418.47	4024.26
418.68	4089.79
418.89	4081.60
419.10	4048.83
419.31	4118.47
419.52	4220.86
419.73	4239.30
419.95	4267.97
420.16	4143.04
420.37	4188.10
420.58	4263.87
420.79	4208.58
421.00	4235.20
421.21	4288.45
421.42	4319.17
421.63	4304.83
421.85	4296.64
422.06	4466.62
422.27	4317.12
422.48	4386.75
422.69	4470.72
422.90	4538.30
423.11	4652.98
423.32	4530.11
423.53	4708.28
423.75	4431.80
423.96	4589.50
424.17	4575.16
424.38	4769.72
424.59	4644.79
424.80	4827.06
425.01	4612.03
425.22	4736.95
425.43	4657.08
425.64	4868.02
425.85	4837.30
426.06	4794.29
426.28	4904.89
426.49	4757.43
426.70	4937.65
426.91	4931.51
427.12	5007.28
427.33	4949.94
427.54	4923.32
427.75	5050.29
427.96	5093.30
428.17	5128.11
428.38	5146.55
428.59	5175.22
428.80	5136.31
429.01	5255.09
429.23	5171.12
429.44	5437.36
429.65	5365.68
429.86	5355.44
430.07	5134.26
430.28	5156.79
430.49	5445.55
430.70	5441.45
430.91	5373.87
431.12	5492.65
431.33	5584.81
431.54	5427.12
431.75	5455.79
431.96	5529.52
432.17	5527.47
432.38	5523.37
432.59	5711.78
432.80	5640.11
433.01	5760.94
433.22	5722.02
433.43	5662.63
433.64	5889.96
433.85	5599.15
434.06	5834.66
434.27	5801.90
434.49	5834.66
434.70	5881.77
434.91	5971.88
435.12	6008.74
435.33	5894.05
435.54	5996.45
435.75	5969.83
435.96	6043.56
436.17	5967.78
436.38	6041.51
436.59	6076.32
436.80	6068.13
437.01	6328.22
437.22	6426.53
437.43	6160.29
437.64	6072.23
437.85	6209.44
438.06	6266.78
438.27	6111.14
438.48	6281.12
438.69	6477.73
438.90	6416.29
439.11	6277.02
439.32	6485.92
439.53	6483.87
439.74	6524.83
439.95	6385.57
440.16	6504.35
440.37	6567.84
440.57	6393.76
440.78	6508.44
440.99	6580.12
441.20	6528.92
441.41	6657.95
441.62	6713.24
441.83	6510.49
442.04	6690.71
442.25	6805.40
442.46	6709.15
442.67	6944.66
442.88	7251.86
443.09	6727.58
443.30	6887.32
443.51	6758.30
443.72	7059.35
443.93	6762.39
444.14	7264.15
444.35	6866.84
444.56	7085.97
444.77	7051.16
444.98	7171.99
445.19	7208.85
445.40	7178.13
445.61	7227.28
445.81	7231.38
446.02	7204.75
446.23	7116.69
446.44	7016.34
446.65	7364.50
446.86	7214.99
447.07	7243.67
447.28	7530.38
447.49	7405.46
447.70	7387.02
447.91	7485.33
448.12	7563.15
448.33	7612.30
448.54	7587.72
448.74	7438.22
448.95	7647.12
449.16	7425.93
449.37	7903.11
449.58	7444.37
449.79	7972.74
450.00	7686.03
450.21	7739.27
450.42	7964.55
450.63	8025.99
450.84	7962.50
451.05	7792.52
451.25	7948.17
451.46	7815.05
451.67	7899.02
451.88	8148.87
452.09	8116.10
452.30	8036.23
452.51	8177.54
452.72	8232.83
452.93	8429.44
453.13	8066.95
453.34	8085.38
453.55	8265.60
453.76	8361.86
453.97	8718.20
454.18	8423.30
454.39	8443.78
454.60	8281.99
454.81	8490.88
455.01	8767.35
455.22	8271.75
455.43	8572.80
455.64	8722.30
455.85	8841.08
456.06	9166.71
456.27	8818.55
456.48	8771.45
456.68	8927.10
456.89	8849.27
457.10	9158.52
457.31	9080.69
457.52	9234.29
457.73	9080.69
457.94	9426.80
458.14	9219.96
458.35	9684.84
458.56	9389.94
458.77	9310.07
458.98	9527.15
459.19	9672.56
459.39	9445.23
459.60	9787.24
459.81	9566.06
460.02	9674.60
460.23	9918.31
460.44	9994.09
460.65	9856.87
460.85	9889.64
461.06	10121.06
461.27	9779.05
461.48	10022.76
461.69	10305.38
461.89	10080.10
462.10	10184.55
462.31	9992.04
462.52	10213.22
462.73	10149.73
462.94	10526.56
463.14	10483.55
463.35	10520.42
463.56	10964.82
463.77	10708.83
463.98	10622.81
464.18	10311.52
464.39	10841.95
464.60	11077.46
464.81	11132.76
465.02	10960.73
465.23	11265.88
465.43	11022.17
465.64	11425.62
465.85	11325.27
466.06	11157.33
466.27	11667.28
466.47	11577.17
466.68	11571.02
466.89	11716.43
467.10	11777.87
467.30	11650.89
467.51	11845.45
467.72	11818.83
467.93	11878.22
468.14	11906.89
468.34	12302.15
468.55	12345.16
468.76	12205.89
468.97	12224.33
469.17	12586.82
469.38	12476.23
469.59	12842.81
469.80	12418.88
470.01	12447.55
470.21	12470.08
470.42	12855.10
470.63	12894.01
470.84	12920.63
471.04	13203.25
471.25	12977.98
471.46	13008.70
471.67	13483.83
471.87	13229.88
472.08	13588.27
472.29	13621.04
472.50	13121.34
472.70	13489.97
472.91	13610.80
473.12	14083.88
473.33	13862.70
473.53	14257.96
473.74	13934.38
473.95	14352.16
474.16	14397.22
474.36	14229.29
474.57	14569.25
474.78	14845.73
474.99	14722.85
475.19	14561.06
475.40	15042.33
475.61	15111.96
475.81	15245.08
476.02	15597.33
476.23	15503.12
476.44	15709.97
476.64	15912.72
476.85	15955.72
477.06	15576.85
477.27	15976.20
477.47	16191.24
477.68	16051.98
477.89	16187.14
478.09	16346.89
478.30	16428.81
478.51	16303.88
478.71	16459.52
478.92	16570.12
479.13	16860.93
479.34	16977.66
479.54	16965.37
479.75	17305.34
479.96	17219.32
480.16	17245.94
480.37	17270.52
480.58	17786.61
480.78	17839.86
480.99	18030.32
481.20	17878.77
481.41	17821.42
481.61	18134.76
481.82	18292.46
482.03	18306.79
482.23	18398.95
482.44	18464.49
482.65	18781.92
482.85	18960.09
483.06	18845.41
483.27	18818.78
483.47	19171.04
483.68	19101.40
483.89	19558.10
484.09	19269.34
484.30	19607.25
484.51	19674.84
484.71	20016.85
484.92	19748.56
485.13	20072.14
485.33	20049.61
485.54	20125.39
485.75	20375.24
485.95	20393.67
486.16	20469.45
486.37	20770.50
486.57	20879.04
486.78	20627.14
486.98	20903.62
487.19	21001.92
487.40	21079.74
487.60	21139.13
487.81	21726.90
488.02	21475.00
488.22	21309.11
488.43	21827.25
488.64	21927.60
488.84	21989.04
489.05	22087.34
489.25	21991.09
489.46	22365.87
489.67	22089.39
489.87	22814.37
490.08	22404.78
490.29	22716.07
490.49	22918.82
490.70	22843.04
490.90	23053.98
491.11	23117.47
491.32	23076.51
491.52	23281.31
491.73	23342.75
491.94	23500.44
492.14	23588.50
492.35	23875.22
492.55	23821.97
492.76	24286.86
492.97	24278.67
493.17	23953.04
493.38	24438.41
493.58	24635.02
493.79	24172.18
494.00	24358.54
494.20	24710.79
494.41	24671.88
494.61	25130.62
494.82	24956.55
495.02	24895.11
495.23	25282.17
495.44	25423.48
495.64	25527.93
495.85	25366.14
496.05	25464.44
496.26	25601.66
496.47	25890.42
496.67	25620.09
496.88	26091.12
497.08	25824.89
497.29	26060.40
497.49	25958.00
497.70	26508.91
497.91	26465.90
498.11	26578.54
498.32	26535.53
498.52	26650.22
498.73	27436.64
498.93	27051.62
499.14	27076.19
499.34	27199.07
499.55	27106.91
499.76	27199.07
499.96	27438.69
500.17	27297.38
500.37	27784.79
500.58	27541.08
500.78	27514.46
500.99	27623.00
501.19	28071.51
501.40	27651.67
501.60	28087.89
501.81	28010.07
502.02	28061.27
502.22	27977.30
502.43	28188.24
502.63	28208.72
502.84	28202.58
503.04	28499.53
503.25	28614.22
503.45	28616.27
503.66	28839.50
503.86	28587.60
504.07	28835.40
504.27	28855.88
504.48	29580.86
504.68	29218.37
504.89	29146.69
505.09	29455.93
505.30	29521.47
505.50	29201.99
505.71	29171.27
505.91	29730.36
506.12	29740.60
506.32	29564.48
506.53	29744.70
506.73	30049.85
506.94	30045.75
507.14	30019.13
507.35	30330.42
507.55	30176.82
507.76	30295.60
507.96	30236.21
508.17	30553.65
508.37	30690.86
508.58	30215.73
508.78	30260.79
508.99	30697.00
509.19	30567.98
509.40	30539.31
509.60	30729.77
509.81	30907.94
510.01	30451.25
510.22	30862.89
510.42	31059.49
510.63	31254.05
510.83	30955.05
511.04	31309.35
511.24	31594.01
511.44	31129.12
511.65	31852.06
511.85	31563.29
512.06	31102.50
512.26	31655.45
512.47	31804.95
512.67	31731.23
512.88	31872.54
513.08	31737.37
513.29	32005.66
513.49	32290.32
513.69	32251.41
513.90	32151.06
514.10	32286.23
514.31	32189.97
514.51	32384.53
514.72	32394.77
514.92	32419.35
515.13	32681.49
515.33	32642.57
515.53	32663.05
515.74	32747.02
515.94	32853.51
516.15	33076.74
516.35	32591.37
516.56	32951.82
516.76	33074.70
516.96	33115.65
517.17	33336.84
517.37	32876.04
517.58	33494.53
517.78	33234.44
517.99	33480.19
518.19	33517.06
518.39	33719.81
518.60	33682.94
518.80	33748.48
519.01	33633.79
519.21	33725.95
519.41	34047.48
519.62	33650.17
519.82	34090.49
520.03	34387.44
520.23	33992.19
520.43	34156.02
520.64	34776.56
520.84	34960.87
521.05	34719.21
521.25	34655.73
521.45	34762.22
521.66	35192.30
521.86	34704.88
522.07	34876.91
522.27	35196.39
522.47	34909.68
522.68	35593.70
522.88	35202.53
523.08	35472.87
523.29	35655.14
523.49	35542.50
523.70	35560.93
523.90	35716.58
524.10	35982.81
524.31	35978.72
524.51	35997.15
524.71	36253.14
524.92	35818.97
525.12	36234.71
525.33	36365.78
525.53	36464.08
525.73	36457.94
525.94	36746.70
526.14	36580.82
526.34	36795.85
526.55	36830.67
526.75	36783.57
526.95	37332.42
527.16	37227.98
527.36	36914.64
527.56	37332.42
527.77	37352.90
527.97	37287.37
528.17	37569.99
528.38	37844.41
528.58	37643.71
528.78	37934.53
528.99	37926.33
529.19	38284.73
529.39	37981.63
529.60	38731.18
529.80	38270.39
530.00	37981.63
530.21	38849.97
530.41	38725.04
530.61	38641.07
530.82	38553.01
531.02	38841.78
531.22	38700.47
531.43	38659.51
531.63	38944.17
531.83	39638.44
532.04	39417.25
532.24	39343.53
532.44	40220.06
532.64	39587.24
532.85	40097.18
533.05	39642.53
533.25	39941.53
533.46	39984.54
533.66	40678.80
533.86	39959.97
534.07	40580.50
534.27	40240.54
534.47	40682.90
534.67	40811.92
534.88	40887.70
535.08	40627.60
535.28	41235.85
535.49	41104.78
535.69	41244.04
535.89	41471.37
536.09	41373.06
536.30	41950.59
536.50	41688.45
536.70	41291.15
536.91	41432.46
537.11	41643.40
537.31	41866.63
537.51	42059.13
537.72	42493.30
537.92	42206.59
538.12	42771.83
538.32	42177.92
538.53	42710.39
538.73	42669.43
538.93	43087.21
539.13	42472.82
539.34	42724.72
539.54	42509.69
539.74	43054.45
539.94	43105.65
540.15	43195.76
540.35	43847.01
540.55	43648.36
540.75	43345.26
540.96	43646.31
541.16	43461.99
541.36	43693.41
541.56	43445.61
541.77	44352.86
541.97	43701.61
542.17	44062.05
542.37	43971.94
542.58	43949.41
542.78	44023.14
542.98	43861.35
543.18	44295.52
543.38	44717.40
543.59	44588.38
543.79	44799.32
543.99	44856.66
544.19	44934.48
544.40	44784.98
544.60	45266.25
544.80	44735.83
545.00	44819.80
545.20	45141.33
545.41	45073.74
545.61	45202.77
545.81	45141.33
546.01	45540.68
546.21	45145.42
546.42	45446.47
546.62	45806.92
546.82	45473.10
547.02	45849.92
547.22	45931.84
547.43	45368.65
547.63	45710.66
547.83	45802.82
548.03	45825.35
548.23	46062.91
548.44	45864.26
548.64	46017.86
548.84	46181.70
549.04	45876.55
549.24	46126.40
549.45	46325.05
549.65	46472.51
549.85	46280.00
550.05	46761.27
550.25	46282.05
550.45	47011.12
550.66	46468.41
550.86	46462.27
551.06	46892.34
551.26	47064.37
551.46	46970.16
551.66	46658.87
551.87	46806.33
552.07	46941.49
552.27	47197.49
552.47	46931.25
552.67	47443.24
552.87	47559.98
553.07	47590.70
553.28	47256.88
553.48	47570.22
553.68	47365.42
553.88	47443.24
554.08	47611.18
554.28	47443.24
554.48	47248.69
554.69	47476.01
554.89	47846.69
555.09	47846.69
555.29	47932.71
555.49	48084.26
555.69	47697.19
555.89	48055.59
556.10	47973.67
556.30	47836.45
556.50	48084.26
556.70	47686.95
556.90	48198.94
557.10	48397.60
557.30	47889.70
557.50	48311.58
557.70	48340.25
557.91	48436.51
558.11	48426.27
558.31	48547.10
558.51	48659.74
558.71	48307.49
558.91	48815.38
559.11	48614.68
559.31	48643.35
559.51	48567.58
559.72	48643.35
559.92	49206.55
560.12	48536.86
560.32	49114.39
560.52	48706.84
560.72	48708.89
560.92	48751.90
561.12	48999.70
561.32	49347.86
561.52	48821.53
561.72	48903.45
561.93	49132.82
562.13	48907.54
562.33	48889.11
562.53	49493.26
562.73	49059.09
562.93	49009.94
563.13	49448.21
563.33	49186.07
563.53	49569.04
563.73	49030.42
563.93	49267.98
564.13	49943.81
564.33	49210.64
564.53	49278.22
564.74	49931.53
564.94	49143.06
565.14	49800.46
565.34	48993.56
565.54	49198.35
565.74	49566.99
565.94	49759.50
566.14	49851.66
566.34	49763.59
566.54	49892.61
566.74	49771.78
566.94	49902.85
567.14	49939.72
567.34	49804.55
567.54	50146.56
567.74	49779.98
567.94	50189.57
568.14	50427.13
568.34	50599.16
568.54	50054.40
568.74	50650.36
568.94	50197.76
569.14	50435.33
569.34	50459.90
569.54	50339.07
569.75	49841.42
569.95	50332.93
570.15	51117.30
570.35	50726.14
570.55	50351.36
570.75	50394.37
570.95	50547.96
571.15	50478.33
571.35	50660.60
571.55	51076.34
571.75	50621.69
571.95	50828.54
572.15	50683.13
572.35	50705.66
572.55	50703.61
572.75	51180.79
572.95	50996.47
573.15	51125.49
573.35	50863.35
573.55	50935.03
573.75	51037.43
573.95	51381.49
574.15	50844.92
574.35	51514.61
574.55	50967.80
574.75	51344.62
574.95	51440.88
575.15	50920.70
575.34	51643.63
575.54	51639.53
575.74	51504.37
575.94	51664.11
576.14	51737.83
576.34	51987.69
576.54	51279.09
576.74	51756.27
576.94	51700.97
577.14	52270.31
577.34	52210.92
577.54	51948.78
577.74	52012.26
577.94	52079.85
578.14	52147.43
578.34	52161.76
578.54	51653.87
578.74	52145.38
578.94	52679.90
579.14	51752.17
579.34	52196.58
579.54	52290.79
579.74	52567.26
579.94	52329.70
580.13	52782.30
580.33	52430.05
580.53	52970.71
580.73	52935.90
580.93	52696.28
581.13	52649.18
581.33	53005.53
581.53	53052.63
581.73	52980.95
581.93	53507.28
582.13	52894.94
582.33	52929.75
582.53	53195.99
582.73	53009.62
582.92	53318.87
583.12	53392.59
583.32	52772.06
583.52	53257.43
583.72	53208.28
583.92	53286.10
584.12	53486.80
584.32	54072.52
584.52	53724.36
584.72	53753.04
584.92	53650.64
585.11	53988.55
585.31	53261.52
585.51	54193.35
585.71	53640.40
585.91	53904.59
586.11	53802.19
586.31	53662.93
586.51	53781.71
586.71	54260.93
586.91	53925.07
587.10	54199.49
587.30	54195.40
587.50	54815.93
587.70	54322.37
587.90	54338.75
588.10	54488.26
588.30	54764.73
