SpectraSuite Data File
++++++++++++++++++++++++++++++++++++
Date: Tue Jun 13 12:02:25 CEST 2017
User: INFO_000
Dark Spectrum Present: No
Reference Spectrum Present: No
Number of Sampled Component Spectra: 1
Spectrometers: USB4H00879
Integration Time (usec): 30000 (USB4H00879)
Spectra Averaged: 1 (USB4H00879)
Boxcar Smoothing: 0 (USB4H00879)
Correct for Electrical Dark: No (USB4H00879)
Strobe/Lamp Enabled: No (USB4H00879)
Correct for Detector Non-linearity: No (USB4H00879)
Correct for Stray Light: No (USB4H00879)
Number of Pixels in Processed Spectrum: 3648
>>>>>Begin Processed Spectral Data<<<<<
345.13	1378.28
345.34	1378.28
345.56	1378.28
345.78	1419.24
345.99	1368.04
346.21	1535.98
346.42	1513.45
346.64	1486.83
346.86	1525.74
347.07	1449.96
347.29	1546.22
347.50	1437.67
347.72	1497.07
347.94	1517.54
348.15	1488.87
348.37	1535.98
348.59	1540.07
348.80	1538.02
349.02	1601.51
349.23	1589.22
349.45	1640.42
349.67	1689.57
349.88	1611.75
350.10	1691.62
350.31	1677.29
350.53	1617.90
350.75	1710.05
350.96	1474.54
351.18	1570.79
351.39	1505.26
351.61	1605.61
351.82	1624.04
352.04	1687.53
352.26	1533.93
352.47	1613.80
352.69	1691.62
352.90	1566.70
353.12	1613.80
353.34	1654.76
353.55	1611.75
353.77	1675.24
353.98	1619.94
354.20	1570.79
354.41	1636.33
354.63	1599.46
354.85	1646.57
355.06	1716.20
355.28	1619.94
355.49	1626.09
355.71	1638.38
355.92	1621.99
356.14	1568.74
356.35	1665.00
356.57	1654.76
356.79	1636.33
357.00	1544.17
357.22	1611.75
357.43	1578.98
357.65	1710.05
357.86	1632.23
358.08	1671.14
358.29	1697.77
358.51	1695.72
358.72	1669.09
358.94	1689.57
359.16	1679.33
359.37	1683.43
359.59	1714.15
359.80	1689.57
360.02	1619.94
360.23	1683.43
360.45	1699.81
360.66	1681.38
360.88	1648.61
361.09	1677.29
361.31	1624.04
361.52	1701.86
361.74	1695.72
361.95	1705.96
362.17	1632.23
362.38	1722.34
362.60	1714.15
362.81	1679.33
363.03	1679.33
363.24	1669.09
363.46	1710.05
363.67	1726.44
363.89	1685.48
364.10	1701.86
364.32	1675.24
364.53	1691.62
364.75	1722.34
364.96	1691.62
365.18	1687.53
365.39	1701.86
365.61	1705.96
365.82	1751.01
366.04	1642.47
366.25	1724.39
366.47	1728.49
366.68	1636.33
366.90	1652.71
367.11	1691.62
367.33	1728.49
367.54	1654.76
367.76	1665.00
367.97	1722.34
368.19	1701.86
368.40	1695.72
368.62	1669.09
368.83	1621.99
369.05	1732.58
369.26	1689.57
369.48	1720.29
369.69	1726.44
369.91	1726.44
370.12	1738.73
370.33	1794.02
370.55	1712.10
370.76	1755.11
370.98	1751.01
371.19	1716.20
371.41	1759.21
371.62	1726.44
371.84	1726.44
372.05	1769.44
372.27	1701.86
372.48	1728.49
372.69	1789.92
372.91	1722.34
373.12	1763.30
373.34	1806.31
373.55	1781.73
373.77	1808.36
373.98	1767.40
374.20	1806.31
374.41	1820.64
374.62	1779.68
374.84	1787.88
375.05	1808.36
375.27	1765.35
375.48	1812.45
375.70	1794.02
375.91	1761.25
376.12	1882.08
376.34	1759.21
376.55	1798.12
376.77	1789.92
376.98	1822.69
377.19	1767.40
377.41	1771.49
377.62	1857.51
377.84	1757.16
378.05	1920.99
378.27	1843.17
378.48	1847.27
378.69	1918.95
378.91	1925.09
379.12	1886.18
379.34	1824.74
379.55	1847.27
379.76	1900.52
379.98	1820.64
380.19	1896.42
380.41	1832.93
380.62	1845.22
380.83	1873.89
381.05	1845.22
381.26	1914.85
381.47	1892.32
381.69	1929.19
381.90	1976.29
382.12	1937.38
382.33	1857.51
382.54	1800.16
382.76	1871.84
382.97	1931.23
383.19	1757.16
383.40	1902.56
383.61	1839.08
383.83	1884.13
384.04	1923.04
384.25	1982.43
384.47	1945.57
384.68	1961.95
384.89	1957.86
385.11	2027.49
385.32	1990.63
385.54	1959.91
385.75	1966.05
385.96	1992.67
386.18	2011.11
386.39	2013.15
386.60	1970.15
386.82	2009.06
387.03	2060.26
387.24	1894.37
387.46	1988.58
387.67	2050.02
387.88	1992.67
388.10	2062.30
388.31	2093.02
388.52	2050.02
388.74	2070.50
388.95	2015.20
389.16	1970.15
389.38	2115.55
389.59	2031.58
389.80	2146.27
390.02	2181.09
390.23	2029.54
390.44	2158.56
390.66	2140.13
390.87	2047.97
391.08	2045.92
391.30	2168.80
391.51	2131.94
391.72	2201.57
391.94	2119.65
392.15	2179.04
392.36	2195.42
392.58	2142.18
392.79	2168.80
393.00	2156.51
393.22	2267.10
393.43	2217.95
393.64	2267.10
393.85	2338.78
394.07	2166.75
394.28	2193.37
394.49	2316.25
394.71	2258.91
394.92	2312.16
395.13	2242.53
395.35	2236.38
395.56	2250.72
395.77	2271.20
395.98	2220.00
396.20	2303.96
396.41	2330.59
396.62	2310.11
396.84	2260.96
397.05	2324.44
397.26	2400.22
397.47	2349.02
397.69	2340.83
397.90	2412.51
398.11	2410.46
398.32	2326.49
398.54	2361.31
398.75	2351.07
398.96	2408.41
399.18	2523.10
399.39	2445.27
399.60	2451.42
399.81	2426.84
400.03	2500.57
400.24	2494.43
400.45	2342.88
400.66	2510.81
400.88	2482.14
401.09	2498.52
401.30	2559.96
401.51	2484.19
401.73	2488.28
401.94	2549.72
402.15	2660.31
402.36	2623.45
402.58	2566.10
402.79	2600.92
403.00	2594.78
403.21	2533.34
403.43	2645.98
403.64	2625.50
403.85	2566.10
404.06	2564.06
404.27	2596.82
404.49	2600.92
404.70	2633.69
404.91	2709.46
405.12	2707.41
405.34	2621.40
405.55	2783.19
405.76	2609.11
405.97	2660.31
406.19	2697.17
406.40	2615.26
406.61	2658.26
406.82	2809.81
407.03	2865.11
407.25	2756.57
407.46	2836.44
407.67	2678.74
407.88	2760.66
408.09	2703.32
408.31	2711.51
408.52	2807.77
408.73	2670.55
408.94	2842.58
409.15	2858.96
409.37	2883.54
409.58	2795.48
409.79	2883.54
410.00	2914.26
410.21	2762.71
410.43	2781.14
410.64	2846.68
410.85	2858.96
411.06	2924.50
411.27	2818.00
411.48	2883.54
411.70	2940.88
411.91	2938.84
412.12	2990.03
412.33	3020.75
412.54	2969.55
412.76	3053.52
412.97	2975.70
413.18	2928.60
413.39	3018.71
413.60	3049.43
413.81	3039.19
414.03	3069.91
414.24	3057.62
414.45	3141.58
414.66	3033.04
414.87	3112.91
415.08	3088.34
415.30	3196.88
415.51	3039.19
415.72	3145.68
415.93	3129.30
416.14	3063.76
416.35	3057.62
416.56	3129.30
416.78	3129.30
416.99	3223.50
417.20	3188.69
417.41	3291.09
417.62	3137.49
417.83	3256.27
418.04	3219.41
418.26	3213.26
418.47	3205.07
418.68	3223.50
418.89	3258.32
419.10	3391.44
419.31	3272.65
419.52	3395.53
419.73	3311.57
419.95	3397.58
420.16	3258.32
420.37	3336.14
420.58	3356.62
420.79	3237.84
421.00	3354.57
421.21	3309.52
421.42	3350.48
421.63	3364.81
421.85	3405.77
422.06	3463.12
422.27	3393.48
422.48	3438.54
422.69	3585.99
422.90	3508.17
423.11	3514.31
423.32	3528.65
423.53	3590.09
423.75	3581.90
423.96	3622.86
424.17	3598.28
424.38	3614.66
424.59	3672.01
424.80	3733.45
425.01	3741.64
425.22	3704.78
425.43	3712.97
425.64	3782.60
425.85	3790.79
426.06	3770.31
426.28	3635.14
426.49	3616.71
426.70	3669.96
426.91	3702.73
427.12	3860.42
427.33	3932.10
427.54	3874.76
427.75	4011.97
427.96	4046.79
428.17	3774.41
428.38	3950.53
428.59	4077.51
428.80	3895.24
429.01	4085.70
429.23	4016.07
429.44	4030.40
429.65	4042.69
429.86	4097.99
430.07	4067.27
430.28	4177.86
430.49	4077.51
430.70	4095.94
430.91	4171.71
431.12	4188.10
431.33	4333.50
431.54	4308.93
431.75	4351.93
431.96	4272.06
432.17	4196.29
432.38	4208.58
432.59	4237.25
432.80	4392.89
433.01	4431.80
433.22	4466.62
433.43	4452.28
433.64	4386.75
433.85	4212.67
434.06	4360.13
434.27	4399.04
434.49	4222.91
434.70	4513.72
434.91	4591.55
435.12	4566.97
435.33	4569.02
435.54	4515.77
435.75	4472.76
435.96	4589.50
436.17	4442.04
436.38	4755.38
436.59	4646.84
436.80	4734.90
437.01	4845.49
437.22	4855.73
437.43	4521.92
437.64	4587.45
437.85	4792.25
438.06	4845.49
438.27	4585.40
438.48	4759.48
438.69	4820.92
438.90	4960.18
439.11	4669.37
439.32	4792.25
439.53	4921.27
439.74	4839.35
439.95	4962.23
440.16	4861.88
440.37	4898.74
440.57	4771.77
440.78	4982.71
440.99	4956.08
441.20	4984.76
441.41	4964.28
441.62	4988.85
441.83	4855.73
442.04	5021.62
442.25	5128.11
442.46	5095.35
442.67	5285.81
442.88	5447.60
443.09	5074.87
443.30	5099.44
443.51	5074.87
443.72	5396.40
443.93	5064.63
444.14	5365.68
444.35	5185.46
444.56	5306.29
444.77	5261.23
444.98	5339.05
445.19	5468.08
445.40	5343.15
445.61	5500.84
445.81	5398.45
446.02	5392.30
446.23	5373.87
446.44	5339.05
446.65	5480.36
446.86	5390.25
447.07	5388.21
447.28	5703.59
447.49	5619.63
447.70	5541.80
447.91	5578.67
448.12	5595.05
448.33	5558.19
448.54	5590.95
448.74	5654.44
448.95	5697.45
449.16	5515.18
449.37	5816.23
449.58	5679.02
449.79	5830.57
450.00	5650.35
450.21	5830.57
450.42	5986.21
450.63	5838.76
450.84	5748.65
451.05	5781.42
451.25	5877.67
451.46	5791.66
451.67	5814.18
451.88	5935.01
452.09	5875.62
452.30	6131.62
452.51	6092.71
452.72	6074.28
452.93	6100.90
453.13	5865.38
453.34	6031.27
453.55	6082.47
453.76	6326.18
453.97	6424.48
454.18	6166.43
454.39	6205.35
454.60	6229.92
454.81	6217.63
455.01	6408.09
455.22	6299.55
455.43	6475.68
455.64	6541.21
455.85	6471.58
456.06	6700.95
456.27	6619.04
456.48	6604.70
456.68	6705.05
456.89	6580.12
457.10	6877.08
457.31	6717.34
457.52	6774.68
457.73	6778.78
457.94	6780.82
458.14	6782.87
458.35	7038.87
458.56	6915.99
458.77	6815.64
458.98	6999.96
459.19	6899.61
459.39	7073.68
459.60	7069.59
459.81	6829.98
460.02	7227.28
460.23	7325.58
460.44	7341.97
460.65	7247.76
460.85	7362.45
461.06	7352.21
461.27	7120.79
461.48	7427.98
461.69	7630.73
461.89	7350.16
462.10	7579.53
462.31	7309.20
462.52	7430.03
462.73	7475.09
462.94	7593.87
463.14	7718.79
463.35	7720.84
463.56	7964.55
463.77	7745.42
463.98	7653.26
464.18	7862.15
464.39	8171.40
464.60	8025.99
464.81	7917.45
465.02	8085.38
465.23	8390.53
465.43	8157.06
465.64	8318.85
465.85	8368.00
466.06	8103.81
466.27	8476.54
466.47	8384.38
466.68	8482.69
466.89	8394.62
467.10	8480.64
467.30	8347.52
467.51	8740.73
467.72	8724.35
467.93	8525.69
468.14	8802.17
468.34	8882.04
468.55	8847.22
468.76	8963.96
468.97	8791.93
469.17	8994.68
469.38	8984.44
469.59	9215.86
469.80	8945.53
470.01	9054.07
470.21	9201.52
470.42	9301.87
470.63	9547.63
470.84	9297.78
471.04	9408.37
471.25	9508.72
471.46	9492.34
471.67	9641.84
471.87	9699.18
472.08	9783.15
472.29	9860.97
472.50	9695.08
472.70	9832.30
472.91	10010.47
473.12	10159.97
473.33	10053.48
473.53	10157.92
473.74	10172.26
473.95	10334.05
474.16	10399.59
474.36	10497.89
474.57	10555.23
474.78	10604.38
474.99	10633.05
475.19	10428.26
475.40	10665.82
475.61	10811.23
475.81	10835.80
476.02	11163.48
476.23	10913.63
476.44	11186.01
476.64	11231.06
476.85	11439.95
477.06	11237.20
477.27	11501.39
477.47	11579.22
477.68	11548.50
477.89	11822.92
478.09	11618.13
478.30	11796.30
478.51	11908.94
478.71	11921.23
478.92	11847.50
479.13	12085.06
479.34	12154.69
479.54	12144.45
479.75	12324.68
479.96	12134.21
480.16	12365.64
480.37	12404.55
480.58	12701.50
480.78	13100.86
480.99	12910.40
481.20	12998.46
481.41	13186.87
481.61	12885.82
481.82	13049.66
482.03	13182.77
482.23	13031.23
482.44	13279.03
482.65	13391.67
482.85	13420.34
483.06	13453.11
483.27	13352.76
483.47	13465.39
483.68	13825.84
483.89	13852.46
484.09	13836.08
484.30	13985.58
484.51	14061.35
484.71	14104.36
484.92	13973.29
485.13	14276.39
485.33	14145.32
485.54	14427.94
485.75	14728.99
485.95	14720.80
486.16	14655.26
486.37	14915.36
486.57	14843.68
486.78	14792.48
486.98	14796.57
487.19	15107.87
487.40	15066.91
487.60	14917.40
487.81	15253.27
488.02	15425.30
488.22	15327.00
488.43	15335.19
488.64	15544.08
488.84	15734.54
489.05	15771.41
489.25	15875.85
489.46	15902.48
489.67	15920.91
489.87	16283.40
490.08	16133.90
490.29	16262.92
490.49	16441.09
490.70	16289.54
490.90	16701.19
491.11	16523.01
491.32	16652.03
491.52	16684.80
491.73	16733.95
491.94	16762.62
492.14	16875.26
492.35	16912.13
492.55	16971.52
492.76	17194.75
492.97	17190.65
493.17	17147.64
493.38	17434.36
493.58	17592.05
493.79	17506.04
494.00	17442.55
494.20	17585.91
494.41	17864.43
494.61	17882.86
494.82	17938.16
495.02	17700.59
495.23	18188.01
495.44	18171.63
495.64	18151.15
495.85	18185.96
496.05	18140.91
496.26	18220.78
496.47	18575.08
496.67	18468.58
496.88	18523.88
497.08	18532.07
497.29	18876.13
497.49	18548.45
497.70	18663.14
497.91	19091.16
498.11	18869.98
498.32	18958.05
498.52	19191.52
498.73	19646.16
498.93	19318.49
499.14	19406.55
499.34	19189.47
499.55	19631.83
499.76	19441.37
499.96	19746.51
500.17	19508.95
500.37	19609.30
500.58	19736.27
500.78	19590.87
500.99	19660.50
501.19	20043.47
501.40	19951.31
501.60	20170.44
501.81	19912.40
502.02	20207.31
502.22	19990.22
502.43	20268.75
502.63	20223.69
502.84	20571.85
503.04	20420.30
503.25	20422.34
503.45	20674.24
503.66	20752.07
503.86	20496.07
504.07	20893.38
504.27	20584.13
504.48	21018.30
504.68	20840.13
504.89	20999.87
505.09	21094.08
505.30	20960.96
505.50	21194.43
505.71	21046.97
505.91	21061.31
506.12	21366.46
506.32	21352.12
506.53	21407.42
506.73	21540.54
506.94	21657.27
507.14	21483.19
507.35	21587.64
507.55	21874.35
507.76	21798.58
507.96	21616.31
508.17	21878.45
508.37	21497.53
508.58	21876.40
508.78	21919.41
508.99	22183.60
509.19	22257.32
509.40	22103.73
509.60	22230.70
509.81	22183.60
510.01	22154.93
510.22	22539.94
510.42	22298.28
510.63	22533.80
510.83	22505.13
511.04	22707.88
511.24	22783.65
511.44	22304.43
511.65	22638.25
511.85	22730.41
512.06	22738.60
512.26	22433.45
512.47	22963.87
512.67	22660.77
512.88	22961.83
513.08	22746.79
513.29	23015.07
513.49	22920.87
513.69	23017.12
513.90	23164.57
514.10	23000.74
514.31	23082.66
514.51	23350.94
514.72	23307.93
514.92	23162.53
515.13	23101.09
515.33	23303.84
515.53	23582.36
515.74	23410.33
515.94	23924.37
516.15	23682.71
516.35	23707.29
516.56	23678.61
516.76	23785.11
516.96	23715.48
517.17	23842.45
517.37	23934.61
517.58	24239.76
517.78	23695.00
517.99	24213.13
518.19	24080.02
518.39	24254.09
518.60	24120.98
518.80	24196.75
519.01	24583.82
519.21	24299.15
519.41	24667.78
519.62	24467.08
519.82	24733.32
520.03	24473.23
520.23	24850.05
520.43	24731.27
520.64	24874.63
520.84	24639.11
521.05	24778.37
521.25	24925.83
521.45	25276.03
521.66	25063.04
521.86	24997.51
522.07	25181.82
522.27	25431.68
522.47	25323.13
522.68	25529.98
522.88	25452.16
523.08	25695.86
523.29	25532.03
523.49	25575.03
523.70	25575.03
523.90	26084.98
524.10	25595.51
524.31	26084.98
524.51	25712.25
524.71	26343.02
524.92	26005.11
525.12	26461.80
525.33	26328.69
525.53	26033.78
525.73	26451.56
525.94	26404.46
526.14	26154.61
526.34	26850.92
526.55	26599.02
526.75	26513.00
526.95	26519.15
527.16	26803.82
527.36	26861.16
527.56	27088.48
527.77	27127.39
527.97	27293.28
528.17	26791.53
528.38	27307.62
528.58	27465.31
528.78	27424.35
528.99	27242.08
529.19	27518.56
529.39	27227.74
529.60	27977.30
529.80	27827.80
530.00	27674.20
530.21	27786.84
530.41	28169.81
530.61	27766.36
530.82	27983.44
531.02	27840.09
531.22	28065.36
531.43	28116.56
531.63	28329.55
531.83	28378.70
532.04	28968.52
532.24	28225.11
532.44	29138.50
532.64	29154.88
532.85	28710.47
533.05	28964.42
533.25	29193.79
533.46	28958.28
533.66	29199.94
533.86	28905.03
534.07	29486.65
534.27	29087.30
534.47	29795.90
534.67	29752.89
534.88	29425.22
535.08	29384.26
535.28	29750.84
535.49	29775.42
535.69	30129.72
535.89	30191.16
536.09	30055.99
536.30	30463.54
536.50	30307.89
536.70	30676.52
536.91	30289.46
537.11	30031.41
537.31	30559.79
537.51	30426.67
537.72	30930.47
537.92	30744.11
538.12	30922.28
538.32	30873.13
538.53	31008.29
538.73	30654.00
538.93	30674.48
539.13	31200.80
539.34	31092.26
539.54	31004.20
539.74	31372.83
539.94	31333.92
540.15	31383.07
540.35	31759.90
540.55	31772.19
540.75	31530.53
540.96	31850.01
541.16	31352.35
541.36	31544.86
541.56	31843.87
541.77	31909.40
541.97	32026.14
542.17	31778.33
542.37	31766.04
542.58	31970.84
542.78	31657.50
542.98	31970.84
543.18	32065.05
543.38	32652.81
543.59	32405.01
543.79	32265.75
543.99	32136.73
544.19	32581.13
544.40	32353.81
544.60	32849.42
544.80	32710.16
545.00	32658.96
545.20	32810.51
545.41	32570.90
545.61	32800.27
545.81	33119.75
546.01	33156.61
546.21	33340.93
546.42	33043.98
546.62	33222.15
546.82	33111.56
547.02	33338.88
547.22	33330.69
547.43	33164.81
547.63	32941.58
547.83	33496.58
548.03	33234.44
548.23	33543.68
548.44	33779.20
548.64	33650.17
548.84	33652.22
549.04	33635.84
549.24	33551.87
549.45	33568.26
549.65	33904.12
549.85	33869.31
550.05	33818.11
550.25	33766.91
550.45	34698.73
550.66	33805.82
550.86	34041.34
551.06	34283.00
551.26	34387.44
551.46	34239.99
551.66	34285.04
551.87	34153.97
552.07	34446.83
552.27	34156.02
552.47	34672.11
552.67	34606.58
552.87	34317.81
553.07	34426.35
553.28	34377.20
553.48	34739.69
553.68	34805.23
553.88	34731.50
554.08	34803.18
554.28	35028.46
554.48	34737.65
554.69	34545.14
554.89	34856.43
555.09	35087.85
555.29	34827.76
555.49	35001.83
555.69	35366.37
555.89	34919.92
556.10	35241.45
556.30	34878.96
556.50	35120.62
556.70	35218.92
556.90	35569.12
557.10	35333.60
557.30	35065.32
557.50	35675.62
557.70	34911.72
557.91	35388.90
558.11	35112.42
558.31	35384.80
558.51	35429.86
558.71	35567.07
558.91	35624.42
559.11	35382.76
559.31	35530.21
559.51	35507.68
559.72	35696.10
559.92	35808.73
560.12	35683.81
560.32	35581.41
560.52	35538.40
560.72	36060.63
560.92	35747.29
561.12	35573.22
561.32	36105.69
561.52	35827.17
561.72	36214.23
561.93	35544.55
562.13	35763.68
562.33	35796.45
562.53	36201.94
562.73	35677.66
562.93	36050.39
563.13	36064.73
563.33	36273.62
563.53	35886.56
563.73	35636.70
563.93	36308.44
564.13	36419.03
564.33	36027.87
564.53	35995.10
564.74	36171.22
564.94	36072.92
565.14	36384.21
565.34	36267.48
565.54	36511.19
565.74	36197.85
565.94	36890.06
566.14	36650.45
566.34	36160.98
566.54	36869.58
566.74	36238.81
566.94	36380.12
567.14	36765.14
567.34	36312.53
567.54	36556.24
567.74	36419.03
567.94	36376.02
568.14	36746.70
568.34	36951.50
568.54	36691.41
568.74	36537.81
568.94	36541.91
569.14	37150.15
569.34	36996.56
569.54	36806.09
569.75	36543.95
569.95	36802.00
570.15	37060.04
570.35	36789.71
570.55	36562.39
570.75	36916.68
570.95	37021.13
571.15	37027.28
571.35	37166.54
571.55	37141.96
571.75	37201.35
571.95	37111.24
572.15	36924.88
572.35	37647.81
572.55	37004.75
572.75	37281.22
572.95	37393.86
573.15	37506.50
573.35	36976.08
573.55	37303.75
573.75	37819.84
573.95	37434.82
574.15	37596.61
574.35	37205.45
574.55	37318.09
574.75	37572.03
574.95	37465.54
575.15	37461.44
575.34	37627.33
575.54	37895.61
575.74	38122.94
575.94	37879.23
576.14	37492.16
576.34	37905.85
576.54	38309.30
576.74	38049.21
576.94	37547.46
577.14	37803.46
577.34	38215.10
577.54	37768.64
577.74	38167.99
577.94	38063.55
578.14	38249.91
578.34	38245.82
578.54	37823.93
578.74	38077.88
578.94	38442.42
579.14	37696.96
579.34	38274.49
579.54	38428.09
579.74	38294.97
579.94	38221.24
580.13	38315.45
580.33	38634.93
580.53	38520.24
580.73	38499.76
580.93	38462.90
581.13	38776.24
581.33	38495.67
581.53	38884.78
581.73	38696.37
581.93	38395.32
582.13	38753.71
582.33	39366.06
582.53	38804.91
582.73	38931.89
582.92	39136.68
583.12	38876.59
583.32	39013.80
583.52	38954.41
583.72	39314.86
583.92	39044.52
584.12	39269.80
584.32	39331.24
584.52	39513.51
584.72	39329.19
584.92	39800.22
585.11	39757.22
585.31	39296.42
585.51	39333.29
585.71	38970.80
585.91	40027.55
586.11	39454.12
586.31	39065.00
586.51	39232.94
586.71	39554.47
586.91	39814.56
587.10	39658.91
587.30	39599.52
587.50	39734.69
587.70	39785.89
587.90	39710.11
588.10	39974.30
588.30	40009.12
588.50	40013.21
588.69	40275.35
588.89	39929.25
