SpectraSuite Data File
++++++++++++++++++++++++++++++++++++
Date: Tue Jun 13 11:50:59 CEST 2017
User: INFO_000
Dark Spectrum Present: No
Reference Spectrum Present: No
Number of Sampled Component Spectra: 1
Spectrometers: USB4H00879
Integration Time (usec): 30000 (USB4H00879)
Spectra Averaged: 1 (USB4H00879)
Boxcar Smoothing: 0 (USB4H00879)
Correct for Electrical Dark: No (USB4H00879)
Strobe/Lamp Enabled: No (USB4H00879)
Correct for Detector Non-linearity: No (USB4H00879)
Correct for Stray Light: No (USB4H00879)
Number of Pixels in Processed Spectrum: 3648
>>>>>Begin Processed Spectral Data<<<<<
345.13	1267.69
345.34	1267.69
345.56	1267.69
345.78	1351.66
345.99	1390.57
346.21	1533.93
346.42	1581.03
346.64	1435.63
346.86	1548.26
347.07	1456.11
347.29	1535.98
347.50	1509.35
347.72	1492.97
347.94	1546.22
348.15	1519.59
348.37	1488.87
348.59	1544.17
348.80	1513.45
349.02	1591.27
349.23	1634.28
349.45	1609.70
349.67	1640.42
349.88	1585.13
350.10	1714.15
350.31	1652.71
350.53	1562.60
350.75	1636.33
350.96	1648.61
351.18	1630.18
351.39	1650.66
351.61	1572.84
351.82	1681.38
352.04	1667.05
352.26	1679.33
352.47	1710.05
352.69	1681.38
352.90	1697.77
353.12	1632.23
353.34	1583.08
353.55	1624.04
353.77	1716.20
353.98	1611.75
354.20	1609.70
354.41	1701.86
354.63	1734.63
354.85	1742.82
355.06	1687.53
355.28	1628.14
355.49	1701.86
355.71	1662.95
355.92	1628.14
356.14	1689.57
356.35	1648.61
356.57	1644.52
356.79	1675.24
357.00	1601.51
357.22	1691.62
357.43	1677.29
357.65	1654.76
357.86	1656.81
358.08	1710.05
358.29	1716.20
358.51	1705.96
358.72	1798.12
358.94	1693.67
359.16	1652.71
359.37	1716.20
359.59	1689.57
359.80	1699.81
360.02	1708.01
360.23	1742.82
360.45	1740.77
360.66	1669.09
360.88	1712.10
361.09	1652.71
361.31	1761.25
361.52	1714.15
361.74	1761.25
361.95	1757.16
362.17	1673.19
362.38	1767.40
362.60	1751.01
362.81	1759.21
363.03	1742.82
363.24	1771.49
363.46	1812.45
363.67	1869.80
363.89	1769.44
364.10	1808.36
364.32	1744.87
364.53	1800.16
364.75	1734.63
364.96	1822.69
365.18	1814.50
365.39	1826.79
365.61	1773.54
365.82	1867.75
366.04	1789.92
366.25	1777.64
366.47	1826.79
366.68	1851.36
366.90	1798.12
367.11	1824.74
367.33	1853.41
367.54	1855.46
367.76	1757.16
367.97	1902.56
368.19	1771.49
368.40	1896.42
368.62	1816.55
368.83	1834.98
369.05	1804.26
369.26	1820.64
369.48	1818.60
369.69	1845.22
369.91	1841.12
370.12	1837.03
370.33	1869.80
370.55	1824.74
370.76	1820.64
370.98	1929.19
371.19	1781.73
371.41	1859.56
371.62	1877.99
371.84	1837.03
372.05	1892.32
372.27	1880.04
372.48	1925.09
372.69	1869.80
372.91	1943.52
373.12	1918.95
373.34	1832.93
373.55	1845.22
373.77	1925.09
373.98	1900.52
374.20	1880.04
374.41	2047.97
374.62	1970.15
374.84	1955.81
375.05	2029.54
375.27	1988.58
375.48	2004.96
375.70	2011.11
375.91	2015.20
376.12	2027.49
376.34	2041.82
376.55	2027.49
376.77	2072.54
376.98	1943.52
377.19	1996.77
377.41	1984.48
377.62	2058.21
377.84	2070.50
378.05	2070.50
378.27	2027.49
378.48	2056.16
378.69	2097.12
378.91	2150.37
379.12	2066.40
379.34	2125.79
379.55	2045.92
379.76	2185.18
379.98	1990.63
380.19	2054.11
380.41	2207.71
380.62	2127.84
380.83	2099.17
381.05	2039.78
381.26	2172.89
381.47	2183.13
381.69	2062.30
381.90	2174.94
382.12	2187.23
382.33	2088.93
382.54	2095.07
382.76	2172.89
382.97	2111.46
383.19	2109.41
383.40	2189.28
383.61	2127.84
383.83	2207.71
384.04	2224.09
384.25	2230.24
384.47	2195.42
384.68	2236.38
384.89	2113.50
385.11	2244.57
385.32	2150.37
385.54	2224.09
385.75	2236.38
385.96	2275.29
386.18	2263.01
386.39	2269.15
386.60	2306.01
386.82	2326.49
387.03	2328.54
387.24	2385.88
387.46	2383.84
387.67	2424.80
387.88	2394.08
388.10	2379.74
388.31	2445.27
388.52	2400.22
388.74	2330.59
388.95	2463.71
389.16	2385.88
389.38	2379.74
389.59	2484.19
389.80	2539.48
390.02	2486.23
390.23	2482.14
390.44	2445.27
390.66	2488.28
390.87	2516.95
391.08	2385.88
391.30	2568.15
391.51	2541.53
391.72	2580.44
391.94	2580.44
392.15	2537.43
392.36	2547.67
392.58	2523.10
392.79	2615.26
393.00	2613.21
393.22	2693.08
393.43	2711.51
393.64	2609.11
393.85	2650.07
394.07	2648.02
394.28	2645.98
394.49	2670.55
394.71	2684.89
394.92	2826.20
395.13	2764.76
395.35	2641.88
395.56	2785.24
395.77	2680.79
395.98	2828.24
396.20	2801.62
396.41	2715.61
396.62	2795.48
396.84	2795.48
397.05	2877.40
397.26	2912.21
397.47	2875.35
397.69	2770.90
397.90	2930.64
398.11	2926.55
398.32	2979.79
398.54	2758.61
398.75	2928.60
398.96	2904.02
399.18	3033.04
399.39	2963.41
399.60	2932.69
399.81	2928.60
400.03	3024.85
400.24	3153.87
400.45	2887.64
400.66	3071.95
400.88	2998.23
401.09	3117.01
401.30	3086.29
401.51	3190.74
401.73	3123.15
401.94	3125.20
402.15	3254.22
402.36	3061.71
402.58	3121.10
402.79	3239.89
403.00	3168.21
403.21	3229.65
403.43	3231.69
403.64	3207.12
403.85	3219.41
404.06	3235.79
404.27	3139.54
404.49	3217.36
404.70	3241.93
404.91	3360.72
405.12	3297.23
405.34	3200.98
405.55	3413.96
405.76	3233.74
405.97	3196.88
406.19	3336.14
406.40	3311.57
406.61	3344.33
406.82	3381.20
407.03	3276.75
407.25	3289.04
407.46	3399.63
407.67	3403.72
407.88	3448.78
408.09	3385.29
408.31	3510.22
408.52	3530.70
408.73	3469.26
408.94	3401.68
409.15	3514.31
409.37	3504.07
409.58	3608.52
409.79	3645.38
410.00	3626.95
410.21	3581.90
410.43	3534.79
410.64	3655.62
410.85	3563.47
411.06	3633.10
411.27	3649.48
411.48	3686.34
411.70	3641.29
411.91	3686.34
412.12	3674.06
412.33	3592.14
412.54	3717.06
412.76	3719.11
412.97	3704.78
413.18	3667.91
413.39	3747.78
413.60	3803.08
413.81	3803.08
414.03	3768.26
414.24	3729.35
414.45	3801.03
414.66	3880.90
414.87	3870.66
415.08	3874.76
415.30	4005.83
415.51	3829.70
415.72	3966.92
415.93	3942.34
416.14	4014.02
416.35	4003.78
416.56	3921.86
416.78	3975.11
416.99	3987.40
417.20	4054.98
417.41	3987.40
417.62	4009.92
417.83	4075.46
418.04	4132.80
418.26	4253.63
418.47	4140.99
418.68	4241.34
418.89	4011.97
419.10	4233.15
419.31	4243.39
419.52	4333.50
419.73	4384.70
419.95	4241.34
420.16	4016.07
420.37	4255.68
420.58	4376.51
420.79	4278.21
421.00	4353.98
421.21	4317.12
421.42	4296.64
421.63	4358.08
421.85	4376.51
422.06	4530.11
422.27	4437.95
422.48	4384.70
422.69	4591.55
422.90	4579.26
423.11	4652.98
423.32	4577.21
423.53	4761.53
423.75	4675.51
423.96	4796.34
424.17	4640.70
424.38	4722.62
424.59	4802.49
424.80	4861.88
425.01	4763.58
425.22	4695.99
425.43	4669.37
425.64	5017.52
425.85	4988.85
426.06	4825.01
426.28	4970.42
426.49	4851.64
426.70	4872.12
426.91	4962.23
427.12	5068.72
427.33	4935.60
427.54	5017.52
427.75	5033.91
427.96	5038.00
428.17	5130.16
428.38	5164.98
428.59	5113.78
428.80	5226.42
429.01	5250.99
429.23	5287.86
429.44	5441.45
429.65	5203.89
429.86	5418.93
430.07	5402.54
430.28	5158.83
430.49	5502.89
430.70	5539.76
430.91	5423.02
431.12	5496.75
431.33	5752.74
431.54	5568.43
431.75	5621.67
431.96	5597.10
432.17	5611.43
432.38	5623.72
432.59	5904.29
432.80	5609.39
433.01	5912.49
433.22	5834.66
433.43	5832.62
433.64	5754.79
433.85	5765.03
434.06	5822.38
434.27	5865.38
434.49	5963.68
434.70	6150.05
434.91	6080.42
435.12	5873.57
435.33	6127.52
435.54	5902.25
435.75	5959.59
435.96	6113.19
436.17	6121.38
436.38	6274.98
436.59	6303.65
436.80	6244.26
437.01	6483.87
437.22	6416.29
437.43	6389.66
437.64	6066.08
437.85	6387.61
438.06	6514.59
438.27	6406.05
438.48	6356.90
438.69	6539.16
438.90	6381.47
439.11	6410.14
439.32	6455.20
439.53	6537.12
439.74	6639.51
439.95	6543.26
440.16	6604.70
440.37	6664.09
440.57	6516.64
440.78	6672.28
440.99	6774.68
441.20	6752.15
441.41	6649.75
441.62	6727.58
441.83	6602.65
442.04	6965.14
442.25	7010.20
442.46	6834.07
442.67	7178.13
442.88	7335.82
443.09	6963.09
443.30	6963.09
443.51	6832.02
443.72	7407.50
443.93	6905.75
444.14	7290.77
444.35	6856.60
444.56	7153.55
444.77	7126.93
444.98	7038.87
445.19	7237.52
445.40	7241.62
445.61	7276.43
445.81	7409.55
446.02	7325.58
446.23	7200.66
446.44	7155.60
446.65	7436.17
446.86	7378.83
447.07	7315.34
447.28	7706.51
447.49	7600.01
447.70	7384.98
447.91	7608.20
448.12	7694.22
448.33	7659.40
448.54	7688.07
448.74	7552.91
448.95	7671.69
449.16	7657.36
449.37	7929.74
449.58	7755.66
449.79	8083.33
450.00	7655.31
450.21	8019.85
450.42	8136.58
450.63	7878.54
450.84	8009.61
451.05	7966.60
451.25	8144.77
451.46	8030.09
451.67	7987.08
451.88	8124.29
452.09	8243.07
452.30	8150.92
452.51	8169.35
452.72	8144.77
452.93	8447.87
453.13	8257.41
453.34	8279.94
453.55	8462.21
453.76	8324.99
453.97	8853.37
454.18	8656.76
454.39	8605.56
454.60	8499.07
454.81	8710.01
455.01	8847.22
455.22	8525.69
455.43	8845.18
455.64	8994.68
455.85	8976.25
456.06	9080.69
456.27	8886.14
456.48	9090.93
456.68	9045.88
456.89	8916.86
457.10	9258.87
457.31	9269.11
457.52	9111.41
457.73	9301.87
457.94	9516.91
458.14	9160.56
458.35	9434.99
458.56	9365.36
458.77	9428.85
458.98	9502.58
459.19	9568.11
459.39	9555.82
459.60	10014.57
459.81	9639.79
460.02	10014.57
460.23	9717.61
460.44	10164.07
460.65	9924.46
460.85	10166.12
461.06	10092.39
461.27	9869.16
461.48	10495.84
461.69	10555.23
461.89	10096.49
462.10	10276.71
462.31	10110.82
462.52	10372.96
462.73	10299.23
462.94	10780.51
463.14	10760.03
463.35	10657.63
463.56	11059.03
463.77	10843.99
463.98	10770.27
464.18	10800.99
464.39	11061.08
464.60	11274.07
464.81	11186.01
465.02	11052.89
465.23	11431.76
465.43	11341.65
465.64	11679.57
465.85	11349.84
466.06	11317.08
466.27	11630.41
466.47	11562.83
466.68	11689.81
466.89	11513.68
467.10	12140.36
467.30	11536.21
467.51	11835.21
467.72	12164.93
467.93	11943.75
468.14	12144.45
468.34	12019.53
468.55	12416.83
468.76	12377.92
468.97	12273.48
469.17	12502.85
469.38	12480.32
469.59	12840.76
469.80	12519.23
470.01	12758.85
470.21	12724.03
470.42	13000.51
470.63	13094.71
470.84	12861.24
471.04	13221.69
471.25	13260.60
471.46	13270.84
471.67	13526.83
471.87	13365.04
472.08	13522.74
472.29	13977.39
472.50	13356.85
472.70	13649.71
472.91	13836.08
473.12	14143.27
473.33	13879.08
473.53	14063.40
473.74	14157.61
473.95	14489.38
474.16	14661.41
474.36	14669.60
474.57	14432.04
474.78	14915.36
474.99	14896.92
475.19	14728.99
475.40	15277.85
475.61	15345.43
475.81	15316.76
476.02	15660.82
476.23	15345.43
476.44	15828.75
476.64	15730.45
476.85	15990.54
477.06	15689.49
477.27	16283.40
477.47	16144.14
477.68	16213.77
477.89	16434.95
478.09	16449.28
478.30	16654.08
478.51	16631.55
478.71	16893.69
478.92	16860.93
479.13	17090.30
479.34	17137.40
479.54	17092.35
479.75	17207.03
479.96	17352.44
480.16	17323.77
480.37	17614.58
480.58	17811.18
480.78	17827.57
480.99	18145.00
481.20	18208.49
481.41	18390.76
481.61	18142.96
481.82	18403.05
482.03	18370.28
482.23	18419.43
482.44	18843.36
482.65	18837.22
482.85	18992.86
483.06	18941.66
483.27	19103.45
483.47	19277.53
483.68	19158.75
483.89	19599.06
484.09	19474.13
484.30	19795.67
484.51	19906.26
484.71	20119.24
484.92	20297.42
485.13	20403.91
485.33	20621.00
485.54	20455.11
485.75	20586.18
485.95	20678.34
486.16	20727.49
486.37	21223.10
486.57	21061.31
486.78	21028.54
486.98	21198.52
487.19	21397.18
487.40	21413.56
487.60	21534.39
487.81	21952.18
488.02	21917.36
488.22	21554.87
488.43	22036.14
488.64	22120.11
488.84	22204.08
489.05	22234.80
489.25	22220.46
489.46	22671.01
489.67	22507.18
489.87	22748.84
490.08	22714.02
490.29	22902.43
490.49	23006.88
490.70	23082.66
490.90	23236.25
491.11	23295.64
491.32	23707.29
491.52	23432.86
491.73	23518.87
491.94	23682.71
492.14	23725.72
492.35	24086.16
492.55	24116.88
492.76	24356.49
492.97	24610.44
493.17	24075.92
493.38	24735.37
493.58	24503.95
493.79	25056.90
494.00	24450.70
494.20	25112.19
494.41	25190.02
494.61	25022.08
494.82	25316.99
495.02	25181.82
495.23	25599.61
495.44	25466.49
495.64	25409.15
495.85	25538.17
496.05	25835.13
496.26	25835.13
496.47	25927.28
496.67	25874.04
496.88	26279.54
497.08	25857.65
497.29	26347.12
497.49	26336.88
497.70	26752.62
497.91	26697.32
498.11	26601.07
498.32	26885.73
498.52	26873.45
498.73	27160.16
498.93	27151.97
499.14	27180.64
499.34	27338.33
499.55	27332.19
499.76	27280.99
499.96	27313.76
500.17	27407.97
500.37	27813.46
500.58	27752.02
500.78	27792.98
500.99	27928.15
501.19	28487.25
501.40	28128.85
501.60	27975.25
501.81	28024.40
502.02	28575.31
502.22	28227.15
502.43	28585.55
502.63	28446.29
502.84	28870.22
503.04	28520.01
503.25	28902.98
503.45	28841.54
503.66	29558.33
503.86	29134.40
504.07	29482.56
504.27	29113.92
504.48	29539.90
504.68	29097.54
504.89	29429.31
505.09	29881.91
505.30	29685.31
505.50	29652.54
505.71	29828.66
505.91	29992.50
506.12	29908.54
506.32	29957.69
506.53	30203.44
506.73	30215.73
506.94	30354.99
507.14	30170.68
507.35	30391.86
507.55	30377.52
507.76	30871.08
507.96	30678.57
508.17	30533.17
508.37	31075.88
508.58	30834.22
508.78	30555.69
508.99	31122.98
509.19	30713.39
509.40	30897.70
509.60	31088.17
509.81	30936.62
510.01	30924.33
510.22	31321.63
510.42	31491.62
510.63	31505.95
510.83	31305.25
511.04	31755.80
511.24	31567.39
511.44	31227.43
511.65	31854.11
511.85	31520.29
512.06	31608.35
512.26	32024.09
512.47	32001.56
512.67	32159.25
512.88	32151.06
513.08	31764.00
513.29	31933.98
513.49	32218.64
513.69	32106.01
513.90	32390.67
514.10	32364.05
514.31	32574.99
514.51	33021.45
514.72	32351.76
514.92	32757.26
515.13	32771.60
515.33	32882.19
515.53	32728.59
515.74	32824.84
515.94	32884.23
516.15	33304.07
516.35	32992.78
516.56	33465.86
516.76	32871.95
516.96	33252.87
517.17	33451.52
517.37	33422.85
517.58	33578.50
517.78	33539.58
517.99	34024.95
518.19	33783.29
518.39	33924.60
518.60	33785.34
518.80	33777.15
519.01	34164.21
519.21	34076.15
519.41	34330.10
519.62	34483.70
519.82	34395.64
520.03	34751.98
520.23	34424.31
520.43	34176.50
520.64	34821.61
520.84	34780.65
521.05	34571.76
521.25	35177.96
521.45	34971.11
521.66	35018.22
521.86	34876.91
522.07	35362.28
522.27	35108.33
522.47	35268.07
522.68	35968.48
522.88	35571.17
523.08	35964.38
523.29	35788.25
523.49	35769.82
523.70	36361.69
523.90	36148.70
524.10	36171.22
524.31	36206.04
524.51	36335.06
524.71	36472.28
524.92	36568.53
525.12	36763.09
525.33	36378.07
525.53	36840.91
525.73	36580.82
525.94	36799.95
526.14	36814.29
526.34	37361.09
526.55	37248.46
526.75	37062.09
526.95	37088.71
527.16	37307.85
527.36	37146.06
527.56	37467.59
527.77	37766.59
527.97	37676.48
528.17	37529.03
528.38	37854.65
528.58	38161.85
528.78	38172.09
528.99	38139.32
529.19	38567.35
529.39	38112.70
529.60	39060.91
529.80	38358.45
530.00	38636.98
530.21	38280.63
530.41	38792.62
530.61	38954.41
530.82	38868.40
531.02	39105.96
531.22	39292.33
531.43	39253.42
531.63	38921.65
531.83	39706.02
532.04	39871.90
532.24	39439.78
532.44	39912.86
532.64	40209.82
532.85	40314.26
533.05	39947.68
533.25	40299.93
533.46	40308.12
533.66	40834.45
533.86	40539.54
534.07	41069.97
534.27	40611.22
534.47	41186.70
534.67	40744.34
534.88	41035.15
535.08	40770.96
535.28	41293.19
535.49	41393.54
535.69	41409.93
535.89	41397.64
536.09	41332.11
536.30	41788.80
536.50	41698.69
536.70	41880.96
536.91	41940.35
537.11	42026.37
537.31	42089.85
537.51	41936.26
537.72	42507.64
537.92	42419.58
538.12	42945.90
538.32	42671.48
538.53	42925.42
538.73	42427.77
538.93	42835.31
539.13	42618.23
539.34	42988.91
539.54	43117.93
539.74	43226.48
539.94	43500.90
540.15	43097.45
540.35	43492.71
540.55	43267.44
540.75	43502.95
540.96	43685.22
541.16	43664.74
541.36	43779.43
541.56	43736.42
541.77	44221.79
541.97	44000.61
542.17	44139.87
542.37	44283.23
542.58	44272.99
542.78	44379.48
542.98	44189.02
543.18	44674.39
543.38	44811.60
543.59	44615.00
543.79	44338.52
543.99	44442.97
544.19	45135.18
544.40	44719.45
544.60	44981.59
544.80	44942.67
545.00	45210.96
545.20	45305.16
545.41	45180.24
545.61	45731.14
545.81	45382.99
546.01	45415.76
546.21	45980.99
546.42	45575.50
546.62	46005.57
546.82	45227.34
547.02	45708.61
547.22	46089.54
547.43	45454.67
547.63	46112.06
547.83	46118.21
548.03	45919.56
548.23	46148.93
548.44	45929.80
548.64	46095.68
548.84	46640.44
549.04	46398.78
549.24	46523.71
549.45	46335.29
549.65	46247.23
549.85	46368.06
550.05	46931.25
550.25	46464.32
550.45	47011.12
550.66	46720.31
550.86	46966.07
551.06	47150.38
551.26	46929.20
551.46	47424.81
551.66	47191.34
551.87	46732.60
552.07	47047.99
552.27	47117.62
552.47	47166.77
552.67	47600.94
552.87	47109.43
553.07	47250.74
553.28	47521.07
553.48	47437.10
553.68	47207.73
553.88	47701.29
554.08	47574.31
554.28	47895.85
554.48	47531.31
554.69	48133.41
554.89	47562.03
555.09	47830.31
555.29	47639.85
555.49	48041.25
555.69	47742.25
555.89	47897.89
556.10	48170.27
556.30	47988.00
556.50	48069.92
556.70	47965.48
556.90	48200.99
557.10	48026.92
557.30	47717.67
557.50	48190.75
557.70	48555.29
557.91	48545.05
558.11	48354.59
558.31	48522.52
558.51	48592.15
558.71	48561.44
558.91	48876.82
559.11	48260.38
559.31	48391.45
559.51	48508.19
559.72	48422.17
559.92	48784.66
560.12	48276.77
560.32	48973.08
560.52	48569.63
560.72	48753.94
560.92	48682.27
561.12	48551.20
561.32	49622.28
561.52	48674.07
561.72	49349.90
561.93	49480.97
562.13	49220.88
562.33	48590.11
562.53	49460.49
562.73	49108.24
562.93	49067.28
563.13	49224.98
563.33	48803.10
563.53	49171.73
563.73	49175.83
563.93	49454.35
564.13	49769.74
564.33	49378.57
564.53	49263.89
564.74	49757.45
564.94	49196.31
565.14	49337.62
565.34	49513.74
565.54	49460.49
565.74	49589.52
565.94	49847.56
566.14	49509.64
566.34	49200.40
566.54	50242.82
566.74	49167.63
566.94	49720.59
567.14	49687.82
567.34	49747.21
567.54	49583.37
567.74	49698.06
567.94	49478.92
568.14	50455.81
568.34	49919.24
568.54	49902.85
568.74	50044.16
568.94	49956.10
569.14	49865.99
569.34	50136.32
569.54	50136.32
569.75	49622.28
569.95	50251.01
570.15	50726.14
570.35	50314.50
570.55	50142.47
570.75	50390.27
570.95	50322.69
571.15	50615.55
571.35	50578.68
571.55	51127.54
571.75	50269.44
571.95	50806.01
572.15	50607.36
572.35	50849.02
572.55	50541.82
572.75	50853.11
572.95	50648.32
573.15	50564.35
573.35	50787.58
573.55	50932.98
573.75	50707.71
573.95	51008.76
574.15	50908.41
574.35	51258.61
574.55	50998.52
574.75	51498.22
574.95	51195.12
575.15	51107.06
575.34	51008.76
575.54	51502.32
575.74	51571.95
575.94	51363.06
576.14	51379.44
576.34	51418.35
576.54	51668.20
576.74	51569.90
576.94	51866.86
577.14	51612.91
577.34	51696.88
577.54	51582.19
577.74	51485.93
577.94	51829.99
578.14	51762.41
578.34	52186.34
578.54	51530.99
578.74	51819.75
578.94	52114.66
579.14	52319.46
579.34	51735.79
579.54	51748.07
579.74	52262.11
579.94	52335.84
580.13	52571.36
580.33	52376.80
580.53	52212.96
580.73	52270.31
580.93	52245.73
581.13	52778.20
581.33	52593.89
581.53	52655.32
581.73	52802.78
581.93	52968.66
582.13	52475.10
582.33	52915.42
582.53	52720.86
582.73	52763.87
582.92	52694.24
583.12	52796.63
583.32	52958.42
583.52	52810.97
583.72	53230.80
583.92	52886.74
584.12	52821.21
584.32	53386.45
584.52	53167.32
584.72	53253.33
584.92	53568.72
585.11	53667.02
585.31	53343.44
585.51	53497.04
585.71	53368.02
585.91	53843.15
586.11	53322.96
586.31	53275.86
586.51	53257.43
586.71	53664.97
586.91	53685.45
587.10	53900.49
587.30	53853.39
587.50	53734.60
587.70	53591.25
587.90	53880.01
588.10	54033.61
