SpectraSuite Data File
++++++++++++++++++++++++++++++++++++
Date: Tue Jun 13 12:03:49 CEST 2017
User: INFO_000
Dark Spectrum Present: No
Reference Spectrum Present: No
Number of Sampled Component Spectra: 1
Spectrometers: USB4H00879
Integration Time (usec): 30000 (USB4H00879)
Spectra Averaged: 1 (USB4H00879)
Boxcar Smoothing: 0 (USB4H00879)
Correct for Electrical Dark: No (USB4H00879)
Strobe/Lamp Enabled: No (USB4H00879)
Correct for Detector Non-linearity: No (USB4H00879)
Correct for Stray Light: No (USB4H00879)
Number of Pixels in Processed Spectrum: 3648
>>>>>Begin Processed Spectral Data<<<<<
345.13	1384.43
345.34	1384.43
345.56	1384.43
345.78	1351.66
345.99	1384.43
346.21	1495.02
346.42	1564.65
346.64	1521.64
346.86	1630.18
347.07	1525.74
347.29	1540.07
347.50	1480.68
347.72	1564.65
347.94	1501.16
348.15	1423.34
348.37	1464.30
348.59	1517.54
348.80	1505.26
349.02	1570.79
349.23	1603.56
349.45	1587.18
349.67	1662.95
349.88	1505.26
350.10	1656.81
350.31	1648.61
350.53	1576.94
350.75	1642.47
350.96	1634.28
351.18	1593.32
351.39	1621.99
351.61	1605.61
351.82	1562.60
352.04	1642.47
352.26	1648.61
352.47	1677.29
352.69	1636.33
352.90	1621.99
353.12	1628.14
353.34	1595.37
353.55	1679.33
353.77	1697.77
353.98	1642.47
354.20	1609.70
354.41	1689.57
354.63	1669.09
354.85	1699.81
355.06	1662.95
355.28	1630.18
355.49	1662.95
355.71	1609.70
355.92	1658.85
356.14	1611.75
356.35	1677.29
356.57	1662.95
356.79	1656.81
357.00	1658.85
357.22	1705.96
357.43	1654.76
357.65	1761.25
357.86	1648.61
358.08	1652.71
358.29	1591.27
358.51	1728.49
358.72	1669.09
358.94	1685.48
359.16	1742.82
359.37	1671.14
359.59	1710.05
359.80	1726.44
360.02	1654.76
360.23	1705.96
360.45	1667.05
360.66	1646.57
360.88	1587.18
361.09	1665.00
361.31	1703.91
361.52	1736.68
361.74	1802.21
361.95	1751.01
362.17	1650.66
362.38	1734.63
362.60	1740.77
362.81	1628.14
363.03	1677.29
363.24	1718.25
363.46	1853.41
363.67	1753.06
363.89	1714.15
364.10	1734.63
364.32	1685.48
364.53	1777.64
364.75	1699.81
364.96	1751.01
365.18	1693.67
365.39	1718.25
365.61	1720.29
365.82	1753.06
366.04	1779.68
366.25	1695.72
366.47	1755.11
366.68	1808.36
366.90	1740.77
367.11	1771.49
367.33	1779.68
367.54	1777.64
367.76	1705.96
367.97	1751.01
368.19	1781.73
368.40	1800.16
368.62	1755.11
368.83	1740.77
369.05	1775.59
369.26	1724.39
369.48	1699.81
369.69	1665.00
369.91	1746.92
370.12	1800.16
370.33	1828.84
370.55	1777.64
370.76	1779.68
370.98	1744.87
371.19	1800.16
371.41	1822.69
371.62	1771.49
371.84	1738.73
372.05	1875.94
372.27	1816.55
372.48	1781.73
372.69	1781.73
372.91	1812.45
373.12	1812.45
373.34	1787.88
373.55	1843.17
373.77	1863.65
373.98	1914.85
374.20	1857.51
374.41	1914.85
374.62	1832.93
374.84	1818.60
375.05	1947.62
375.27	1826.79
375.48	1851.36
375.70	1886.18
375.91	1970.15
376.12	1851.36
376.34	1865.70
376.55	1910.75
376.77	1943.52
376.98	1845.22
377.19	1837.03
377.41	1904.61
377.62	2031.58
377.84	1914.85
378.05	2013.15
378.27	1929.19
378.48	2017.25
378.69	2002.91
378.91	1994.72
379.12	1935.33
379.34	1908.71
379.55	1964.00
379.76	1947.62
379.98	1916.90
380.19	1910.75
380.41	1845.22
380.62	2045.92
380.83	1978.34
381.05	1908.71
381.26	2095.07
381.47	1961.95
381.69	1939.43
381.90	2011.11
382.12	2013.15
382.33	2015.20
382.54	1986.53
382.76	2015.20
382.97	1953.76
383.19	1998.82
383.40	2000.87
383.61	2029.54
383.83	2004.96
384.04	2011.11
384.25	2031.58
384.47	2084.83
384.68	2090.98
384.89	2060.26
385.11	2064.35
385.32	2064.35
385.54	2019.30
385.75	1980.39
385.96	2047.97
386.18	2148.32
386.39	2078.69
386.60	2076.64
386.82	2170.85
387.03	2150.37
387.24	2191.33
387.46	2154.46
387.67	2166.75
387.88	2105.31
388.10	2246.62
388.31	2150.37
388.52	2222.05
388.74	2201.57
388.95	2179.04
389.16	2166.75
389.38	2172.89
389.59	2133.98
389.80	2222.05
390.02	2162.66
390.23	2277.34
390.44	2205.66
390.66	2252.77
390.87	2209.76
391.08	2283.49
391.30	2297.82
391.51	2230.24
391.72	2316.25
391.94	2273.25
392.15	2271.20
392.36	2222.05
392.58	2170.85
392.79	2299.87
393.00	2297.82
393.22	2389.98
393.43	2346.97
393.64	2361.31
393.85	2351.07
394.07	2394.08
394.28	2330.59
394.49	2400.22
394.71	2406.36
394.92	2531.29
395.13	2443.23
395.35	2385.88
395.56	2277.34
395.77	2402.27
395.98	2363.36
396.20	2416.60
396.41	2418.65
396.62	2605.02
396.84	2451.42
397.05	2506.71
397.26	2398.17
397.47	2562.01
397.69	2475.99
397.90	2527.19
398.11	2514.91
398.32	2566.10
398.54	2519.00
398.75	2547.67
398.96	2498.52
399.18	2629.59
399.39	2529.24
399.60	2545.63
399.81	2562.01
400.03	2576.34
400.24	2797.53
400.45	2613.21
400.66	2707.41
400.88	2617.30
401.09	2641.88
401.30	2609.11
401.51	2680.79
401.73	2719.70
401.94	2711.51
402.15	2691.03
402.36	2711.51
402.58	2662.36
402.79	2758.61
403.00	2848.72
403.21	2750.42
403.43	2729.94
403.64	2901.97
403.85	2709.46
404.06	2848.72
404.27	2750.42
404.49	2713.56
404.70	2766.81
404.91	2791.38
405.12	2785.24
405.34	2742.23
405.55	2901.97
405.76	2779.09
405.97	2736.09
406.19	2893.78
406.40	2832.34
406.61	2807.77
406.82	2967.51
407.03	2930.64
407.25	2879.44
407.46	2922.45
407.67	2861.01
407.88	2971.60
408.09	2844.63
408.31	2856.92
408.52	2916.31
408.73	3010.51
408.94	2916.31
409.15	3020.75
409.37	2969.55
409.58	3080.14
409.79	3053.52
410.00	3047.38
410.21	3020.75
410.43	2994.13
410.64	2885.59
410.85	3061.71
411.06	3078.10
411.27	3131.34
411.48	3121.10
411.70	3098.58
411.91	3086.29
412.12	3215.31
412.33	3055.57
412.54	3209.17
412.76	3200.98
412.97	3080.14
413.18	3067.86
413.39	3125.20
413.60	3108.82
413.81	3254.22
414.03	3198.93
414.24	3172.30
414.45	3278.80
414.66	3162.06
414.87	3303.37
415.08	3209.17
415.30	3243.98
415.51	3278.80
415.72	3264.46
415.93	3317.71
416.14	3354.57
416.35	3358.67
416.56	3233.74
416.78	3418.06
416.99	3315.66
417.20	3272.65
417.41	3368.91
417.62	3459.02
417.83	3411.92
418.04	3397.58
418.26	3454.92
418.47	3407.82
418.68	3520.46
418.89	3477.45
419.10	3504.07
419.31	3493.83
419.52	3545.03
419.73	3481.55
419.95	3620.81
420.16	3448.78
420.37	3508.17
420.58	3514.31
420.79	3448.78
421.00	3522.51
421.21	3538.89
421.42	3686.34
421.63	3778.50
421.85	3641.29
422.06	3631.05
422.27	3524.55
422.48	3674.06
422.69	3712.97
422.90	3706.82
423.11	3786.69
423.32	3717.06
423.53	3798.98
423.75	3813.32
423.96	3940.29
424.17	3782.60
424.38	3946.44
424.59	3925.96
424.80	3975.11
425.01	3942.34
425.22	3864.52
425.43	3913.67
425.64	4024.26
425.85	4042.69
426.06	3968.96
426.28	4061.12
426.49	3983.30
426.70	4091.84
426.91	4143.04
427.12	4063.17
427.33	4026.31
427.54	4003.78
427.75	4110.27
427.96	4143.04
428.17	4214.72
428.38	4239.30
428.59	4298.69
428.80	4288.45
429.01	4229.06
429.23	4317.12
429.44	4517.82
429.65	4474.81
429.86	4347.84
430.07	4241.34
430.28	4267.97
430.49	4433.85
430.70	4480.96
430.91	4462.52
431.12	4487.10
431.33	4546.49
431.54	4573.11
431.75	4583.35
431.96	4460.48
432.17	4515.77
432.38	4458.43
432.59	4669.37
432.80	4530.11
433.01	4601.79
433.22	4743.10
433.43	4677.56
433.64	4712.38
433.85	4671.42
434.06	4747.19
434.27	4681.66
434.49	4659.13
434.70	4788.15
434.91	4820.92
435.12	4896.69
435.33	4935.60
435.54	4894.65
435.75	4646.84
435.96	4788.15
436.17	4843.45
436.38	4999.09
436.59	5021.62
436.80	4857.78
437.01	5038.00
437.22	5066.67
437.43	5007.28
437.64	4886.45
437.85	5046.20
438.06	5011.38
438.27	5058.48
438.48	5023.67
438.69	5191.60
438.90	5173.17
439.11	5029.81
439.32	5285.81
439.53	5240.75
439.74	5238.70
439.95	5253.04
440.16	5236.66
440.37	5300.14
440.57	5214.13
440.78	5334.96
440.99	5349.29
441.20	5310.38
441.41	5363.63
441.62	5466.03
441.83	5410.73
442.04	5560.24
442.25	5455.79
442.46	5310.38
442.67	5463.98
442.88	5771.18
443.09	5521.32
443.30	5545.90
443.51	5629.87
443.72	5730.22
443.93	5576.62
444.14	5758.89
444.35	5390.25
444.56	5740.46
444.77	5693.35
444.98	5515.18
445.19	5877.67
445.40	5713.83
445.61	5711.78
445.81	5711.78
446.02	5799.85
446.23	5650.35
446.44	5777.32
446.65	5758.89
446.86	5793.70
447.07	5769.13
447.28	5812.14
447.49	5978.02
447.70	5992.36
447.91	5920.68
448.12	5932.97
448.33	5963.68
448.54	6135.71
448.74	5935.01
448.95	6061.99
449.16	5818.28
449.37	6285.22
449.58	6053.80
449.79	6156.19
450.00	6070.18
450.21	6098.85
450.42	6385.57
450.63	6369.18
450.84	6352.80
451.05	6354.85
451.25	6301.60
451.46	6227.87
451.67	6256.54
451.88	6383.52
452.09	6410.14
452.30	6344.61
452.51	6453.15
452.72	6449.05
452.93	6707.10
453.13	6520.73
453.34	6383.52
453.55	6539.16
453.76	6694.81
453.97	6766.49
454.18	6690.71
454.39	6791.06
454.60	6795.16
454.81	6743.96
455.01	6875.03
455.22	6594.46
455.43	6709.15
455.64	6926.23
455.85	7071.64
456.06	7118.74
456.27	6918.04
456.48	6979.48
456.68	7133.08
456.89	7069.59
457.10	7165.84
457.31	7149.46
457.52	6985.62
457.73	7321.49
457.94	7255.95
458.14	7303.06
458.35	7489.42
458.56	7366.54
458.77	7212.95
458.98	7446.41
459.19	7294.86
459.39	7579.53
459.60	7620.49
459.81	7518.09
460.02	7696.27
460.23	7720.84
460.44	7858.06
460.65	7841.67
460.85	7759.75
461.06	7970.69
461.27	7784.33
461.48	7882.63
461.69	8069.00
461.89	7933.83
462.10	7982.98
462.31	7911.30
462.52	7972.74
462.73	8056.71
462.94	8179.59
463.14	8042.37
463.35	8116.10
463.56	8529.79
463.77	8466.30
463.98	8294.27
464.18	8525.69
464.39	8327.04
464.60	8503.17
464.81	8511.36
465.02	8525.69
465.23	8576.89
465.43	8773.50
465.64	8933.24
465.85	8773.50
466.06	8660.86
466.27	8982.39
466.47	8816.51
466.68	9115.51
466.89	9019.25
467.10	9209.72
467.30	8785.79
467.51	9135.99
467.72	9371.50
467.93	8976.25
468.14	9338.74
468.34	9424.75
468.55	9451.38
468.76	9232.24
468.97	9467.76
469.17	9584.49
469.38	9619.31
469.59	9903.98
469.80	9678.70
470.01	9779.05
470.21	9574.25
470.42	9813.87
470.63	10108.77
470.84	10004.33
471.04	10088.29
471.25	10039.14
471.46	10043.24
471.67	10213.22
471.87	10297.19
472.08	10440.54
472.29	10506.08
472.50	10127.21
472.70	10674.01
472.91	10583.90
473.12	10782.56
473.33	10725.21
473.53	10819.42
473.74	10680.16
473.95	11018.07
474.16	11063.13
474.36	11028.31
474.57	11159.38
474.78	11425.62
474.99	11257.68
475.19	11106.13
475.40	11689.81
475.61	11540.30
475.81	11589.46
476.02	11900.75
476.23	11687.76
476.44	11804.49
476.64	12023.62
476.85	12083.02
477.06	12230.47
477.27	12427.07
477.47	12230.47
477.68	12367.68
477.89	12336.96
478.09	12203.85
478.30	12472.13
478.51	12422.98
478.71	12773.18
478.92	12640.06
479.13	12717.89
479.34	12879.68
479.54	12904.25
479.75	12990.27
479.96	13023.03
480.16	13199.16
480.37	13336.37
480.58	13369.14
480.78	13363.00
480.99	13504.31
481.20	13739.82
481.41	13649.71
481.61	13918.00
481.82	14173.99
482.03	13709.10
482.23	14022.44
482.44	14288.68
482.65	14311.21
482.85	14419.75
483.06	14382.88
483.27	14284.58
483.47	14489.38
483.68	14477.09
483.89	14761.76
484.09	14544.67
484.30	14831.39
484.51	14843.68
484.71	14933.79
484.92	14853.92
485.13	15152.92
485.33	14925.60
485.54	15238.94
485.75	15537.94
485.95	15453.97
486.16	15513.36
486.37	15746.83
486.57	15679.25
486.78	15599.38
486.98	15851.28
487.19	16131.85
487.40	16013.07
487.60	16133.90
487.81	16121.61
488.02	16277.26
488.22	16213.77
488.43	16142.09
488.64	16510.72
488.84	16434.95
489.05	16744.19
489.25	16531.20
489.46	17106.68
489.67	16789.25
489.87	17030.91
490.08	16856.83
490.29	17186.55
490.49	17397.49
490.70	17387.25
490.90	17295.10
491.11	17039.10
491.32	17241.85
491.52	17604.34
491.73	17536.76
491.94	17465.08
492.14	17815.28
492.35	17882.86
492.55	17608.44
492.76	17903.34
492.97	18202.35
493.17	18173.67
493.38	17919.73
493.58	18372.33
493.79	18341.61
494.00	18314.98
494.20	18530.02
494.41	18589.41
494.61	18749.15
494.82	18609.89
495.02	18792.16
495.23	18613.99
495.44	18970.33
495.64	19181.28
495.85	19031.77
496.05	19091.16
496.26	19197.66
496.47	19427.03
496.67	19267.29
496.88	19463.90
497.08	19341.02
497.29	19515.09
497.49	19443.42
497.70	19576.53
497.91	19726.04
498.11	19644.12
498.32	20102.86
498.52	19957.46
498.73	20477.64
498.93	19965.65
499.14	20078.29
499.34	20223.69
499.55	20287.18
499.76	20315.85
499.96	20340.43
500.17	20532.93
500.37	20514.50
500.58	20694.72
500.78	20674.24
500.99	20848.32
501.19	20723.40
501.40	21008.06
501.60	20868.80
501.81	20778.69
502.02	20905.66
502.22	20784.83
502.43	21053.12
502.63	21079.74
502.84	21204.67
503.04	20838.08
503.25	21475.00
503.45	21532.34
503.66	21595.83
503.86	21397.18
504.07	21876.40
504.27	21452.47
504.48	21962.42
504.68	21833.39
504.89	21763.76
505.09	22091.44
505.30	21739.19
505.50	22013.62
505.71	21997.23
505.91	21927.60
506.12	22378.15
506.32	22054.58
506.53	22032.05
506.73	22408.87
506.94	22505.13
507.14	22232.75
507.35	22320.81
507.55	22525.61
507.76	22535.85
507.96	22369.96
508.17	22607.53
508.37	22288.04
508.58	22554.28
508.78	22857.38
508.99	22816.42
509.19	22818.47
509.40	22775.46
509.60	22892.19
509.81	22816.42
510.01	22730.41
510.22	23105.18
510.42	23000.74
510.63	23144.09
510.83	23318.17
511.04	23189.15
511.24	23217.82
511.44	23338.65
511.65	23369.37
511.85	23428.76
512.06	23512.73
512.26	23398.04
512.47	23537.30
512.67	23449.24
512.88	23615.13
513.08	23496.35
513.29	23555.74
513.49	23686.81
513.69	23613.08
513.90	23738.01
514.10	23914.13
514.31	23830.16
514.51	23891.60
514.72	24094.35
514.92	23725.72
515.13	24184.46
515.33	24102.54
515.53	24186.51
515.74	24057.49
515.94	24200.85
516.15	24460.94
516.35	24198.80
516.56	24407.69
516.76	24368.78
516.96	24376.97
517.17	24868.48
517.37	24616.58
517.58	24864.39
517.78	24630.92
517.99	24843.91
518.19	25085.57
518.39	24901.25
518.60	24819.33
518.80	24997.51
519.01	24972.93
519.21	25011.84
519.41	25034.37
519.62	25077.38
519.82	25130.62
520.03	25493.12
520.23	25314.94
520.43	25079.43
520.64	25544.31
520.84	25198.21
521.05	25249.41
521.25	25558.65
521.45	25572.99
521.66	25808.50
521.86	25499.26
522.07	25634.42
522.27	25534.07
522.47	25794.17
522.68	26091.12
522.88	25503.35
523.08	26248.82
523.29	25945.72
523.49	26232.43
523.70	26316.40
523.90	26195.57
524.10	26201.71
524.31	26488.43
524.51	26121.84
524.71	26728.04
524.92	26467.95
525.12	26840.68
525.33	26775.14
525.53	26588.78
525.73	27078.24
525.94	27000.42
526.14	26762.86
526.34	27125.35
526.55	27106.91
526.75	27162.21
526.95	27172.45
527.16	27072.10
527.36	27295.33
527.56	27463.26
527.77	27520.60
527.97	27590.24
528.17	27659.87
528.38	27688.54
528.58	27666.01
528.78	27952.73
528.99	27674.20
529.19	28210.77
529.39	28051.03
529.60	28212.82
529.80	27965.01
530.00	27973.21
530.21	28333.65
530.41	28530.25
530.61	28317.26
530.82	28347.98
531.02	28233.30
531.22	28614.22
531.43	28442.19
531.63	28765.77
531.83	28825.16
532.04	28868.17
532.24	28622.41
532.44	29527.61
532.64	29269.57
532.85	28978.76
533.05	28976.71
533.25	29234.75
533.46	29382.21
533.66	29660.73
533.86	29492.80
534.07	29888.06
534.27	29730.36
534.47	29722.17
534.67	29806.14
534.88	30029.37
535.08	29632.06
535.28	30244.40
535.49	30043.70
535.69	30266.93
535.89	30434.86
536.09	30131.76
536.30	30582.32
536.50	30416.43
536.70	30402.10
536.91	30404.14
537.11	30750.25
537.31	30930.47
537.51	30709.29
537.72	31153.70
537.92	31229.48
538.12	31421.98
538.32	30858.79
538.53	31266.34
538.73	31098.41
538.93	30973.48
539.13	30977.58
539.34	31231.52
539.54	31362.59
539.74	31280.67
539.94	31454.75
540.15	31247.91
540.35	31462.94
540.55	31565.34
540.75	31823.39
540.96	31723.04
541.16	31776.28
541.36	31661.60
541.56	31489.57
541.77	31923.74
541.97	31735.32
542.17	31958.55
542.37	32081.43
542.58	32427.54
542.78	31897.11
542.98	32267.80
543.18	32132.63
543.38	32560.66
543.59	32384.53
543.79	32400.91
543.99	32636.43
544.19	32738.83
544.40	32609.81
544.60	32851.47
544.80	32830.99
545.00	32843.27
545.20	32957.96
545.41	32878.09
545.61	32790.03
545.81	33349.12
546.01	33222.15
546.21	32962.06
546.42	32927.24
546.62	33115.65
546.82	33007.11
547.02	33031.69
547.22	33277.44
547.43	33283.59
547.63	33359.36
547.83	33758.72
548.03	33207.81
548.23	33537.54
548.44	33582.59
548.64	33641.98
548.84	33461.76
549.04	33568.26
549.24	33664.51
549.45	34063.86
549.65	33568.26
549.85	33332.74
550.05	33940.99
550.25	34033.14
550.45	34145.78
550.66	33830.40
550.86	33734.14
551.06	34055.67
551.26	33785.34
551.46	33983.99
551.66	34231.80
551.87	34135.54
552.07	34080.25
552.27	34299.38
552.47	34100.73
552.67	34375.16
552.87	34465.27
553.07	34440.69
553.28	34364.92
553.48	34438.64
553.68	34262.52
553.88	34774.51
554.08	34772.46
554.28	34508.27
554.48	34201.08
554.69	34696.69
554.89	34457.07
555.09	34708.97
555.29	34418.16
555.49	34995.69
555.69	34684.40
555.89	34743.79
556.10	35239.40
556.30	34639.34
556.50	34999.79
556.70	34850.28
556.90	34905.58
557.10	34616.82
557.30	34725.36
557.50	34635.25
557.70	35077.61
557.91	35069.42
558.11	34803.18
558.31	35075.56
558.51	34952.68
558.71	34897.39
558.91	35485.15
559.11	35024.36
559.31	35366.37
559.51	35003.88
559.72	35409.38
559.92	35087.85
560.12	35202.53
560.32	35417.57
560.52	35292.65
560.72	35306.98
560.92	35759.58
561.12	35773.92
561.32	35595.74
561.52	35483.11
561.72	35550.69
561.93	35644.90
562.13	35550.69
562.33	35405.28
562.53	35595.74
562.73	35575.27
562.93	35491.30
563.13	35558.88
563.33	35599.84
563.53	35519.97
563.73	35689.95
563.93	35972.57
564.13	36175.32
564.33	35509.73
564.53	35859.93
564.74	35868.12
564.94	35704.29
565.14	35786.21
565.34	35634.66
565.54	35827.17
565.74	35653.09
565.94	36244.95
566.14	35540.45
566.34	35751.39
566.54	35991.00
566.74	36079.07
566.94	36369.88
567.14	36330.97
567.34	36148.70
567.54	36253.14
567.74	35853.79
567.94	35800.54
568.14	36058.59
568.34	36148.70
568.54	36046.30
568.74	36435.41
568.94	36316.63
569.14	36449.75
569.34	36402.64
569.54	36099.55
569.75	36126.17
569.95	36290.01
570.15	36484.56
570.35	36650.45
570.55	36455.89
570.75	36328.92
570.95	36404.69
571.15	36472.28
571.35	36365.78
571.55	36789.71
571.75	36427.22
571.95	36607.44
572.15	36378.07
572.35	36578.77
572.55	36816.33
572.75	36933.07
572.95	36378.07
573.15	36255.19
573.35	36658.64
573.55	36754.90
573.75	36421.08
573.95	36742.61
574.15	36500.95
574.35	36984.27
574.55	36670.93
574.75	36642.26
574.95	36980.17
575.15	36795.85
575.34	36818.38
575.54	36793.81
575.74	36900.30
575.94	37264.84
576.14	36963.79
576.34	37219.78
576.54	37043.66
576.74	36974.03
576.94	37107.15
577.14	37141.96
577.34	37608.90
577.54	36836.81
577.74	37133.77
577.94	37107.15
578.14	37057.99
578.34	37502.40
578.54	37232.07
578.74	37027.28
578.94	37694.91
579.14	37303.75
579.34	37041.61
579.54	37168.58
579.74	37787.07
579.94	37486.02
580.13	37993.92
580.33	37572.03
580.53	37625.28
580.73	37744.06
580.93	37453.25
581.13	37668.29
581.33	37709.25
581.53	38018.49
581.73	37983.68
581.93	38024.64
582.13	37885.37
582.33	38178.23
582.53	38278.58
582.73	38079.93
582.92	38036.92
583.12	38012.35
583.32	38041.02
583.52	37989.82
583.72	38225.34
583.92	37916.09
584.12	38440.37
584.32	38833.58
584.52	38114.75
584.72	38321.59
584.92	38473.14
585.11	38901.17
585.31	38507.96
585.51	38272.44
585.71	37981.63
585.91	38827.44
586.11	38516.15
586.31	38331.83
586.51	38458.81
586.71	38333.88
586.91	38929.84
587.10	38540.72
587.30	38790.58
587.50	38667.70
587.70	38860.21
587.90	38852.02
588.10	39022.00
588.30	38856.11
588.50	38942.13
588.69	38856.11
