SpectraSuite Data File
++++++++++++++++++++++++++++++++++++
Date: Tue Jun 13 11:53:15 CEST 2017
User: INFO_000
Dark Spectrum Present: No
Reference Spectrum Present: No
Number of Sampled Component Spectra: 1
Spectrometers: USB4H00879
Integration Time (usec): 30000 (USB4H00879)
Spectra Averaged: 1 (USB4H00879)
Boxcar Smoothing: 0 (USB4H00879)
Correct for Electrical Dark: No (USB4H00879)
Strobe/Lamp Enabled: No (USB4H00879)
Correct for Detector Non-linearity: No (USB4H00879)
Correct for Stray Light: No (USB4H00879)
Number of Pixels in Processed Spectrum: 3648
>>>>>Begin Processed Spectral Data<<<<<
345.13	1322.99
345.34	1322.99
345.56	1322.99
345.78	1419.24
345.99	1304.56
346.21	1566.70
346.42	1474.54
346.64	1480.68
346.86	1603.56
347.07	1476.59
347.29	1509.35
347.50	1452.01
347.72	1538.02
347.94	1447.91
348.15	1486.83
348.37	1462.25
348.59	1492.97
348.80	1484.78
349.02	1535.98
349.23	1601.51
349.45	1626.09
349.67	1597.42
349.88	1607.66
350.10	1703.91
350.31	1640.42
350.53	1529.83
350.75	1716.20
350.96	1621.99
351.18	1605.61
351.39	1617.90
351.61	1617.90
351.82	1626.09
352.04	1667.05
352.26	1636.33
352.47	1621.99
352.69	1652.71
352.90	1517.54
353.12	1585.13
353.34	1527.78
353.55	1630.18
353.77	1578.98
353.98	1654.76
354.20	1619.94
354.41	1681.38
354.63	1581.03
354.85	1689.57
355.06	1652.71
355.28	1617.90
355.49	1673.19
355.71	1599.46
355.92	1638.38
356.14	1632.23
356.35	1583.08
356.57	1648.61
356.79	1621.99
357.00	1615.85
357.22	1738.73
357.43	1591.27
357.65	1658.85
357.86	1589.22
358.08	1648.61
358.29	1673.19
358.51	1667.05
358.72	1683.43
358.94	1681.38
359.16	1658.85
359.37	1628.14
359.59	1693.67
359.80	1759.21
360.02	1642.47
360.23	1701.86
360.45	1632.23
360.66	1701.86
360.88	1650.66
361.09	1609.70
361.31	1660.90
361.52	1693.67
361.74	1753.06
361.95	1820.64
362.17	1665.00
362.38	1748.97
362.60	1728.49
362.81	1738.73
363.03	1665.00
363.24	1779.68
363.46	1695.72
363.67	1701.86
363.89	1695.72
364.10	1783.78
364.32	1673.19
364.53	1832.93
364.75	1650.66
364.96	1673.19
365.18	1777.64
365.39	1761.25
365.61	1710.05
365.82	1714.15
366.04	1708.01
366.25	1746.92
366.47	1847.27
366.68	1806.31
366.90	1705.96
367.11	1857.51
367.33	1746.92
367.54	1763.30
367.76	1734.63
367.97	1771.49
368.19	1804.26
368.40	1791.97
368.62	1736.68
368.83	1726.44
369.05	1804.26
369.26	1730.53
369.48	1714.15
369.69	1732.58
369.91	1753.06
370.12	1734.63
370.33	1882.08
370.55	1714.15
370.76	1765.35
370.98	1841.12
371.19	1755.11
371.41	1845.22
371.62	1808.36
371.84	1693.67
372.05	1830.88
372.27	1802.21
372.48	1783.78
372.69	1859.56
372.91	1853.41
373.12	1847.27
373.34	1816.55
373.55	1832.93
373.77	1804.26
373.98	1802.21
374.20	1886.18
374.41	1808.36
374.62	1839.08
374.84	1837.03
375.05	1880.04
375.27	1837.03
375.48	1953.76
375.70	1914.85
375.91	1953.76
376.12	1984.48
376.34	1896.42
376.55	1882.08
376.77	1988.58
376.98	1908.71
377.19	1851.36
377.41	1849.32
377.62	1955.81
377.84	1927.14
378.05	1953.76
378.27	1818.60
378.48	1851.36
378.69	1955.81
378.91	1961.95
379.12	2033.63
379.34	1871.84
379.55	1988.58
379.76	1914.85
379.98	1980.39
380.19	1867.75
380.41	1953.76
380.62	1947.62
380.83	1894.37
381.05	1925.09
381.26	2052.06
381.47	1957.86
381.69	2021.35
381.90	2027.49
382.12	2045.92
382.33	2021.35
382.54	2056.16
382.76	1964.00
382.97	2060.26
383.19	2150.37
383.40	2019.30
383.61	2035.68
383.83	2054.11
384.04	2050.02
384.25	1994.72
384.47	2084.83
384.68	2029.54
384.89	2095.07
385.11	2004.96
385.32	2078.69
385.54	2066.40
385.75	2111.46
385.96	2090.98
386.18	2097.12
386.39	2152.42
386.60	2074.59
386.82	2226.14
387.03	2105.31
387.24	2127.84
387.46	2164.70
387.67	2140.13
387.88	2236.38
388.10	2127.84
388.31	2209.76
388.52	2258.91
388.74	2187.23
388.95	2277.34
389.16	2205.66
389.38	2099.17
389.59	2265.05
389.80	2273.25
390.02	2203.61
390.23	2271.20
390.44	2166.75
390.66	2260.96
390.87	2172.89
391.08	2287.58
391.30	2338.78
391.51	2271.20
391.72	2316.25
391.94	2318.30
392.15	2295.77
392.36	2312.16
392.58	2359.26
392.79	2340.83
393.00	2408.41
393.22	2351.07
393.43	2346.97
393.64	2375.64
393.85	2519.00
394.07	2332.64
394.28	2408.41
394.49	2475.99
394.71	2365.40
394.92	2455.51
395.13	2441.18
395.35	2406.36
395.56	2416.60
395.77	2473.95
395.98	2498.52
396.20	2471.90
396.41	2480.09
396.62	2537.43
396.84	2482.14
397.05	2596.82
397.26	2609.11
397.47	2566.10
397.69	2488.28
397.90	2590.68
398.11	2480.09
398.32	2611.16
398.54	2533.34
398.75	2539.48
398.96	2572.25
399.18	2668.50
399.39	2688.98
399.60	2742.23
399.81	2607.06
400.03	2605.02
400.24	2779.09
400.45	2600.92
400.66	2744.28
400.88	2717.65
401.09	2807.77
401.30	2777.05
401.51	2875.35
401.73	2707.41
401.94	2731.99
402.15	2695.13
402.36	2643.93
402.58	2791.38
402.79	2807.77
403.00	2873.30
403.21	2793.43
403.43	2826.20
403.64	2926.55
403.85	2768.85
404.06	2881.49
404.27	2775.00
404.49	2815.96
404.70	2897.88
404.91	2897.88
405.12	2926.55
405.34	2852.82
405.55	2977.75
405.76	2944.98
405.97	2901.97
406.19	2877.40
406.40	2912.21
406.61	2906.07
406.82	2920.40
407.03	2899.92
407.25	3012.56
407.46	3114.96
407.67	3149.78
407.88	3000.27
408.09	2969.55
408.31	3026.90
408.52	3059.67
408.73	3047.38
408.94	2975.70
409.15	3080.14
409.37	3080.14
409.58	3117.01
409.79	3035.09
410.00	3180.50
410.21	3078.10
410.43	3194.83
410.64	3088.34
410.85	3108.82
411.06	3203.02
411.27	3168.21
411.48	3186.64
411.70	3162.06
411.91	3225.55
412.12	3160.02
412.33	3061.71
412.54	3377.10
412.76	3401.68
412.97	3160.02
413.18	3166.16
413.39	3254.22
413.60	3321.81
413.81	3409.87
414.03	3297.23
414.24	3194.83
414.45	3387.34
414.66	3215.31
414.87	3332.05
415.08	3305.42
415.30	3370.96
415.51	3252.17
415.72	3309.52
415.93	3291.09
416.14	3489.74
416.35	3452.88
416.56	3383.24
416.78	3413.96
416.99	3559.37
417.20	3362.76
417.41	3456.97
417.62	3528.65
417.83	3540.94
418.04	3579.85
418.26	3518.41
418.47	3395.53
418.68	3577.80
418.89	3581.90
419.10	3663.82
419.31	3592.14
419.52	3792.84
419.73	3762.12
419.95	3678.15
420.16	3604.42
420.37	3569.61
420.58	3647.43
420.79	3610.57
421.00	3760.07
421.21	3831.75
421.42	3659.72
421.63	3751.88
421.85	3772.36
422.06	3887.04
422.27	3794.89
422.48	3846.09
422.69	3792.84
422.90	3798.98
423.11	3809.22
423.32	3870.66
423.53	3860.42
423.75	3848.13
423.96	4085.70
424.17	3934.15
424.38	4083.65
424.59	4005.83
424.80	4227.01
425.01	3987.40
425.22	4014.02
425.43	4067.27
425.64	4157.38
425.85	4274.11
426.06	4087.75
426.28	4143.04
426.49	4153.28
426.70	4036.55
426.91	4143.04
427.12	4235.20
427.33	4220.86
427.54	4317.12
427.75	4243.39
427.96	4372.41
428.17	4194.24
428.38	4353.98
428.59	4454.33
428.80	4130.75
429.01	4239.30
429.23	4497.34
429.44	4603.83
429.65	4476.86
429.86	4458.43
430.07	4341.69
430.28	4429.76
430.49	4618.17
430.70	4538.30
430.91	4595.64
431.12	4495.29
431.33	4734.90
431.54	4698.04
431.75	4712.38
431.96	4704.18
432.17	4659.13
432.38	4677.56
432.59	4872.12
432.80	4800.44
433.01	4585.40
433.22	4769.72
433.43	4741.05
433.64	4847.54
433.85	4759.48
434.06	5060.53
434.27	4855.73
434.49	5007.28
434.70	5050.29
434.91	5027.76
435.12	4929.46
435.33	4925.36
435.54	4978.61
435.75	4921.27
435.96	5044.15
436.17	4960.18
436.38	5277.62
436.59	5097.39
436.80	5154.74
437.01	5228.46
437.22	5111.73
437.43	5099.44
437.64	5130.16
437.85	5269.42
438.06	5343.15
438.27	5195.70
438.48	5246.90
438.69	5400.49
438.90	5433.26
439.11	5330.86
439.32	5351.34
439.53	5490.60
439.74	5476.27
439.95	5314.48
440.16	5461.93
440.37	5519.28
440.57	5384.11
440.78	5552.04
440.99	5443.50
441.20	5496.75
441.41	5435.31
441.62	5482.41
441.83	5441.45
442.04	5791.66
442.25	5541.80
442.46	5699.50
442.67	5717.93
442.88	5928.87
443.09	5515.18
443.30	5595.05
443.51	5756.84
443.72	5832.62
443.93	5769.13
444.14	5957.54
444.35	5662.63
444.56	5877.67
444.77	5771.18
444.98	5910.44
445.19	5861.29
445.40	5799.85
445.61	5748.65
445.81	6008.74
446.02	5947.30
446.23	6029.22
446.44	5871.53
446.65	5994.40
446.86	6080.42
447.07	6076.32
447.28	6205.35
447.49	6154.15
447.70	6070.18
447.91	6236.06
448.12	6059.94
448.33	6191.01
448.54	6125.47
448.74	6139.81
448.95	6342.56
449.16	6141.86
449.37	6447.01
449.58	6320.03
449.79	6455.20
450.00	6363.04
450.21	6555.55
450.42	6487.96
450.63	6623.13
450.84	6424.48
451.05	6518.68
451.25	6500.25
451.46	6533.02
451.67	6635.42
451.88	6670.23
452.09	6676.38
452.30	6420.38
452.51	6743.96
452.72	6684.57
452.93	6946.71
453.13	6703.00
453.34	6707.10
453.55	6684.57
453.76	6860.70
453.97	7235.47
454.18	6981.53
454.39	6963.09
454.60	6885.27
454.81	6817.69
455.01	7106.45
455.22	6938.52
455.43	7102.36
455.64	7253.91
455.85	7157.65
456.06	7272.34
456.27	7174.03
456.48	7255.95
456.68	7421.84
456.89	7292.82
457.10	7518.09
457.31	7186.32
457.52	7296.91
457.73	7409.55
457.94	7600.01
458.14	7503.76
458.35	7698.31
458.56	7616.40
458.77	7632.78
458.98	7567.24
459.19	7651.21
459.39	7747.47
459.60	7985.03
459.81	7669.64
460.02	7901.06
460.23	7800.71
460.44	7993.22
460.65	8083.33
460.85	8257.41
461.06	8365.95
461.27	7851.91
461.48	8546.17
461.69	8372.10
461.89	8255.36
462.10	8368.00
462.31	8236.93
462.52	8337.28
462.73	8167.30
462.94	8503.17
463.14	8476.54
463.35	8302.47
463.56	8726.39
463.77	8669.05
463.98	8636.28
464.18	8562.56
464.39	8736.63
464.60	8910.71
464.81	8832.89
465.02	8687.48
465.23	9111.41
465.43	8877.94
465.64	9111.41
465.85	9086.84
466.06	9000.82
466.27	9242.48
466.47	9338.74
466.68	9242.48
466.89	9396.08
467.10	9564.01
467.30	9043.83
467.51	9602.93
467.72	9613.17
467.93	9424.75
468.14	9695.08
468.34	9766.76
468.55	9897.83
468.76	9738.09
468.97	9535.34
469.17	9969.51
469.38	9889.64
469.59	10012.52
469.80	9850.73
470.01	9914.22
470.21	10172.26
470.42	10205.03
470.63	10393.44
470.84	10188.64
471.04	10276.71
471.25	10471.26
471.46	10184.55
471.67	10637.15
471.87	10563.42
472.08	10719.07
472.29	10944.34
472.50	10499.94
472.70	10880.86
472.91	10854.23
473.12	11116.37
473.33	11349.84
473.53	11143.00
473.74	10940.25
473.95	11396.95
474.16	11450.19
474.36	11261.78
474.57	11487.06
474.78	11730.76
474.99	11456.34
475.19	11413.33
475.40	11759.44
475.61	11908.94
475.81	11931.47
476.02	12242.76
476.23	12232.52
476.44	12250.95
476.64	12250.95
476.85	12517.18
477.06	12240.71
477.27	12445.51
477.47	12619.58
477.68	12584.77
477.89	13002.55
478.09	12851.00
478.30	12879.68
478.51	13150.01
478.71	13160.25
478.92	13145.91
479.13	13168.44
479.34	13418.29
479.54	13346.61
479.75	13190.97
479.96	13479.73
480.16	13659.95
480.37	13553.46
480.58	13727.53
480.78	14137.13
480.99	14040.87
481.20	14217.00
481.41	14081.83
481.61	14303.01
481.82	14374.69
482.03	14165.80
482.23	14325.54
482.44	14661.41
482.65	14507.81
482.85	14733.09
483.06	14845.73
483.27	15015.71
483.47	14903.07
483.68	15064.86
483.89	15193.88
484.09	14978.84
484.30	15281.94
484.51	15433.49
484.71	15558.42
484.92	15327.00
485.13	15720.21
485.33	15365.91
485.54	15445.78
485.75	15992.59
485.95	15806.22
486.16	15910.67
486.37	16140.04
486.57	16107.27
486.78	16117.51
486.98	15910.67
487.19	16338.69
487.40	16258.82
487.60	16461.57
487.81	16676.61
488.02	16684.80
488.22	16715.52
488.43	16930.56
488.64	16920.32
488.84	16971.52
489.05	17004.28
489.25	17059.58
489.46	17319.67
489.67	17245.94
489.87	17137.40
490.08	17229.56
490.29	17551.09
490.49	17655.54
490.70	17893.10
490.90	17858.29
491.11	17614.58
491.32	17954.54
491.52	18259.69
491.73	18030.32
491.94	18134.76
492.14	18208.49
492.35	18091.76
492.55	18179.82
492.76	18366.18
492.97	18763.49
493.17	18640.61
493.38	18878.18
493.58	18622.18
493.79	18937.57
494.00	18788.07
494.20	18759.39
494.41	18933.47
494.61	19209.95
494.82	19255.00
495.02	19101.40
495.23	19203.80
495.44	19341.02
495.64	19455.70
495.85	19373.78
496.05	19969.74
496.26	19654.36
496.47	20053.71
496.67	19730.13
496.88	19810.00
497.08	19787.47
497.29	20109.01
497.49	20070.09
497.70	20197.07
497.91	20291.27
498.11	20289.23
498.32	20342.47
498.52	20418.25
498.73	20827.84
498.93	20596.42
499.14	20707.01
499.34	20661.96
499.55	20852.42
499.76	20582.09
499.96	20629.19
500.17	20733.64
500.37	20913.86
500.58	20928.19
500.78	20858.56
500.99	21032.64
501.19	21124.80
501.40	21505.72
501.60	21294.78
501.81	21229.24
502.02	21601.97
502.22	20983.49
502.43	21567.16
502.63	21618.36
502.84	21583.54
503.04	21782.20
503.25	21708.47
503.45	21565.11
503.66	22021.81
503.86	21837.49
504.07	22171.31
504.27	22169.26
504.48	22283.95
504.68	21933.75
504.89	22380.20
505.09	22224.56
505.30	22318.76
505.50	22025.90
505.71	22376.11
505.91	22410.92
506.12	22841.00
506.32	22498.98
506.53	22697.64
506.73	22570.66
506.94	22761.12
507.14	22775.46
507.35	22812.32
507.55	22587.05
507.76	22847.14
507.96	22496.94
508.17	22900.39
508.37	22777.51
508.58	23074.46
508.78	23090.85
508.99	23045.79
509.19	23326.36
509.40	23336.60
509.60	23359.13
509.81	23088.80
510.01	23029.41
510.22	23496.35
510.42	23494.30
510.63	23484.06
510.83	23496.35
511.04	23529.11
511.24	23416.47
511.44	23568.02
511.65	23697.05
511.85	23498.39
512.06	23783.06
512.26	23783.06
512.47	23873.17
512.67	24176.27
512.88	23864.98
513.08	23621.27
513.29	23899.80
513.49	23963.28
513.69	24028.82
513.90	24366.73
514.10	23996.05
514.31	24395.40
514.51	24043.15
514.72	23932.56
514.92	24260.24
515.13	24372.88
515.33	24323.72
515.53	24422.03
515.74	24129.17
515.94	24481.42
516.15	24544.91
516.35	24671.88
516.56	24700.55
516.76	24534.67
516.96	24628.87
517.17	24682.12
517.37	24755.85
517.58	24807.05
517.78	24948.36
517.99	24841.86
518.19	24954.50
518.39	25220.74
518.60	25390.72
518.80	25163.39
519.01	25415.29
519.21	25075.33
519.41	25415.29
519.62	25153.15
519.82	25351.81
520.03	25532.03
520.23	25536.12
520.43	25194.11
520.64	25513.59
520.84	25886.32
521.05	25683.58
521.25	25710.20
521.45	25476.73
521.66	25945.72
521.86	25665.14
522.07	25712.25
522.27	25796.21
522.47	26017.40
522.68	25951.86
522.88	26001.01
523.08	26312.30
523.29	26156.66
523.49	26312.30
523.70	26465.90
523.90	26478.19
524.10	26404.46
524.31	26760.81
524.51	26250.86
524.71	26947.17
524.92	26844.77
525.12	26695.27
525.33	26664.55
525.53	26945.12
525.73	27188.83
525.94	26959.46
526.14	26953.32
526.34	27182.69
526.55	27389.53
526.75	27047.52
526.95	27469.40
527.16	27051.62
527.36	27401.82
527.56	27522.65
527.77	27674.20
527.97	27553.37
528.17	27367.01
528.38	27580.00
528.58	27584.09
528.78	27659.87
528.99	27840.09
529.19	27995.73
529.39	27760.22
529.60	28014.16
529.80	27852.38
530.00	28059.22
530.21	28460.62
530.41	28288.59
530.61	28493.39
530.82	28255.82
531.02	28327.50
531.22	28677.71
531.43	28380.75
531.63	28929.61
531.83	28763.72
532.04	28939.85
532.24	28632.65
532.44	29130.31
532.64	29034.05
532.85	29541.95
533.05	29023.81
533.25	29347.39
533.46	29134.40
533.66	29623.87
533.86	29378.11
534.07	29484.61
534.27	29511.23
534.47	29445.69
534.67	29587.00
534.88	29439.55
535.08	29795.90
535.28	29799.99
535.49	29795.90
535.69	29982.26
535.89	30107.19
536.09	29931.06
536.30	30240.31
536.50	30035.51
536.70	30541.36
536.91	30242.35
537.11	29869.62
537.31	30389.81
537.51	30023.22
537.72	30418.48
537.92	30457.39
538.12	30828.07
538.32	30772.78
538.53	30897.70
538.73	30756.39
538.93	30596.65
539.13	30768.68
539.34	30766.63
539.54	30793.26
539.74	31370.79
539.94	30744.11
540.15	30842.41
540.35	31211.04
540.55	31090.21
540.75	31342.11
540.96	31358.50
541.16	31266.34
541.36	31446.56
541.56	31514.14
541.77	31546.91
541.97	31608.35
542.17	31870.49
542.37	31677.98
542.58	31620.64
542.78	31673.88
542.98	31641.12
543.18	31651.36
543.38	31833.63
543.59	32218.64
543.79	31598.11
543.99	32013.85
544.19	31954.46
544.40	32019.99
544.60	32271.89
544.80	32261.65
545.00	32056.85
545.20	32075.29
545.41	32073.24
545.61	32060.95
545.81	32577.04
546.01	32527.89
546.21	32429.59
546.42	32388.63
546.62	32536.08
546.82	32253.46
547.02	32755.21
547.22	32628.24
547.43	32595.47
547.63	32693.77
547.83	32679.44
548.03	32626.19
548.23	32863.75
548.44	32595.47
548.64	32921.10
548.84	32697.87
549.04	32826.89
549.24	32951.82
549.45	32917.00
549.65	32568.85
549.85	32443.92
550.05	33074.70
550.25	32718.35
550.45	33390.08
550.66	32943.63
550.86	32964.10
551.06	33455.62
551.26	32996.87
551.46	33150.47
551.66	33134.09
551.87	33177.09
552.07	33136.13
552.27	33334.79
552.47	33400.32
552.67	33355.27
552.87	33136.13
553.07	33324.55
553.28	33234.44
553.48	33586.69
553.68	33508.86
553.88	33912.31
554.08	33613.31
554.28	33367.55
554.48	33203.72
554.69	33777.15
554.89	33709.57
555.09	33568.26
555.29	33676.80
555.49	34012.66
555.69	33906.17
555.89	33621.50
556.10	34280.95
556.30	33566.21
556.50	33693.18
556.70	33895.93
556.90	34065.91
557.10	33938.94
557.30	33574.40
557.50	33920.51
557.70	34045.43
557.91	34108.92
558.11	34012.66
558.31	33791.48
558.51	33715.71
558.71	33740.29
558.91	33949.18
559.11	34033.14
559.31	33871.36
559.51	33779.20
559.72	33940.99
559.92	34102.78
560.12	33617.41
560.32	34049.53
560.52	33684.99
560.72	34061.82
560.92	34491.89
561.12	34086.39
561.32	34838.00
561.52	33998.33
561.72	34536.94
561.93	34078.20
562.13	34076.15
562.33	34035.19
562.53	34725.36
562.73	33920.51
562.93	34061.82
563.13	34481.65
563.33	34258.42
563.53	34117.11
563.73	34043.38
563.93	34043.38
564.13	34422.26
564.33	34149.88
564.53	34321.91
564.74	34682.35
564.94	34135.54
565.14	34356.72
565.34	34086.39
565.54	34420.21
565.74	34670.06
565.94	34690.54
566.14	34414.07
566.34	33975.80
566.54	35114.47
566.74	34237.94
566.94	34457.07
567.14	34479.60
567.34	34160.12
567.54	34235.89
567.74	34608.62
567.94	33902.07
568.14	34414.07
568.34	34760.17
568.54	34328.05
568.74	34655.73
568.94	34475.51
569.14	34727.41
569.34	34588.14
569.54	34639.34
569.75	34610.67
569.95	34659.82
570.15	34811.37
570.35	34811.37
570.55	34915.82
570.75	34473.46
570.95	34696.69
571.15	34811.37
571.35	34784.75
571.55	34938.35
571.75	34637.30
571.95	34960.87
572.15	34520.56
572.35	34881.00
572.55	34530.80
572.75	34856.43
572.95	34921.96
573.15	34934.25
573.35	34969.07
573.55	34858.48
573.75	34971.11
573.95	35065.32
574.15	35059.18
574.35	35143.14
574.55	34909.68
574.75	34960.87
574.95	35055.08
575.15	34952.68
575.34	34946.54
575.54	35311.08
575.74	35251.69
575.94	35456.48
576.14	35192.30
576.34	35376.61
576.54	35390.95
576.74	35118.57
576.94	35032.55
577.14	35161.58
577.34	35292.65
577.54	35157.48
577.74	35044.84
577.94	35292.65
578.14	35345.89
578.34	35372.52
578.54	34776.56
578.74	35247.59
578.94	35405.28
579.14	35231.21
579.34	35304.93
579.54	35534.31
579.74	35419.62
579.94	35509.73
580.13	35716.58
580.33	35546.59
580.53	35501.54
580.73	35882.46
580.93	35481.06
581.13	35526.11
581.33	36050.39
581.53	35720.67
581.73	35724.77
581.93	35755.49
582.13	35575.27
582.33	35775.97
582.53	36099.55
582.73	35712.48
582.92	35763.68
583.12	36226.52
583.32	35737.05
583.52	35925.47
583.72	35876.32
583.92	36031.96
584.12	35849.69
584.32	36296.15
584.52	36120.02
584.72	36150.74
584.92	36318.68
585.11	36402.64
585.31	35939.80
585.51	36259.29
585.71	36021.72
585.91	36249.05
586.11	35718.62
586.31	36175.32
586.51	36107.74
586.71	36273.62
586.91	36361.69
587.10	36234.71
587.30	36376.02
587.50	36345.30
587.70	36310.49
587.90	36447.70
588.10	35927.52
588.30	35991.00
588.50	36351.45
588.69	36290.01
