SpectraSuite Data File
++++++++++++++++++++++++++++++++++++
Date: Tue Jun 13 11:58:31 CEST 2017
User: INFO_000
Dark Spectrum Present: No
Reference Spectrum Present: No
Number of Sampled Component Spectra: 1
Spectrometers: USB4H00879
Integration Time (usec): 30000 (USB4H00879)
Spectra Averaged: 1 (USB4H00879)
Boxcar Smoothing: 0 (USB4H00879)
Correct for Electrical Dark: No (USB4H00879)
Strobe/Lamp Enabled: No (USB4H00879)
Correct for Detector Non-linearity: No (USB4H00879)
Correct for Stray Light: No (USB4H00879)
Number of Pixels in Processed Spectrum: 3648
>>>>>Begin Processed Spectral Data<<<<<
345.13	1329.13
345.34	1329.13
345.56	1329.13
345.78	1302.51
345.99	1376.24
346.21	1501.16
346.42	1478.63
346.64	1449.96
346.86	1583.08
347.07	1464.30
347.29	1515.50
347.50	1482.73
347.72	1540.07
347.94	1517.54
348.15	1490.92
348.37	1513.45
348.59	1531.88
348.80	1492.97
349.02	1581.03
349.23	1648.61
349.45	1589.22
349.67	1624.04
349.88	1613.80
350.10	1615.85
350.31	1562.60
350.53	1593.32
350.75	1667.05
350.96	1630.18
351.18	1638.38
351.39	1603.56
351.61	1540.07
351.82	1660.90
352.04	1732.58
352.26	1597.42
352.47	1687.53
352.69	1617.90
352.90	1624.04
353.12	1640.42
353.34	1650.66
353.55	1640.42
353.77	1650.66
353.98	1665.00
354.20	1605.61
354.41	1671.14
354.63	1703.91
354.85	1714.15
355.06	1710.05
355.28	1601.51
355.49	1675.24
355.71	1681.38
355.92	1568.74
356.14	1685.48
356.35	1650.66
356.57	1656.81
356.79	1681.38
357.00	1636.33
357.22	1630.18
357.43	1667.05
357.65	1697.77
357.86	1630.18
358.08	1665.00
358.29	1669.09
358.51	1650.66
358.72	1689.57
358.94	1720.29
359.16	1609.70
359.37	1593.32
359.59	1650.66
359.80	1730.53
360.02	1654.76
360.23	1775.59
360.45	1677.29
360.66	1701.86
360.88	1601.51
361.09	1714.15
361.31	1726.44
361.52	1699.81
361.74	1746.92
361.95	1685.48
362.17	1628.14
362.38	1687.53
362.60	1761.25
362.81	1724.39
363.03	1660.90
363.24	1718.25
363.46	1777.64
363.67	1705.96
363.89	1730.53
364.10	1667.05
364.32	1753.06
364.53	1716.20
364.75	1667.05
364.96	1712.10
365.18	1708.01
365.39	1806.31
365.61	1683.43
365.82	1751.01
366.04	1742.82
366.25	1757.16
366.47	1734.63
366.68	1775.59
366.90	1810.40
367.11	1808.36
367.33	1708.01
367.54	1718.25
367.76	1789.92
367.97	1814.50
368.19	1769.44
368.40	1753.06
368.62	1691.62
368.83	1730.53
369.05	1810.40
369.26	1679.33
369.48	1691.62
369.69	1789.92
369.91	1763.30
370.12	1722.34
370.33	1757.16
370.55	1658.85
370.76	1773.54
370.98	1841.12
371.19	1712.10
371.41	1728.49
371.62	1820.64
371.84	1751.01
372.05	1767.40
372.27	1820.64
372.48	1757.16
372.69	1789.92
372.91	1796.07
373.12	1761.25
373.34	1791.97
373.55	1818.60
373.77	1882.08
373.98	1841.12
374.20	1802.21
374.41	1765.35
374.62	1886.18
374.84	1857.51
375.05	1841.12
375.27	1812.45
375.48	1822.69
375.70	1949.67
375.91	1910.75
376.12	1912.80
376.34	1857.51
376.55	1824.74
376.77	1855.46
376.98	1765.35
377.19	1898.47
377.41	1841.12
377.62	1941.47
377.84	1892.32
378.05	1968.10
378.27	1898.47
378.48	1996.77
378.69	2002.91
378.91	1837.03
379.12	1888.23
379.34	1912.80
379.55	1896.42
379.76	1949.67
379.98	1947.62
380.19	1935.33
380.41	1925.09
380.62	1957.86
380.83	2002.91
381.05	1970.15
381.26	2064.35
381.47	1880.04
381.69	1984.48
381.90	2035.68
382.12	1945.57
382.33	1972.19
382.54	1986.53
382.76	2004.96
382.97	2052.06
383.19	1927.14
383.40	2002.91
383.61	2054.11
383.83	2013.15
384.04	2002.91
384.25	2037.73
384.47	2047.97
384.68	2054.11
384.89	2004.96
385.11	2107.36
385.32	2056.16
385.54	2060.26
385.75	1968.10
385.96	2027.49
386.18	2078.69
386.39	1994.72
386.60	2054.11
386.82	2101.22
387.03	2162.66
387.24	2062.30
387.46	2088.93
387.67	2052.06
387.88	2174.94
388.10	2160.61
388.31	2058.21
388.52	2215.90
388.74	2150.37
388.95	2138.08
389.16	2168.80
389.38	2158.56
389.59	2201.57
389.80	2154.46
390.02	2111.46
390.23	2217.95
390.44	2201.57
390.66	2160.61
390.87	2207.71
391.08	2201.57
391.30	2238.43
391.51	2256.86
391.72	2277.34
391.94	2301.92
392.15	2224.09
392.36	2205.66
392.58	2213.85
392.79	2306.01
393.00	2310.11
393.22	2289.63
393.43	2402.27
393.64	2357.21
393.85	2381.79
394.07	2312.16
394.28	2400.22
394.49	2394.08
394.71	2457.56
394.92	2424.80
395.13	2314.20
395.35	2363.36
395.56	2426.84
395.77	2506.71
395.98	2461.66
396.20	2342.88
396.41	2432.99
396.62	2463.71
396.84	2510.81
397.05	2537.43
397.26	2488.28
397.47	2451.42
397.69	2482.14
397.90	2514.91
398.11	2469.85
398.32	2496.47
398.54	2602.97
398.75	2568.15
398.96	2572.25
399.18	2607.06
399.39	2557.91
399.60	2670.55
399.81	2594.78
400.03	2555.86
400.24	2635.74
400.45	2600.92
400.66	2680.79
400.88	2564.06
401.09	2668.50
401.30	2650.07
401.51	2781.14
401.73	2594.78
401.94	2568.15
402.15	2736.09
402.36	2731.99
402.58	2715.61
402.79	2645.98
403.00	2760.66
403.21	2713.56
403.43	2742.23
403.64	2731.99
403.85	2648.02
404.06	2746.33
404.27	2686.94
404.49	2789.33
404.70	2772.95
404.91	2777.05
405.12	2768.85
405.34	2756.57
405.55	2912.21
405.76	2815.96
405.97	2846.68
406.19	2908.12
406.40	2838.48
406.61	2955.22
406.82	2924.50
407.03	2901.97
407.25	2807.77
407.46	2910.16
407.67	2992.08
407.88	2994.13
408.09	2873.30
408.31	2912.21
408.52	2922.45
408.73	2928.60
408.94	2885.59
409.15	2928.60
409.37	3059.67
409.58	2953.17
409.79	3024.85
410.00	3033.04
410.21	3063.76
410.43	3014.61
410.64	3000.27
410.85	3074.00
411.06	3096.53
411.27	3045.33
411.48	3168.21
411.70	2973.65
411.91	3102.67
412.12	3076.05
412.33	3184.59
412.54	3205.07
412.76	3112.91
412.97	3117.01
413.18	3137.49
413.39	3211.22
413.60	3153.87
413.81	3223.50
414.03	3203.02
414.24	3186.64
414.45	3243.98
414.66	3149.78
414.87	3264.46
415.08	3237.84
415.30	3252.17
415.51	3366.86
415.72	3311.57
415.93	3129.30
416.14	3315.66
416.35	3409.87
416.56	3299.28
416.78	3258.32
416.99	3399.63
417.20	3358.67
417.41	3411.92
417.62	3301.33
417.83	3411.92
418.04	3334.09
418.26	3342.28
418.47	3375.05
418.68	3547.08
418.89	3454.92
419.10	3536.84
419.31	3481.55
419.52	3573.71
419.73	3456.97
419.95	3598.28
420.16	3567.56
420.37	3495.88
420.58	3516.36
420.79	3518.41
421.00	3684.30
421.21	3659.72
421.42	3471.31
421.63	3540.94
421.85	3555.27
422.06	3620.81
422.27	3626.95
422.48	3653.58
422.69	3766.21
422.90	3839.94
423.11	3809.22
423.32	3721.16
423.53	3833.80
423.75	3817.41
423.96	3858.37
424.17	3727.30
424.38	3983.30
424.59	3776.45
424.80	3975.11
425.01	3979.20
425.22	3841.99
425.43	3811.27
425.64	3989.44
425.85	4138.94
426.06	4016.07
426.28	3997.64
426.49	4032.45
426.70	3962.82
426.91	4011.97
427.12	4120.51
427.33	4032.45
427.54	4186.05
427.75	4143.04
427.96	4151.23
428.17	4188.10
428.38	4206.53
428.59	4329.41
428.80	4196.29
429.01	4331.45
429.23	4315.07
429.44	4562.87
429.65	4417.47
429.86	4321.21
430.07	4280.25
430.28	4313.02
430.49	4394.94
430.70	4368.32
430.91	4454.33
431.12	4444.09
431.33	4513.72
431.54	4425.66
431.75	4452.28
431.96	4497.34
432.17	4517.82
432.38	4503.48
432.59	4624.31
432.80	4577.21
433.01	4657.08
433.22	4790.20
433.43	4612.03
433.64	4691.90
433.85	4597.69
434.06	4683.70
434.27	4708.28
434.49	4837.30
434.70	4868.02
434.91	4859.83
435.12	4642.75
435.33	4822.97
435.54	4739.00
435.75	4683.70
435.96	4820.92
436.17	4652.98
436.38	4921.27
436.59	4919.22
436.80	4796.34
437.01	5031.86
437.22	5054.39
437.43	4958.13
437.64	4890.55
437.85	5072.82
438.06	5097.39
438.27	4982.71
438.48	5164.98
438.69	5048.24
438.90	5093.30
439.11	4972.47
439.32	5175.22
439.53	5164.98
439.74	5136.31
439.95	5263.28
440.16	5224.37
440.37	5167.03
440.57	5144.50
440.78	5267.38
440.99	5390.25
441.20	5380.01
441.41	5240.75
441.62	5382.06
441.83	5201.84
442.04	5398.45
442.25	5384.11
442.46	5334.96
442.67	5463.98
442.88	5744.55
443.09	5404.59
443.30	5418.93
443.51	5558.19
443.72	5756.84
443.93	5545.90
444.14	5633.96
444.35	5478.32
444.56	5607.34
444.77	5607.34
444.98	5478.32
445.19	5584.81
445.40	5599.15
445.61	5722.02
445.81	5705.64
446.02	5691.31
446.23	5719.98
446.44	5767.08
446.65	5801.90
446.86	5830.57
447.07	5846.95
447.28	5941.16
447.49	6100.90
447.70	5789.61
447.91	6086.56
448.12	5953.45
448.33	6010.79
448.54	5973.92
448.74	5957.54
448.95	5844.90
449.16	5947.30
449.37	6201.25
449.58	6098.85
449.79	6131.62
450.00	6260.64
450.21	6303.65
450.42	6279.07
450.63	6369.18
450.84	6281.12
451.05	6428.57
451.25	6211.49
451.46	6299.55
451.67	6424.48
451.88	6387.61
452.09	6530.97
452.30	6483.87
452.51	6510.49
452.72	6377.37
452.93	6567.84
453.13	6444.96
453.34	6381.47
453.55	6518.68
453.76	6483.87
453.97	6858.65
454.18	6557.60
454.39	6692.76
454.60	6715.29
454.81	6743.96
455.01	7016.34
455.22	6522.78
455.43	6959.00
455.64	7042.96
455.85	7184.27
456.06	7167.89
456.27	6963.09
456.48	6926.23
456.68	7069.59
456.89	7118.74
457.10	7325.58
457.31	7135.12
457.52	7114.64
457.73	7180.18
457.94	7393.17
458.14	7155.60
458.35	7258.00
458.56	7395.22
458.77	7329.68
458.98	7374.74
459.19	7327.63
459.39	7460.75
459.60	7577.48
459.81	7655.31
460.02	7708.55
460.23	7694.22
460.44	7776.14
460.65	7720.84
460.85	7753.61
461.06	7905.16
461.27	7714.70
461.48	7964.55
461.69	7876.49
461.89	7755.66
462.10	8056.71
462.31	7933.83
462.52	7939.97
462.73	8093.57
462.94	8306.56
463.14	8337.28
463.35	8241.03
463.56	8501.12
463.77	8368.00
463.98	8324.99
464.18	8445.82
464.39	8378.24
464.60	8472.45
464.81	8802.17
465.02	8591.23
465.23	8927.10
465.43	8454.02
465.64	8875.90
465.85	8857.46
466.06	8722.30
466.27	9209.72
466.47	8836.99
466.68	8990.58
466.89	8980.34
467.10	9258.87
467.30	8908.66
467.51	9277.30
467.72	9432.94
467.93	9275.25
468.14	9269.11
468.34	9373.55
468.55	9553.77
468.76	9426.80
468.97	9516.91
469.17	9510.77
469.38	9609.07
469.59	9848.68
469.80	9486.19
470.01	9719.66
470.21	9803.63
470.42	10026.86
470.63	10006.38
470.84	9973.61
471.04	10225.51
471.25	10108.77
471.46	10356.58
471.67	10209.12
471.87	10295.14
472.08	10549.09
472.29	10549.09
472.50	10297.19
472.70	10393.44
472.91	10725.21
473.12	10651.49
473.33	10712.92
473.53	10893.15
473.74	10921.82
473.95	11077.46
474.16	11196.25
474.36	11167.57
474.57	11169.62
474.78	11276.12
474.99	11210.58
475.19	11069.27
475.40	11538.26
475.61	11650.89
475.81	11525.97
476.02	12015.43
476.23	11700.05
476.44	12015.43
476.64	12117.83
476.85	12027.72
477.06	12046.15
477.27	12238.66
477.47	12308.29
477.68	12236.61
477.89	12451.65
478.09	12427.07
478.30	12601.15
478.51	12410.69
478.71	12783.42
478.92	12779.32
479.13	12697.41
479.34	13041.46
479.54	12982.07
479.75	12998.46
479.96	13147.96
480.16	13428.53
480.37	13469.49
480.58	13428.53
480.78	13590.32
480.99	13696.82
481.20	13584.18
481.41	13731.63
481.61	13756.21
481.82	13786.93
482.03	14014.25
482.23	13829.93
482.44	14151.46
482.65	14339.88
482.85	14298.92
483.06	14409.51
483.27	14354.21
483.47	14536.48
483.68	14542.63
483.89	14802.72
484.09	14663.46
484.30	14722.85
484.51	15097.63
484.71	15085.34
484.92	15177.50
485.13	15343.38
485.33	15394.58
485.54	15339.29
485.75	15365.91
485.95	15601.43
486.16	15869.71
486.37	15441.68
486.57	15785.74
486.78	15626.00
486.98	16008.97
487.19	15910.67
487.40	16203.53
487.60	16021.26
487.81	16273.16
488.02	15992.59
488.22	16041.74
488.43	16678.66
488.64	16228.10
488.84	16701.19
489.05	16740.10
489.25	16649.99
489.46	16893.69
489.67	16617.22
489.87	17135.35
490.08	17266.42
490.29	17166.07
490.49	17204.99
490.70	17362.68
490.90	17596.15
491.11	17514.23
491.32	17592.05
491.52	17725.17
491.73	17606.39
491.94	17907.44
492.14	17968.88
492.35	18097.90
492.55	17964.78
492.76	18206.44
492.97	18044.65
493.17	17960.69
493.38	18177.77
493.58	18312.94
493.79	18452.20
494.00	18462.44
494.20	18609.89
494.41	18607.84
494.61	18720.48
494.82	18743.01
495.02	18869.98
495.23	18925.28
495.44	18937.57
495.64	19013.34
495.85	19046.11
496.05	19486.42
496.26	19037.92
496.47	19255.00
496.67	19347.16
496.88	19537.62
497.08	19500.76
497.29	19756.75
497.49	19713.75
497.70	19818.19
497.91	19869.39
498.11	20117.20
498.32	19963.60
498.52	20225.74
498.73	20205.26
498.93	20039.37
499.14	20186.83
499.34	20324.04
499.55	20522.69
499.76	20242.12
499.96	20375.24
500.17	20569.80
500.37	20537.03
500.58	20866.75
500.78	20842.18
500.99	20690.63
501.19	21100.22
501.40	20989.63
501.60	21063.36
501.81	21077.69
502.02	20979.39
502.22	20920.00
502.43	21294.78
502.63	21194.43
502.84	21358.27
503.04	21458.62
503.25	21536.44
503.45	21360.31
503.66	21466.81
503.86	21647.03
504.07	21640.89
504.27	21675.70
504.48	22107.82
504.68	22132.40
504.89	22015.66
505.09	22169.26
505.30	22232.75
505.50	21843.63
505.71	22030.00
505.91	22517.42
506.12	22212.27
506.32	22148.78
506.53	22304.43
506.73	22458.03
506.94	22550.18
507.14	22357.67
507.35	22496.94
507.55	22249.13
507.76	22185.65
507.96	22546.09
508.17	22568.62
508.37	22773.41
508.58	22732.45
508.78	22789.80
508.99	23043.74
509.19	23101.09
509.40	23131.81
509.60	23023.26
509.81	23187.10
510.01	23273.12
510.22	22994.59
510.42	22822.56
510.63	23201.44
510.83	23572.12
511.04	23146.14
511.24	23277.21
511.44	23441.05
511.65	23682.71
511.85	23414.43
512.06	23375.52
512.26	23725.72
512.47	23584.41
512.67	23670.42
512.88	23570.07
513.08	23588.50
513.29	23813.78
513.49	23715.48
513.69	23645.85
513.90	24086.16
514.10	24127.12
514.31	24116.88
514.51	23785.11
514.72	23781.01
514.92	24077.97
515.13	23981.71
515.33	24204.94
515.53	24452.75
515.74	24192.65
515.94	24284.81
516.15	24264.33
516.35	24200.85
516.56	24585.86
516.76	24362.64
516.96	24696.46
517.17	24632.97
517.37	24891.01
517.58	24532.62
517.78	24673.93
517.99	24768.13
518.19	24743.56
518.39	24874.63
518.60	24938.12
518.80	25030.27
519.01	25087.62
519.21	25067.14
519.41	25441.92
519.62	25073.28
519.82	25429.63
520.03	25065.09
520.23	25063.04
520.43	25259.65
520.64	26181.23
520.84	25507.45
521.05	25558.65
521.25	25814.65
521.45	25609.85
521.66	25695.86
521.86	25716.34
522.07	25505.40
522.27	26001.01
522.47	25843.32
522.68	25900.66
522.88	25691.77
523.08	26218.10
523.29	26287.73
523.49	25964.15
523.70	26312.30
523.90	26541.68
524.10	26433.13
524.31	26291.82
524.51	26549.87
524.71	26865.25
524.92	26709.61
525.12	26779.24
525.33	26738.28
525.53	26594.92
525.73	26951.27
525.94	27053.67
526.14	26789.48
526.34	27094.63
526.55	26826.34
526.75	27084.39
526.95	27500.12
527.16	27319.90
527.36	27235.94
527.56	27524.70
527.77	27561.56
527.97	27559.52
528.17	27612.76
528.38	27952.73
528.58	27768.41
528.78	27491.93
528.99	27971.16
529.19	28335.70
529.39	27801.18
529.60	28329.55
529.80	28137.04
530.00	28083.80
530.21	28149.33
530.41	28345.94
530.61	28032.60
530.82	28378.70
531.02	28509.77
531.22	28593.74
531.43	28554.83
531.63	29023.81
531.83	29005.38
532.04	29042.24
532.24	28694.09
532.44	29386.30
532.64	29052.48
532.85	29255.23
533.05	29275.71
533.25	28913.22
533.46	29328.96
533.66	29646.40
533.86	29470.27
534.07	29636.16
534.27	29521.47
534.47	30221.87
534.67	30074.42
534.88	30064.18
535.08	29849.14
535.28	29947.45
535.49	30072.37
535.69	30408.24
535.89	30320.18
536.09	30342.70
536.30	30662.19
536.50	30694.96
536.70	30813.74
536.91	30705.20
537.11	30535.21
537.31	30854.70
537.51	30752.30
537.72	30924.33
537.92	31252.00
538.12	31557.15
538.32	31129.12
538.53	31311.39
538.73	30809.64
538.93	31231.52
539.13	31213.09
539.34	31229.48
539.54	31399.46
539.74	31393.31
539.94	31551.01
540.15	31514.14
540.35	31737.37
540.55	31755.80
540.75	31591.97
540.96	32194.07
541.16	31657.50
541.36	32151.06
541.56	32022.04
541.77	32280.08
541.97	32286.23
542.17	32267.80
542.37	32235.03
542.58	32421.39
542.78	32165.40
542.98	32454.16
543.18	32515.60
543.38	32710.16
543.59	32996.87
543.79	32243.22
543.99	32810.51
544.19	32853.51
544.40	32833.04
544.60	32716.30
544.80	32714.25
545.00	32775.69
545.20	33277.44
545.41	32814.60
545.61	33062.41
545.81	33179.14
546.01	33252.87
546.21	33222.15
546.42	33097.22
546.62	33189.38
546.82	33230.34
547.02	33242.63
547.22	33785.34
547.43	33336.84
547.63	33345.03
547.83	33523.20
548.03	33281.54
548.23	33433.09
548.44	33637.89
548.64	33814.01
548.84	33760.76
549.04	33940.99
549.24	33582.59
549.45	34024.95
549.65	33752.57
549.85	33525.25
550.05	34100.73
550.25	33689.09
550.45	33897.98
550.66	34141.69
550.86	33908.22
551.06	34225.65
551.26	34061.82
551.46	34334.20
551.66	34190.84
551.87	33932.79
552.07	34360.82
552.27	34055.67
552.47	34444.79
552.67	34348.53
552.87	34416.11
553.07	34700.78
553.28	34522.61
553.48	34686.45
553.68	34305.52
553.88	34690.54
554.08	34416.11
554.28	34571.76
554.48	34627.06
554.69	34872.81
554.89	34874.86
555.09	34897.39
555.29	35091.94
555.49	34782.70
555.69	34715.12
555.89	34776.56
556.10	34903.53
556.30	34563.57
556.50	34948.59
556.70	34745.84
556.90	34893.29
557.10	34794.99
557.30	34829.80
557.50	35233.25
557.70	35360.23
557.91	35202.53
558.11	35208.68
558.31	35237.35
558.51	35266.02
558.71	35102.18
558.91	35413.48
559.11	35128.81
559.31	35585.50
559.51	35100.14
559.72	34950.63
559.92	35143.14
560.12	35388.90
560.32	35632.61
560.52	35212.77
560.72	35614.18
560.92	35616.22
561.12	34985.45
561.32	35714.53
561.52	35546.59
561.72	35644.90
561.93	35257.83
562.13	35278.31
562.33	35579.36
562.53	36060.63
562.73	35651.04
562.93	35687.90
563.13	35569.12
563.33	35827.17
563.53	35646.94
563.73	35558.88
563.93	35917.28
564.13	35935.71
564.33	35888.60
564.53	35778.01
564.74	35788.25
564.94	35464.67
565.14	36199.90
565.34	35616.22
565.54	35892.70
565.74	36021.72
565.94	35982.81
566.14	36251.09
566.34	35997.15
566.54	36310.49
566.74	35802.59
566.94	36263.38
567.14	36007.39
567.34	36074.97
567.54	36308.44
567.74	35732.96
567.94	35784.16
568.14	36378.07
568.34	36294.10
568.54	36060.63
568.74	36484.56
568.94	36173.27
569.14	36007.39
569.34	36330.97
569.54	36556.24
569.75	36066.78
569.95	35933.66
570.15	36613.59
570.35	36642.26
570.55	36050.39
570.75	36685.26
570.95	36662.74
571.15	36404.69
571.35	36605.39
571.55	36853.20
571.75	36167.13
571.95	36566.48
572.15	36247.00
572.35	36771.28
572.55	36369.88
572.75	36668.88
572.95	36879.82
573.15	36711.89
573.35	36683.22
573.55	36689.36
573.75	36740.56
573.95	36769.23
574.15	36511.19
574.35	37027.28
574.55	36763.09
574.75	36586.96
574.95	37035.47
575.15	36982.22
575.34	37043.66
575.54	36937.16
575.74	37057.99
575.94	36867.53
576.14	36945.36
576.34	36949.45
576.54	36996.56
576.74	36754.90
576.94	37068.23
577.14	37369.29
577.34	37053.90
577.54	36808.14
577.74	37088.71
577.94	37400.01
578.14	37369.29
578.34	37371.33
578.54	36963.79
578.74	36802.00
578.94	37305.80
579.14	37168.58
579.34	37475.78
579.54	37510.60
579.74	37866.94
579.94	37123.53
580.13	37477.83
580.33	37520.84
580.53	37658.05
580.73	37561.79
580.93	37522.88
581.13	37574.08
581.33	37629.38
581.53	37815.74
581.73	37580.23
581.93	38071.74
582.13	37807.55
582.33	37899.71
582.53	37619.14
582.73	37778.88
582.92	38192.57
583.12	37846.46
583.32	37957.05
583.52	37985.72
583.72	38133.18
583.92	37805.50
584.12	38352.31
584.32	38133.18
584.52	38438.33
584.72	38264.25
584.92	38124.99
585.11	38561.20
585.31	38587.83
585.51	38344.12
585.71	38387.13
585.91	38344.12
586.11	38337.98
586.31	37807.55
586.51	38434.23
586.71	38063.55
586.91	38571.44
587.10	38493.62
587.30	38585.78
587.50	38454.71
587.70	38751.66
587.90	38426.04
588.10	38499.76
588.30	38401.46
588.50	38759.86
588.69	38413.75
