SpectraSuite Data File
++++++++++++++++++++++++++++++++++++
Date: Tue Jun 13 11:50:59 CEST 2017
User: INFO_000
Dark Spectrum Present: No
Reference Spectrum Present: No
Number of Sampled Component Spectra: 1
Spectrometers: USB4H00879
Integration Time (usec): 30000 (USB4H00879)
Spectra Averaged: 1 (USB4H00879)
Boxcar Smoothing: 0 (USB4H00879)
Correct for Electrical Dark: No (USB4H00879)
Strobe/Lamp Enabled: No (USB4H00879)
Correct for Detector Non-linearity: No (USB4H00879)
Correct for Stray Light: No (USB4H00879)
Number of Pixels in Processed Spectrum: 3648
>>>>>Begin Processed Spectral Data<<<<<
345.13	1308.65
345.34	1308.65
345.56	1308.65
345.78	1312.75
345.99	1263.60
346.21	1464.30
346.42	1449.96
346.64	1437.67
346.86	1458.15
347.07	1488.87
347.29	1511.40
347.50	1476.59
347.72	1499.11
347.94	1486.83
348.15	1515.50
348.37	1480.68
348.59	1490.92
348.80	1513.45
349.02	1708.01
349.23	1646.57
349.45	1546.22
349.67	1679.33
349.88	1628.14
350.10	1687.53
350.31	1632.23
350.53	1591.27
350.75	1732.58
350.96	1630.18
351.18	1669.09
351.39	1634.28
351.61	1597.42
351.82	1607.66
352.04	1679.33
352.26	1640.42
352.47	1693.67
352.69	1693.67
352.90	1564.65
353.12	1648.61
353.34	1675.24
353.55	1724.39
353.77	1630.18
353.98	1667.05
354.20	1562.60
354.41	1685.48
354.63	1652.71
354.85	1769.44
355.06	1716.20
355.28	1626.09
355.49	1701.86
355.71	1685.48
355.92	1681.38
356.14	1671.14
356.35	1685.48
356.57	1662.95
356.79	1667.05
357.00	1683.43
357.22	1726.44
357.43	1662.95
357.65	1732.58
357.86	1665.00
358.08	1712.10
358.29	1705.96
358.51	1767.40
358.72	1714.15
358.94	1720.29
359.16	1728.49
359.37	1652.71
359.59	1724.39
359.80	1746.92
360.02	1701.86
360.23	1759.21
360.45	1787.88
360.66	1746.92
360.88	1708.01
361.09	1720.29
361.31	1763.30
361.52	1740.77
361.74	1662.95
361.95	1800.16
362.17	1705.96
362.38	1800.16
362.60	1763.30
362.81	1730.53
363.03	1720.29
363.24	1812.45
363.46	1773.54
363.67	1748.97
363.89	1839.08
364.10	1781.73
364.32	1748.97
364.53	1863.65
364.75	1675.24
364.96	1783.78
365.18	1804.26
365.39	1689.57
365.61	1806.31
365.82	1837.03
366.04	1736.68
366.25	1841.12
366.47	1859.56
366.68	1859.56
366.90	1798.12
367.11	1832.93
367.33	1857.51
367.54	1853.41
367.76	1873.89
367.97	1877.99
368.19	1871.84
368.40	1859.56
368.62	1802.21
368.83	1787.88
369.05	1890.28
369.26	1763.30
369.48	1818.60
369.69	1787.88
369.91	1908.71
370.12	1765.35
370.33	1898.47
370.55	1785.83
370.76	1834.98
370.98	1822.69
371.19	1892.32
371.41	1841.12
371.62	1826.79
371.84	1857.51
372.05	1896.42
372.27	1839.08
372.48	1822.69
372.69	1908.71
372.91	1941.47
373.12	1974.24
373.34	1789.92
373.55	1927.14
373.77	1986.53
373.98	1972.19
374.20	1984.48
374.41	2025.44
374.62	1869.80
374.84	1896.42
375.05	1961.95
375.27	2056.16
375.48	1978.34
375.70	1951.71
375.91	1972.19
376.12	2062.30
376.34	1957.86
376.55	1961.95
376.77	1978.34
376.98	2015.20
377.19	1961.95
377.41	1906.66
377.62	1998.82
377.84	2093.02
378.05	2043.87
378.27	1974.24
378.48	2019.30
378.69	2164.70
378.91	2029.54
379.12	2000.87
379.34	2013.15
379.55	2144.22
379.76	2113.50
379.98	2160.61
380.19	1988.58
380.41	2068.45
380.62	2142.18
380.83	2101.22
381.05	2101.22
381.26	2209.76
381.47	2076.64
381.69	2072.54
381.90	2240.48
382.12	2103.26
382.33	2105.31
382.54	2144.22
382.76	2248.67
382.97	2133.98
383.19	2086.88
383.40	2162.66
383.61	2160.61
383.83	2263.01
384.04	2238.43
384.25	2129.89
384.47	2140.13
384.68	2306.01
384.89	2148.32
385.11	2179.04
385.32	2224.09
385.54	2176.99
385.75	2211.81
385.96	2291.68
386.18	2236.38
386.39	2279.39
386.60	2103.26
386.82	2373.60
387.03	2306.01
387.24	2279.39
387.46	2355.16
387.67	2295.77
387.88	2392.03
388.10	2402.27
388.31	2404.32
388.52	2418.65
388.74	2443.23
388.95	2441.18
389.16	2469.85
389.38	2416.60
389.59	2422.75
389.80	2439.13
390.02	2349.02
390.23	2420.70
390.44	2443.23
390.66	2488.28
390.87	2445.27
391.08	2525.15
391.30	2523.10
391.51	2496.47
391.72	2648.02
391.94	2453.47
392.15	2535.39
392.36	2529.24
392.58	2570.20
392.79	2564.06
393.00	2592.73
393.22	2676.70
393.43	2703.32
393.64	2619.35
393.85	2615.26
394.07	2658.26
394.28	2627.54
394.49	2672.60
394.71	2635.74
394.92	2686.94
395.13	2754.52
395.35	2723.80
395.56	2772.95
395.77	2688.98
395.98	2713.56
396.20	2772.95
396.41	2723.80
396.62	2852.82
396.84	2775.00
397.05	2863.06
397.26	2867.16
397.47	2887.64
397.69	2764.76
397.90	2914.26
398.11	2875.35
398.32	2863.06
398.54	2848.72
398.75	2842.58
398.96	2901.97
399.18	2949.08
399.39	2901.97
399.60	3153.87
399.81	2924.50
400.03	3004.37
400.24	3143.63
400.45	2936.79
400.66	3033.04
400.88	3110.86
401.09	3092.43
401.30	3057.62
401.51	3033.04
401.73	3203.02
401.94	3043.28
402.15	3061.71
402.36	3065.81
402.58	3186.64
402.79	3131.34
403.00	3086.29
403.21	3270.61
403.43	3174.35
403.64	3266.51
403.85	3194.83
404.06	3231.69
404.27	3112.91
404.49	3215.31
404.70	3170.26
404.91	3280.85
405.12	3350.48
405.34	3186.64
405.55	3278.80
405.76	3299.28
405.97	3291.09
406.19	3483.59
406.40	3366.86
406.61	3346.38
406.82	3438.54
407.03	3375.05
407.25	3313.61
407.46	3395.53
407.67	3473.36
407.88	3426.25
408.09	3504.07
408.31	3407.82
408.52	3497.93
408.73	3422.16
408.94	3366.86
409.15	3444.68
409.37	3493.83
409.58	3510.22
409.79	3553.23
410.00	3555.27
410.21	3538.89
410.43	3465.16
410.64	3618.76
410.85	3571.66
411.06	3620.81
411.27	3622.86
411.48	3708.87
411.70	3672.01
411.91	3784.65
412.12	3788.74
412.33	3596.23
412.54	3729.35
412.76	3790.79
412.97	3764.17
413.18	3665.86
413.39	3762.12
413.60	3676.10
413.81	3747.78
414.03	3780.55
414.24	3893.19
414.45	3880.90
414.66	3819.46
414.87	3887.04
415.08	3747.78
415.30	3801.03
415.51	3919.81
415.72	3911.62
415.93	3841.99
416.14	3993.54
416.35	4034.50
416.56	3954.63
416.78	4155.33
416.99	4016.07
417.20	4032.45
417.41	4003.78
417.62	4085.70
417.83	4054.98
418.04	4089.79
418.26	3973.06
418.47	4132.80
418.68	4257.73
418.89	4124.61
419.10	4347.84
419.31	4229.06
419.52	4134.85
419.73	4188.10
419.95	4212.67
420.16	4194.24
420.37	4206.53
420.58	4370.37
420.79	4364.22
421.00	4407.23
421.21	4554.68
421.42	4378.56
421.63	4267.97
421.85	4274.11
422.06	4532.15
422.27	4411.32
422.48	4433.85
422.69	4630.46
422.90	4614.07
423.11	4517.82
423.32	4546.49
423.53	4618.17
423.75	4755.38
423.96	4708.28
424.17	4720.57
424.38	4691.90
424.59	4775.86
424.80	4820.92
425.01	4876.21
425.22	4882.36
425.43	4691.90
425.64	5074.87
425.85	5027.76
426.06	4917.17
426.28	5040.05
426.49	4849.59
426.70	4951.99
426.91	5056.43
427.12	4992.95
427.33	5113.78
427.54	5029.81
427.75	5091.25
427.96	5162.93
428.17	5013.43
428.38	5214.13
428.59	5316.53
428.80	5185.46
429.01	5361.58
429.23	5277.62
429.44	5582.76
429.65	5402.54
429.86	5472.17
430.07	5283.76
430.28	5525.42
430.49	5453.74
430.70	5533.61
430.91	5547.95
431.12	5576.62
431.33	5691.31
431.54	5543.85
431.75	5633.96
431.96	5506.99
432.17	5439.40
432.38	5490.60
432.59	5869.48
432.80	5701.54
433.01	5978.02
433.22	5967.78
433.43	5801.90
433.64	5697.45
433.85	5719.98
434.06	5988.26
434.27	5869.48
434.49	6033.32
434.70	6102.95
434.91	6029.22
435.12	5910.44
435.33	6127.52
435.54	6152.10
435.75	5892.01
435.96	5853.09
436.17	5994.40
436.38	6191.01
436.59	6201.25
436.80	6104.99
437.01	6311.84
437.22	6324.13
437.43	6324.13
437.64	6137.76
437.85	6250.40
438.06	6457.25
438.27	6184.87
438.48	6299.55
438.69	6535.07
438.90	6533.02
439.11	6408.09
439.32	6543.26
439.53	6524.83
439.74	6578.08
439.95	6729.63
440.16	6444.96
440.37	6584.22
440.57	6518.68
440.78	6582.17
440.99	6696.86
441.20	6707.10
441.41	6553.50
441.62	6741.91
441.83	6576.03
442.04	7131.03
442.25	6768.54
442.46	6864.79
442.67	7171.99
442.88	7374.74
443.09	6834.07
443.30	6920.09
443.51	7004.05
443.72	7335.82
443.93	6901.65
444.14	7270.29
444.35	7020.44
444.56	7258.00
444.77	7180.18
444.98	7165.84
445.19	7135.12
445.40	7243.67
445.61	7274.38
445.81	7466.89
446.02	7217.04
446.23	7341.97
446.44	7165.84
446.65	7434.13
446.86	7409.55
447.07	7366.54
447.28	7610.25
447.49	7614.35
447.70	7413.65
447.91	7557.00
448.12	7634.83
448.33	7626.64
448.54	7710.60
448.74	7661.45
448.95	7546.76
449.16	7485.33
449.37	7911.30
449.58	7683.98
449.79	8001.41
450.00	7813.00
450.21	7833.48
450.42	7944.07
450.63	8044.42
450.84	7911.30
451.05	7907.21
451.25	8023.94
451.46	8028.04
451.67	8122.24
451.88	8243.07
452.09	8261.51
452.30	8120.20
452.51	8228.74
452.72	8148.87
452.93	8474.49
453.13	8349.57
453.34	8374.14
453.55	8353.66
453.76	8437.63
453.97	8705.92
454.18	8540.03
454.39	8757.11
454.60	8628.09
454.81	8570.75
455.01	8882.04
455.22	8564.61
455.43	8847.22
455.64	8961.91
455.85	9029.49
456.06	9150.32
456.27	8972.15
456.48	9086.84
456.68	9240.44
456.89	9029.49
457.10	9363.31
457.31	9271.15
457.52	9013.11
457.73	9215.86
457.94	9492.34
458.14	9338.74
458.35	9576.30
458.56	9432.94
458.77	9428.85
458.98	9625.45
459.19	9514.86
459.39	9588.59
459.60	9828.20
459.81	9828.20
460.02	9785.19
460.23	9707.37
460.44	10131.30
460.65	10041.19
460.85	10100.58
461.06	10219.36
461.27	9926.50
461.48	10370.91
461.69	10493.79
461.89	9881.45
462.10	10338.15
462.31	10129.25
462.52	10350.43
462.73	10360.67
462.94	10823.51
463.14	10600.29
463.35	10604.38
463.56	10934.11
463.77	10878.81
463.98	10555.23
464.18	10762.08
464.39	11056.98
464.60	11083.61
464.81	11347.79
465.02	11183.96
465.23	11398.99
465.43	11136.85
465.64	11458.39
465.85	11474.77
466.06	11280.21
466.27	11896.65
466.47	11675.47
466.68	11867.98
466.89	11800.40
467.10	11951.95
467.30	11620.17
467.51	11712.33
467.72	12298.05
467.93	11962.19
468.14	12107.59
468.34	11999.05
468.55	12463.94
468.76	12498.75
468.97	12359.49
469.17	12486.47
469.38	12474.18
469.59	12973.88
469.80	12656.45
470.01	12576.58
470.21	12840.76
470.42	13053.75
470.63	13244.21
470.84	13121.34
471.04	13063.99
471.25	13262.65
471.46	13469.49
471.67	13469.49
471.87	13719.34
472.08	13719.34
472.29	13702.96
472.50	13414.20
472.70	13596.46
472.91	13758.25
473.12	14075.69
473.33	14243.62
473.53	14243.62
473.74	14225.19
473.95	14372.64
474.16	14550.82
474.36	14466.85
474.57	14847.77
474.78	14939.93
474.99	14731.04
475.19	14626.59
475.40	15054.62
475.61	15173.40
475.81	15415.06
476.02	15494.93
476.23	15161.11
476.44	15703.82
476.64	15763.22
476.85	15988.49
477.06	16049.93
477.27	16084.75
477.47	16228.10
477.68	16101.13
477.89	16615.17
478.09	16443.14
478.30	16561.92
478.51	16809.73
478.71	16860.93
478.92	16938.75
479.13	16867.07
479.34	17270.52
479.54	17211.13
479.75	17276.66
479.96	17334.01
480.16	17506.04
480.37	17587.96
480.58	17925.87
480.78	17934.06
480.99	17934.06
481.20	17981.17
481.41	18104.04
481.61	18353.90
481.82	18462.44
482.03	18597.60
482.23	18646.76
482.44	18910.94
482.65	18919.14
482.85	19105.50
483.06	19101.40
483.27	18994.91
483.47	18933.47
483.68	19250.91
483.89	19554.01
484.09	19416.79
484.30	19680.98
484.51	19896.02
484.71	20233.93
484.92	20109.01
485.13	20352.71
485.33	20477.64
485.54	20274.89
485.75	20676.29
485.95	20569.80
486.16	20403.91
486.37	20786.88
486.57	20760.26
486.78	20930.24
486.98	21100.22
487.19	21343.93
487.40	21563.06
487.60	21388.99
487.81	21870.26
488.02	21694.13
488.22	21653.17
488.43	21659.32
488.64	21980.85
488.84	22208.17
489.05	22185.65
489.25	21999.28
489.46	22822.56
489.67	22597.29
489.87	22750.88
490.08	22908.58
490.29	23068.32
490.49	23488.15
490.70	23148.19
490.90	23447.19
491.11	23453.34
491.32	23453.34
491.52	23533.21
491.73	23576.22
491.94	23807.64
492.14	23664.28
492.35	24241.81
492.55	24010.39
492.76	24131.22
492.97	24477.32
493.17	24219.28
493.38	24546.95
493.58	24712.84
493.79	24714.89
494.00	24575.62
494.20	24790.66
494.41	24727.17
494.61	25562.75
494.82	25044.61
495.02	25071.23
495.23	25245.31
495.44	25652.86
495.64	25560.70
495.85	25663.10
496.05	25781.88
496.26	25800.31
496.47	26117.75
496.67	25996.92
496.88	26293.87
497.08	26216.05
497.29	26508.91
497.49	26314.35
497.70	26381.93
497.91	26588.78
498.11	27037.28
498.32	26898.02
498.52	26938.98
498.73	27469.40
498.93	27168.35
499.14	26981.99
499.34	27383.39
499.55	27559.52
499.76	27172.45
499.96	27580.00
500.17	27569.76
500.37	27584.09
500.58	27850.33
500.78	27835.99
500.99	27960.92
501.19	28239.44
501.40	28083.80
501.60	27960.92
501.81	28091.99
502.02	28532.30
502.22	28112.47
502.43	28831.30
502.63	28542.54
502.84	29058.63
503.04	29011.53
503.25	28507.72
503.45	28792.39
503.66	29316.67
503.86	28819.02
504.07	29326.91
504.27	29132.36
504.48	29804.09
504.68	29419.07
504.89	29875.77
505.09	30010.93
505.30	29806.14
505.50	29677.12
505.71	29525.57
505.91	30006.84
506.12	30029.37
506.32	29830.71
506.53	30172.72
506.73	30346.80
506.94	30174.77
507.14	30379.57
507.35	30613.04
507.55	30684.72
507.76	30584.37
507.96	30320.18
508.17	30559.79
508.37	30516.78
508.58	30754.35
508.78	30973.48
508.99	30887.46
509.19	31200.80
509.40	30801.45
509.60	31241.76
509.81	30971.43
510.01	31129.12
510.22	31378.98
510.42	31680.03
510.63	31307.30
510.83	31438.37
511.04	31598.11
511.24	31626.78
511.44	31667.74
511.65	31704.60
511.85	31802.91
512.06	31798.81
512.26	32261.65
512.47	31866.39
512.67	31942.17
512.88	31778.33
513.08	32089.62
513.29	32484.88
513.49	32142.87
513.69	32359.95
513.90	32134.68
514.10	32226.84
514.31	32618.00
514.51	32620.05
514.72	32697.87
514.92	32595.47
515.13	32747.02
515.33	32648.72
515.53	33150.47
515.74	32886.28
515.94	32962.06
516.15	33205.77
516.35	32841.23
516.56	33476.10
516.76	33385.99
516.96	33474.05
517.17	33512.96
517.37	33142.28
517.58	33668.61
517.78	33988.09
517.99	33277.44
518.19	34045.43
518.39	34051.58
518.60	33701.37
518.80	34047.48
519.01	33920.51
519.21	33912.31
519.41	33859.07
519.62	34059.77
519.82	34299.38
520.03	34579.95
520.23	34469.36
520.43	34495.99
520.64	34686.45
520.84	34928.11
521.05	34610.67
521.25	34846.19
521.45	35100.14
521.66	34940.39
521.86	34760.17
522.07	35098.09
522.27	35061.22
522.47	35327.46
522.68	35569.12
522.88	35280.36
523.08	35603.94
523.29	35786.21
523.49	35892.70
523.70	35974.62
523.90	35978.72
524.10	35859.93
524.31	36103.64
524.51	35921.37
524.71	36763.09
524.92	36099.55
525.12	36548.05
525.33	36566.48
525.53	36599.25
525.73	36822.48
525.94	37008.84
526.14	36851.15
526.34	36824.53
526.55	36943.31
526.75	37027.28
526.95	37545.41
527.16	37393.86
527.36	37397.96
527.56	37191.11
527.77	37817.79
527.97	37813.70
528.17	37715.39
528.38	37508.55
528.58	37946.81
528.78	38129.08
528.99	37987.77
529.19	38534.58
529.39	38092.22
529.60	38536.63
529.80	38440.37
530.00	38626.74
530.21	38600.12
530.41	39011.76
530.61	38583.73
530.82	38845.87
531.02	39167.40
531.22	38620.59
531.43	39042.48
531.63	39411.11
531.83	39718.31
532.04	39708.07
532.24	39433.64
532.44	40054.17
532.64	39564.71
532.85	39990.69
533.05	40029.60
533.25	40222.11
533.46	40123.80
533.66	40398.23
533.86	40220.06
534.07	40568.21
534.27	40822.16
534.47	40850.83
534.67	40873.36
534.88	40895.89
535.08	40889.74
535.28	40824.21
535.49	41684.36
535.69	41262.47
535.89	41416.07
536.09	41717.12
536.30	41944.45
536.50	41725.32
536.70	41815.43
536.91	42087.81
537.11	42194.30
537.31	41874.82
537.51	42272.12
537.72	42560.89
537.92	42280.31
538.12	42794.36
538.32	42456.44
538.53	42667.38
538.73	42837.36
538.93	42986.86
539.13	42843.51
539.34	42878.32
539.54	42941.81
539.74	43281.77
539.94	43079.02
540.15	43169.13
540.35	43681.13
540.55	43357.55
540.75	43406.70
540.96	44068.19
541.16	43599.21
541.36	43763.04
541.56	43806.05
541.77	43988.32
541.97	43853.15
542.17	44387.67
542.37	44500.31
542.58	44528.98
542.78	43812.20
542.98	44025.18
543.18	44612.95
543.38	44281.18
543.59	45106.51
543.79	44655.96
543.99	44827.99
544.19	44961.11
544.40	44445.02
544.60	44604.76
544.80	45133.14
545.00	44952.91
545.20	45315.40
545.41	45086.03
545.61	44846.42
545.81	45360.46
546.01	45604.17
546.21	45368.65
546.42	45827.40
546.62	45450.57
546.82	45507.91
547.02	46159.17
547.22	45653.32
547.43	45471.05
547.63	45718.85
547.83	45688.13
548.03	45684.04
548.23	46292.29
548.44	45968.71
548.64	46009.67
548.84	46312.77
549.04	46355.77
549.24	46243.13
549.45	46474.55
549.65	46644.54
549.85	46726.46
550.05	46687.54
550.25	46603.58
550.45	47441.20
550.66	46740.79
550.86	46533.95
551.06	46880.05
551.26	47127.86
551.46	47002.93
551.66	46759.22
551.87	46814.52
552.07	47320.37
552.27	47244.59
552.47	47146.29
552.67	47535.40
552.87	47148.34
553.07	47666.47
553.28	47398.19
553.48	47742.25
553.68	47301.93
553.88	47656.23
554.08	47271.21
554.28	47977.76
554.48	47574.31
554.69	47795.49
554.89	47967.52
555.09	48010.53
555.29	47572.27
555.49	47736.10
555.69	48045.35
555.89	48092.45
556.10	48004.39
556.30	47750.44
556.50	47967.52
556.70	47848.74
556.90	48305.44
557.10	48696.60
557.30	47918.37
557.50	48622.87
557.70	48393.50
557.91	48733.46
558.11	48297.25
558.31	48078.11
558.51	48493.85
558.71	48745.75
558.91	48641.31
559.11	48608.54
559.31	48790.81
559.51	48489.76
559.72	49059.09
559.92	48817.43
560.12	48495.90
560.32	48917.78
560.52	48383.26
560.72	49216.78
560.92	49304.85
561.12	48958.74
561.32	49554.70
561.52	48958.74
561.72	48862.49
561.93	49196.31
562.13	49001.75
562.33	48821.53
562.53	49665.29
562.73	48981.27
562.93	49179.92
563.13	49536.27
563.33	48993.56
563.53	49435.92
563.73	48936.21
563.93	49241.36
564.13	49730.83
564.33	49620.23
564.53	49552.65
564.74	49681.67
564.94	49462.54
565.14	49356.05
565.34	49315.09
565.54	49587.47
565.74	49749.26
565.94	49800.46
566.14	49493.26
566.34	49640.71
566.54	49947.91
566.74	49765.64
566.94	50050.31
567.14	49859.85
567.34	49468.69
567.54	50054.40
567.74	49771.78
567.94	49868.04
568.14	50011.40
568.34	50025.73
568.54	49767.69
568.74	50154.75
568.94	49714.44
569.14	50078.98
569.34	50566.40
569.54	50513.15
569.75	50171.14
569.95	50246.91
570.15	50339.07
570.35	50441.47
570.55	50277.63
570.75	50287.87
570.95	50339.07
571.15	50197.76
571.35	50717.95
571.55	50660.60
571.75	50394.37
571.95	50703.61
572.15	50527.48
572.35	50826.49
572.55	50687.23
572.75	50836.73
572.95	50750.71
573.15	50930.93
573.35	50623.74
573.55	50322.69
573.75	50672.89
573.95	50883.83
574.15	50617.60
574.35	51217.65
574.55	51309.81
574.75	51297.52
574.95	51043.57
575.15	50939.13
575.34	50939.13
575.54	50988.28
575.74	51330.29
575.94	51309.81
576.14	51324.14
576.34	51309.81
576.54	51700.97
576.74	51162.36
576.94	51277.04
577.14	51694.83
577.34	51887.34
577.54	51086.58
577.74	51795.18
577.94	51703.02
578.14	51637.48
578.34	52417.76
578.54	51418.35
578.74	51989.73
578.94	52208.87
579.14	51471.60
579.34	51772.65
579.54	51848.42
579.74	52393.18
579.94	52251.87
580.13	52348.13
580.33	52143.33
580.53	52423.90
580.73	52284.64
580.93	52399.33
581.13	52499.68
581.33	52647.13
581.53	52626.65
581.73	52438.24
581.93	52673.76
582.13	52397.28
582.33	52788.44
582.53	52632.80
582.73	52759.77
582.92	52729.05
583.12	52770.01
583.32	52931.80
583.52	52909.27
583.72	52903.13
583.92	53249.24
584.12	53320.91
584.32	53562.57
584.52	53345.49
584.72	53327.06
584.92	53056.73
585.11	53515.47
585.31	53540.05
585.51	53406.93
585.71	52993.24
585.91	53808.33
586.11	53310.67
586.31	53494.99
586.51	53523.66
586.71	53783.76
586.91	53974.22
587.10	53757.13
587.30	53814.47
587.50	53650.64
587.70	54121.67
587.90	53867.72
588.10	54228.16
588.30	53380.31
