SpectraSuite Data File
++++++++++++++++++++++++++++++++++++
Date: Tue Jun 13 12:02:25 CEST 2017
User: INFO_000
Dark Spectrum Present: No
Reference Spectrum Present: No
Number of Sampled Component Spectra: 1
Spectrometers: USB4H00879
Integration Time (usec): 30000 (USB4H00879)
Spectra Averaged: 1 (USB4H00879)
Boxcar Smoothing: 0 (USB4H00879)
Correct for Electrical Dark: No (USB4H00879)
Strobe/Lamp Enabled: No (USB4H00879)
Correct for Detector Non-linearity: No (USB4H00879)
Correct for Stray Light: No (USB4H00879)
Number of Pixels in Processed Spectrum: 3648
>>>>>Begin Processed Spectral Data<<<<<
345.13	1296.36
345.34	1296.36
345.56	1296.36
345.78	1339.37
345.99	1347.56
346.21	1495.02
346.42	1499.11
346.64	1517.54
346.86	1615.85
347.07	1476.59
347.29	1558.50
347.50	1482.73
347.72	1542.12
347.94	1533.93
348.15	1540.07
348.37	1492.97
348.59	1560.55
348.80	1505.26
349.02	1597.42
349.23	1587.18
349.45	1611.75
349.67	1607.66
349.88	1605.61
350.10	1646.57
350.31	1652.71
350.53	1615.85
350.75	1603.56
350.96	1634.28
351.18	1624.04
351.39	1607.66
351.61	1570.79
351.82	1718.25
352.04	1652.71
352.26	1576.94
352.47	1621.99
352.69	1640.42
352.90	1581.03
353.12	1574.89
353.34	1654.76
353.55	1656.81
353.77	1611.75
353.98	1646.57
354.20	1593.32
354.41	1640.42
354.63	1630.18
354.85	1687.53
355.06	1642.47
355.28	1578.98
355.49	1644.52
355.71	1546.22
355.92	1626.09
356.14	1710.05
356.35	1630.18
356.57	1665.00
356.79	1613.80
357.00	1642.47
357.22	1662.95
357.43	1576.94
357.65	1703.91
357.86	1581.03
358.08	1650.66
358.29	1613.80
358.51	1591.27
358.72	1728.49
358.94	1716.20
359.16	1585.13
359.37	1560.55
359.59	1634.28
359.80	1691.62
360.02	1568.74
360.23	1626.09
360.45	1681.38
360.66	1628.14
360.88	1624.04
361.09	1613.80
361.31	1642.47
361.52	1617.90
361.74	1773.54
361.95	1712.10
362.17	1693.67
362.38	1695.72
362.60	1699.81
362.81	1650.66
363.03	1671.14
363.24	1691.62
363.46	1722.34
363.67	1669.09
363.89	1621.99
364.10	1644.52
364.32	1599.46
364.53	1703.91
364.75	1665.00
364.96	1710.05
365.18	1619.94
365.39	1726.44
365.61	1615.85
365.82	1744.87
366.04	1599.46
366.25	1701.86
366.47	1720.29
366.68	1699.81
366.90	1611.75
367.11	1703.91
367.33	1716.20
367.54	1757.16
367.76	1751.01
367.97	1687.53
368.19	1687.53
368.40	1708.01
368.62	1632.23
368.83	1646.57
369.05	1726.44
369.26	1669.09
369.48	1718.25
369.69	1687.53
369.91	1767.40
370.12	1703.91
370.33	1808.36
370.55	1779.68
370.76	1718.25
370.98	1791.97
371.19	1726.44
371.41	1744.87
371.62	1673.19
371.84	1710.05
372.05	1769.44
372.27	1732.58
372.48	1726.44
372.69	1703.91
372.91	1765.35
373.12	1691.62
373.34	1712.10
373.55	1810.40
373.77	1822.69
373.98	1740.77
374.20	1828.84
374.41	1734.63
374.62	1789.92
374.84	1826.79
375.05	1808.36
375.27	1808.36
375.48	1806.31
375.70	1810.40
375.91	1888.23
376.12	1927.14
376.34	1810.40
376.55	1847.27
376.77	1763.30
376.98	1841.12
377.19	1816.55
377.41	1839.08
377.62	1826.79
377.84	1882.08
378.05	1914.85
378.27	1853.41
378.48	1916.90
378.69	1988.58
378.91	1869.80
379.12	1873.89
379.34	1914.85
379.55	1880.04
379.76	1884.13
379.98	1847.27
380.19	1929.19
380.41	1877.99
380.62	1855.46
380.83	1861.60
381.05	1853.41
381.26	1937.38
381.47	1859.56
381.69	1837.03
381.90	2062.30
382.12	1941.47
382.33	1886.18
382.54	1925.09
382.76	1908.71
382.97	1939.43
383.19	1880.04
383.40	1892.32
383.61	1900.52
383.83	1953.76
384.04	1994.72
384.25	1865.70
384.47	2000.87
384.68	2035.68
384.89	1920.99
385.11	1992.67
385.32	2009.06
385.54	1931.23
385.75	2009.06
385.96	1955.81
386.18	1998.82
386.39	1957.86
386.60	1982.43
386.82	2027.49
387.03	2066.40
387.24	1994.72
387.46	2031.58
387.67	1996.77
387.88	2009.06
388.10	2021.35
388.31	2109.41
388.52	2123.74
388.74	2121.70
388.95	2052.06
389.16	2047.97
389.38	2011.11
389.59	2041.82
389.80	2162.66
390.02	2062.30
390.23	2138.08
390.44	2072.54
390.66	2054.11
390.87	2050.02
391.08	2187.23
391.30	2279.39
391.51	2088.93
391.72	2195.42
391.94	2158.56
392.15	2121.70
392.36	2023.39
392.58	2199.52
392.79	2179.04
393.00	2205.66
393.22	2172.89
393.43	2220.00
393.64	2242.53
393.85	2201.57
394.07	2193.37
394.28	2148.32
394.49	2246.62
394.71	2232.29
394.92	2334.68
395.13	2263.01
395.35	2207.71
395.56	2265.05
395.77	2260.96
395.98	2248.67
396.20	2330.59
396.41	2389.98
396.62	2312.16
396.84	2324.44
397.05	2248.67
397.26	2297.82
397.47	2387.93
397.69	2291.68
397.90	2455.51
398.11	2389.98
398.32	2377.69
398.54	2297.82
398.75	2338.78
398.96	2277.34
399.18	2488.28
399.39	2381.79
399.60	2344.92
399.81	2428.89
400.03	2408.41
400.24	2523.10
400.45	2420.70
400.66	2424.80
400.88	2570.20
401.09	2537.43
401.30	2478.04
401.51	2590.68
401.73	2551.77
401.94	2496.47
402.15	2539.48
402.36	2535.39
402.58	2564.06
402.79	2562.01
403.00	2625.50
403.21	2562.01
403.43	2590.68
403.64	2639.83
403.85	2643.93
404.06	2682.84
404.27	2525.15
404.49	2574.30
404.70	2592.73
404.91	2670.55
405.12	2635.74
405.34	2623.45
405.55	2783.19
405.76	2617.30
405.97	2727.89
406.19	2736.09
406.40	2648.02
406.61	2740.18
406.82	2762.71
407.03	2729.94
407.25	2688.98
407.46	2729.94
407.67	2793.43
407.88	2807.77
408.09	2660.31
408.31	2670.55
408.52	2693.08
408.73	2797.53
408.94	2731.99
409.15	2764.76
409.37	2779.09
409.58	2867.16
409.79	2832.34
410.00	2844.63
410.21	2793.43
410.43	2844.63
410.64	2842.58
410.85	2842.58
411.06	2879.44
411.27	2844.63
411.48	2971.60
411.70	2916.31
411.91	2899.92
412.12	3061.71
412.33	2899.92
412.54	3045.33
412.76	3094.48
412.97	3000.27
413.18	2871.25
413.39	3014.61
413.60	3012.56
413.81	3037.14
414.03	3006.42
414.24	2934.74
414.45	3151.82
414.66	2990.03
414.87	3135.44
415.08	3133.39
415.30	3061.71
415.51	3065.81
415.72	3141.58
415.93	3137.49
416.14	3065.81
416.35	3088.34
416.56	3117.01
416.78	3198.93
416.99	3096.53
417.20	3174.35
417.41	3235.79
417.62	3155.92
417.83	3233.74
418.04	3276.75
418.26	3223.50
418.47	3317.71
418.68	3225.55
418.89	3172.30
419.10	3340.24
419.31	3235.79
419.52	3246.03
419.73	3442.64
419.95	3393.48
420.16	3291.09
420.37	3334.09
420.58	3358.67
420.79	3254.22
421.00	3395.53
421.21	3413.96
421.42	3282.89
421.63	3399.63
421.85	3422.16
422.06	3475.40
422.27	3459.02
422.48	3514.31
422.69	3520.46
422.90	3520.46
423.11	3590.09
423.32	3594.19
423.53	3596.23
423.75	3657.67
423.96	3737.54
424.17	3686.34
424.38	3667.91
424.59	3667.91
424.80	3950.53
425.01	3792.84
425.22	3745.73
425.43	3639.24
425.64	3766.21
425.85	3850.18
426.06	3684.30
426.28	3784.65
426.49	3829.70
426.70	3743.69
426.91	3803.08
427.12	3854.28
427.33	3928.00
427.54	3848.13
427.75	3915.72
427.96	3928.00
428.17	3882.95
428.38	4014.02
428.59	3983.30
428.80	3968.96
429.01	4018.11
429.23	3954.63
429.44	4120.51
429.65	3997.64
429.86	4093.89
430.07	3989.44
430.28	3944.39
430.49	4126.66
430.70	4206.53
430.91	4140.99
431.12	4173.76
431.33	4401.08
431.54	4112.32
431.75	4298.69
431.96	4165.57
432.17	4267.97
432.38	4339.65
432.59	4411.32
432.80	4267.97
433.01	4253.63
433.22	4374.46
433.43	4425.66
433.64	4458.43
433.85	4341.69
434.06	4380.61
434.27	4394.94
434.49	4390.84
434.70	4679.61
434.91	4483.00
435.12	4425.66
435.33	4505.53
435.54	4587.45
435.75	4503.48
435.96	4591.55
436.17	4476.86
436.38	4698.04
436.59	4638.65
436.80	4726.71
437.01	4753.34
437.22	4839.35
437.43	4648.89
437.64	4474.81
437.85	4908.98
438.06	4802.49
438.27	4702.14
438.48	4761.53
438.69	4782.01
438.90	4796.34
439.11	4734.90
439.32	4831.16
439.53	4870.07
439.74	4929.46
439.95	4931.51
440.16	4970.42
440.37	5029.81
440.57	4894.65
440.78	4902.84
440.99	4966.32
441.20	5046.20
441.41	5027.76
441.62	4990.90
441.83	5085.11
442.04	5150.64
442.25	5068.72
442.46	5220.27
442.67	5148.59
442.88	5392.30
443.09	5103.54
443.30	5214.13
443.51	5124.02
443.72	5302.19
443.93	5187.50
444.14	5267.38
444.35	5013.43
444.56	5302.19
444.77	5353.39
444.98	5314.48
445.19	5216.18
445.40	5220.27
445.61	5394.35
445.81	5439.40
446.02	5427.12
446.23	5562.28
446.44	5377.97
446.65	5271.47
446.86	5382.06
447.07	5441.45
447.28	5597.10
447.49	5676.97
447.70	5576.62
447.91	5541.80
448.12	5629.87
448.33	5658.54
448.54	5642.15
448.74	5588.91
448.95	5654.44
449.16	5486.51
449.37	5930.92
449.58	5597.10
449.79	5849.00
450.00	5693.35
450.21	5875.62
450.42	5883.81
450.63	5797.80
450.84	5910.44
451.05	5904.29
451.25	5795.75
451.46	5920.68
451.67	5943.21
451.88	6186.91
452.09	5969.83
452.30	5912.49
452.51	5939.11
452.72	6049.70
452.93	6354.85
453.13	6035.36
453.34	6018.98
453.55	6031.27
453.76	6162.34
453.97	6285.22
454.18	6191.01
454.39	6252.45
454.60	6291.36
454.81	6387.61
455.01	6399.90
455.22	6158.24
455.43	6547.36
455.64	6582.17
455.85	6649.75
456.06	6637.47
456.27	6410.14
456.48	6709.15
456.68	6467.49
456.89	6604.70
457.10	6694.81
457.31	6604.70
457.52	6678.43
457.73	6791.06
457.94	6821.78
458.14	6692.76
458.35	6938.52
458.56	6889.37
458.77	6795.16
458.98	7118.74
459.19	6942.61
459.39	7114.64
459.60	7313.30
459.81	6989.72
460.02	7288.72
460.23	7106.45
460.44	7344.02
460.65	7221.14
460.85	7393.17
461.06	7331.73
461.27	7165.84
461.48	7571.34
461.69	7544.72
461.89	7360.40
462.10	7520.14
462.31	7532.43
462.52	7481.23
462.73	7382.93
462.94	7655.31
463.14	7610.25
463.35	7616.40
463.56	8083.33
463.77	7769.99
463.98	7761.80
464.18	7853.96
464.39	8007.56
464.60	8013.70
464.81	8066.95
465.02	7999.37
465.23	8083.33
465.43	8034.18
465.64	8185.73
465.85	8265.60
466.06	8175.49
466.27	8443.78
466.47	8431.49
466.68	8497.02
466.89	8349.57
467.10	8564.61
467.30	8363.90
467.51	8488.83
467.72	8695.68
467.93	8548.22
468.14	8656.76
468.34	8820.60
468.55	8787.83
468.76	8683.39
468.97	8875.90
469.17	9097.08
469.38	8984.44
469.59	9408.37
469.80	8953.72
470.01	9054.07
470.21	9111.41
470.42	9449.33
470.63	9512.81
470.84	9455.47
471.04	9500.53
471.25	9426.80
471.46	9549.68
471.67	9654.12
471.87	9772.91
472.08	9865.07
472.29	9791.34
472.50	9541.49
472.70	9742.19
472.91	10008.42
473.12	10004.33
473.33	9940.84
473.53	10202.98
473.74	10045.29
473.95	10252.13
474.16	10473.31
474.36	10270.56
474.57	10573.66
474.78	10915.67
474.99	10569.57
475.19	10583.90
475.40	10815.32
475.61	10831.71
475.81	10968.92
476.02	11202.39
476.23	11126.61
476.44	11085.65
476.64	11167.57
476.85	11403.09
477.06	11202.39
477.27	11523.92
477.47	11540.30
477.68	11427.67
477.89	11628.37
478.09	11687.76
478.30	11704.14
478.51	11872.07
478.71	11929.42
478.92	11960.14
479.13	12040.01
479.34	12228.42
479.54	12126.02
479.75	12263.24
479.96	12418.88
480.16	12377.92
480.37	12463.94
480.58	12595.01
480.78	12799.80
480.99	12791.61
481.20	13131.58
481.41	13027.13
481.61	12908.35
481.82	13037.37
482.03	13197.11
482.23	13309.75
482.44	13532.98
482.65	13373.24
482.85	13430.58
483.06	13596.46
483.27	13551.41
483.47	13725.49
483.68	13731.63
483.89	13788.97
484.09	13739.82
484.30	13993.77
484.51	14006.06
484.71	14331.69
484.92	14284.58
485.13	14311.21
485.33	14329.64
485.54	14311.21
485.75	14481.19
485.95	14911.26
486.16	14853.92
486.37	14941.98
486.57	14880.54
486.78	14800.67
486.98	15009.56
487.19	14929.69
487.40	15296.28
487.60	15099.67
487.81	15353.62
488.02	15294.23
488.22	15316.76
488.43	15587.09
488.64	15587.09
488.84	15720.21
489.05	15931.15
489.25	15820.56
489.46	15935.24
489.67	15761.17
489.87	16103.18
490.08	16025.36
490.29	16113.42
490.49	16643.84
490.70	16443.14
490.90	16492.29
491.11	16361.22
491.32	16525.06
491.52	16639.75
491.73	16523.01
491.94	16805.63
492.14	16922.37
492.35	17106.68
492.55	17010.43
492.76	16994.04
492.97	17438.45
493.17	17297.14
493.38	17420.02
493.58	17413.88
493.79	17327.86
494.00	17415.93
494.20	17661.68
494.41	17520.37
494.61	17647.35
494.82	17854.19
495.02	17833.71
495.23	17989.36
495.44	18003.69
495.64	18360.04
495.85	18165.48
496.05	18304.74
496.26	18169.58
496.47	18663.14
496.67	18028.27
496.88	18554.60
497.08	18556.64
497.29	18714.34
497.49	18669.28
497.70	18738.91
497.91	19175.13
498.11	18605.80
498.32	19048.16
498.52	19031.77
498.73	19414.74
498.93	19338.97
499.14	19343.06
499.34	19410.65
499.55	19734.23
499.76	19474.13
499.96	19551.96
500.17	19527.38
500.37	19885.78
500.58	19691.22
500.78	19957.46
500.99	19992.27
501.19	20066.00
501.40	20000.46
501.60	19943.12
501.81	20295.37
502.02	20330.19
502.22	20129.48
502.43	20223.69
502.63	20451.02
502.84	20373.19
503.04	20266.70
503.25	20498.12
503.45	20539.08
503.66	20793.03
503.86	20219.60
504.07	20698.82
504.27	20801.22
504.48	21182.14
504.68	20848.32
504.89	21114.56
505.09	21114.56
505.30	21098.17
505.50	21089.98
505.71	20997.82
505.91	21120.70
506.12	21378.75
506.32	21221.05
506.53	21403.32
506.73	21454.52
506.94	21546.68
507.14	21542.58
507.35	21608.12
507.55	21860.02
507.76	21739.19
507.96	21763.76
508.17	21829.30
508.37	21896.88
508.58	21833.39
508.78	22064.82
508.99	22163.12
509.19	22167.21
509.40	22228.65
509.60	22281.90
509.81	22472.36
510.01	22091.44
510.22	22347.44
510.42	22312.62
510.63	22408.87
510.83	22400.68
511.04	22394.54
511.24	22683.30
511.44	22656.68
511.65	22367.91
511.85	22869.67
512.06	22732.45
512.26	22550.18
512.47	22787.75
512.67	22881.95
512.88	22945.44
513.08	22769.32
513.29	23078.56
513.49	23025.31
513.69	22896.29
513.90	23129.76
514.10	23254.69
514.31	23385.76
514.51	23410.33
514.72	23301.79
514.92	23426.71
515.13	23191.20
515.33	23434.91
515.53	23635.61
515.74	23645.85
515.94	23439.00
516.15	23631.51
516.35	23514.78
516.56	23670.42
516.76	23656.09
516.96	23705.24
517.17	23641.75
517.37	24049.30
517.58	24088.21
517.78	23955.09
517.99	24057.49
518.19	24037.01
518.39	24295.05
518.60	24356.49
518.80	24422.03
519.01	24282.77
519.21	24180.37
519.41	24356.49
519.62	24481.42
519.82	24807.05
520.03	24596.10
520.23	24934.02
520.43	24587.91
520.64	25015.94
520.84	25144.96
521.05	24888.96
521.25	25282.17
521.45	25042.56
521.66	25337.47
521.86	25003.65
522.07	25280.13
522.27	25511.55
522.47	25192.06
522.68	25335.42
522.88	25380.48
523.08	25706.10
523.29	25917.04
523.49	25826.93
523.70	25882.23
523.90	26193.52
524.10	25751.16
524.31	25900.66
524.51	25693.82
524.71	26052.21
524.92	26121.84
525.12	26533.48
525.33	26203.76
525.53	26742.38
525.73	26631.79
525.94	26279.54
526.14	26465.90
526.34	26340.97
526.55	26672.74
526.75	26508.91
526.95	26451.56
527.16	26605.16
527.36	26959.46
527.56	27131.49
527.77	27221.60
527.97	27307.62
528.17	27129.44
528.38	27471.45
528.58	27534.94
528.78	27659.87
528.99	27459.16
529.19	27737.69
529.39	27668.06
529.60	27373.15
529.80	27907.67
530.00	27852.38
530.21	27833.94
530.41	28315.22
530.61	28116.56
530.82	27946.58
531.02	28005.97
531.22	28323.41
531.43	28255.82
531.63	28302.93
531.83	28665.42
532.04	28859.98
532.24	28460.62
532.44	28776.01
532.64	28778.06
532.85	28616.27
533.05	28776.01
533.25	28935.75
533.46	28425.81
533.66	29703.74
533.86	28999.24
534.07	29523.52
534.27	29306.43
534.47	29898.30
534.67	29292.10
534.88	29290.05
535.08	29587.00
535.28	29861.43
535.49	29996.60
535.69	30137.91
535.89	30207.54
536.09	30461.49
536.30	30422.58
536.50	30309.94
536.70	30332.47
536.91	30606.89
537.11	30414.38
537.31	30486.06
537.51	30418.48
537.72	30993.96
537.92	30774.83
538.12	30932.52
538.32	30815.79
538.53	30987.82
538.73	30631.47
538.93	31096.36
539.13	31110.69
539.34	31118.89
539.54	30934.57
539.74	31434.27
539.94	31096.36
540.15	31194.66
540.35	31663.64
540.55	31481.38
540.75	31643.17
540.96	31413.79
541.16	31548.96
541.36	31657.50
541.56	31720.99
541.77	31860.25
541.97	31637.02
542.17	31989.27
542.37	31895.07
542.58	32001.56
542.78	31833.63
542.98	32347.67
543.18	32187.92
543.38	32458.26
543.59	32597.52
543.79	31739.42
543.99	32470.54
544.19	32853.51
544.40	32228.88
544.60	32855.56
544.80	32759.31
545.00	33121.80
545.20	33076.74
545.41	33093.13
545.61	32927.24
545.81	33369.60
546.01	32804.36
546.21	32851.47
546.42	33029.64
546.62	33146.37
546.82	33316.36
547.02	33189.38
547.22	33428.99
547.43	32871.95
547.63	33519.10
547.83	33529.34
548.03	33517.06
548.23	33457.67
548.44	33572.35
548.64	33392.13
548.84	33512.96
549.04	33846.78
549.24	33918.46
549.45	34043.38
549.65	33836.54
549.85	34094.58
550.05	34233.85
550.25	34166.26
550.45	34039.29
550.66	34129.40
550.86	33953.27
551.06	34321.91
551.26	34495.99
551.46	34194.93
551.66	34303.48
551.87	33996.28
552.07	34467.31
552.27	34201.08
552.47	34323.96
552.67	34524.66
552.87	34295.28
553.07	34688.49
553.28	34706.93
553.48	35016.17
553.68	34702.83
553.88	34921.96
554.08	34803.18
554.28	34858.48
554.48	35032.55
554.69	35182.06
554.89	34831.85
555.09	35053.03
555.29	34907.63
555.49	34964.97
555.69	35151.34
555.89	35120.62
556.10	35388.90
556.30	34868.72
556.50	35091.94
556.70	34850.28
556.90	35120.62
557.10	35196.39
557.30	35223.01
557.50	34952.68
557.70	35470.82
557.91	35595.74
558.11	35210.73
558.31	35636.70
558.51	35452.39
558.71	35610.08
558.91	36025.82
559.11	35311.08
559.31	35800.54
559.51	35474.91
559.72	35767.77
559.92	35663.33
560.12	35497.44
560.32	35870.17
560.52	35683.81
560.72	35784.16
560.92	35843.55
561.12	35980.76
561.32	36412.88
561.52	35636.70
561.72	36259.29
561.93	35917.28
562.13	36265.43
562.33	35689.95
562.53	36056.54
562.73	36238.81
562.93	36093.40
563.13	36077.02
563.33	36023.77
563.53	35878.36
563.73	35749.34
563.93	36060.63
564.13	36337.11
564.33	36222.42
564.53	36244.95
564.74	36312.53
564.94	36079.07
565.14	36253.14
565.34	36304.34
565.54	36177.37
565.74	36478.42
565.94	36623.83
566.14	36564.43
566.34	36435.41
566.54	36855.25
566.74	36412.88
566.94	36421.08
567.14	36574.67
567.34	36806.09
567.54	36677.07
567.74	36320.73
567.94	36523.47
568.14	36806.09
568.34	36857.29
568.54	36343.25
568.74	36656.59
568.94	36832.72
569.14	36771.28
569.34	36806.09
569.54	36910.54
569.75	36603.35
569.95	36924.88
570.15	37182.92
570.35	36898.25
570.55	36894.16
570.75	36726.22
570.95	37012.94
571.15	37062.09
571.35	37043.66
571.55	37385.67
571.75	37375.43
571.95	37273.03
572.15	37227.98
572.35	37674.43
572.55	37451.20
572.75	37506.50
572.95	37451.20
573.15	37342.66
573.35	37629.38
573.55	37129.67
573.75	37821.89
573.95	37277.13
574.15	37184.97
574.35	37494.21
574.55	37561.79
574.75	37348.81
574.95	37813.70
575.15	37557.70
575.34	37465.54
575.54	37619.14
575.74	37739.97
575.94	37733.82
576.14	37518.79
576.34	37592.51
576.54	38051.26
576.74	37873.09
576.94	38061.50
577.14	38172.09
577.34	38317.50
577.54	37973.44
577.74	38045.12
577.94	38176.19
578.14	38090.17
578.34	38161.85
578.54	37844.41
578.74	38073.79
578.94	38598.07
579.14	38280.63
579.34	38393.27
579.54	38323.64
579.74	38516.15
579.94	38122.94
580.13	38411.70
580.33	38710.71
580.53	38913.45
580.73	38741.42
580.93	38702.51
581.13	38405.56
581.33	38770.10
581.53	38944.17
581.73	38782.38
581.93	39054.76
582.13	38868.40
582.33	38825.39
582.53	38817.20
582.73	38749.62
582.92	38946.22
583.12	39411.11
583.32	38641.07
583.52	38747.57
583.72	38913.45
583.92	38872.49
584.12	39185.83
584.32	39615.91
584.52	39835.04
584.72	39343.53
584.92	39794.08
585.11	39802.27
585.31	39466.41
585.51	39757.22
585.71	39450.02
585.91	39495.08
586.11	39433.64
586.31	39228.84
586.51	39163.31
586.71	39429.54
586.91	39876.00
587.10	39503.27
587.30	39687.59
587.50	39806.37
587.70	39693.73
587.90	39693.73
588.10	40076.70
588.30	40005.02
588.50	40234.39
588.69	40013.21
588.89	39968.16
