SpectraSuite Data File
++++++++++++++++++++++++++++++++++++
Date: Tue Jun 13 11:50:59 CEST 2017
User: INFO_000
Dark Spectrum Present: No
Reference Spectrum Present: No
Number of Sampled Component Spectra: 1
Spectrometers: USB4H00879
Integration Time (usec): 30000 (USB4H00879)
Spectra Averaged: 1 (USB4H00879)
Boxcar Smoothing: 0 (USB4H00879)
Correct for Electrical Dark: No (USB4H00879)
Strobe/Lamp Enabled: No (USB4H00879)
Correct for Detector Non-linearity: No (USB4H00879)
Correct for Stray Light: No (USB4H00879)
Number of Pixels in Processed Spectrum: 3648
>>>>>Begin Processed Spectral Data<<<<<
345.13	1284.08
345.34	1284.08
345.56	1284.08
345.78	1327.08
345.99	1339.37
346.21	1576.94
346.42	1552.36
346.64	1519.59
346.86	1587.18
347.07	1476.59
347.29	1531.88
347.50	1480.68
347.72	1490.92
347.94	1519.59
348.15	1439.72
348.37	1470.44
348.59	1468.39
348.80	1490.92
349.02	1572.84
349.23	1632.23
349.45	1605.61
349.67	1667.05
349.88	1613.80
350.10	1658.85
350.31	1568.74
350.53	1638.38
350.75	1660.90
350.96	1581.03
351.18	1675.24
351.39	1603.56
351.61	1615.85
351.82	1703.91
352.04	1683.43
352.26	1683.43
352.47	1609.70
352.69	1630.18
352.90	1566.70
353.12	1605.61
353.34	1673.19
353.55	1710.05
353.77	1691.62
353.98	1644.52
354.20	1591.27
354.41	1675.24
354.63	1624.04
354.85	1675.24
355.06	1619.94
355.28	1634.28
355.49	1685.48
355.71	1681.38
355.92	1609.70
356.14	1714.15
356.35	1656.81
356.57	1628.14
356.79	1685.48
357.00	1656.81
357.22	1753.06
357.43	1673.19
357.65	1693.67
357.86	1613.80
358.08	1677.29
358.29	1699.81
358.51	1689.57
358.72	1708.01
358.94	1703.91
359.16	1691.62
359.37	1722.34
359.59	1732.58
359.80	1683.43
360.02	1710.05
360.23	1771.49
360.45	1769.44
360.66	1703.91
360.88	1722.34
361.09	1718.25
361.31	1834.98
361.52	1736.68
361.74	1751.01
361.95	1820.64
362.17	1714.15
362.38	1865.70
362.60	1712.10
362.81	1771.49
363.03	1691.62
363.24	1751.01
363.46	1779.68
363.67	1794.02
363.89	1732.58
364.10	1771.49
364.32	1718.25
364.53	1794.02
364.75	1669.09
364.96	1802.21
365.18	1769.44
365.39	1843.17
365.61	1789.92
365.82	1814.50
366.04	1820.64
366.25	1794.02
366.47	1875.94
366.68	1779.68
366.90	1798.12
367.11	1759.21
367.33	1847.27
367.54	1884.13
367.76	1890.28
367.97	1841.12
368.19	1820.64
368.40	1832.93
368.62	1753.06
368.83	1882.08
369.05	1781.73
369.26	1798.12
369.48	1830.88
369.69	1751.01
369.91	1834.98
370.12	1779.68
370.33	1966.05
370.55	1806.31
370.76	1834.98
370.98	1826.79
371.19	1810.40
371.41	1822.69
371.62	1916.90
371.84	1859.56
372.05	1837.03
372.27	1886.18
372.48	1951.71
372.69	1808.36
372.91	1853.41
373.12	1906.66
373.34	1910.75
373.55	1855.46
373.77	1906.66
373.98	1865.70
374.20	1986.53
374.41	2002.91
374.62	1941.47
374.84	1849.32
375.05	1988.58
375.27	1974.24
375.48	2011.11
375.70	1984.48
375.91	1966.05
376.12	1980.39
376.34	1968.10
376.55	1959.91
376.77	1961.95
376.98	2021.35
377.19	1970.15
377.41	1959.91
377.62	2000.87
377.84	2019.30
378.05	2123.74
378.27	2045.92
378.48	2050.02
378.69	2060.26
378.91	1998.82
379.12	1990.63
379.34	2084.83
379.55	2093.02
379.76	2082.78
379.98	2138.08
380.19	2097.12
380.41	2062.30
380.62	2150.37
380.83	2217.95
381.05	2068.45
381.26	2222.05
381.47	2142.18
381.69	2133.98
381.90	2140.13
382.12	2088.93
382.33	2234.33
382.54	2070.50
382.76	2127.84
382.97	2136.03
383.19	2181.09
383.40	2230.24
383.61	2191.33
383.83	2142.18
384.04	2275.29
384.25	2144.22
384.47	2265.05
384.68	2176.99
384.89	2244.57
385.11	2211.81
385.32	2228.19
385.54	2269.15
385.75	2215.90
385.96	2303.96
386.18	2322.40
386.39	2271.20
386.60	2285.53
386.82	2316.25
387.03	2340.83
387.24	2336.73
387.46	2287.58
387.67	2334.68
387.88	2320.35
388.10	2402.27
388.31	2398.17
388.52	2369.50
388.74	2379.74
388.95	2342.88
389.16	2320.35
389.38	2435.03
389.59	2443.23
389.80	2514.91
390.02	2389.98
390.23	2453.47
390.44	2408.41
390.66	2543.58
390.87	2455.51
391.08	2441.18
391.30	2580.44
391.51	2484.19
391.72	2627.54
391.94	2592.73
392.15	2512.86
392.36	2582.49
392.58	2572.25
392.79	2600.92
393.00	2664.41
393.22	2652.12
393.43	2662.36
393.64	2664.41
393.85	2639.83
394.07	2643.93
394.28	2650.07
394.49	2742.23
394.71	2576.34
394.92	2762.71
395.13	2725.85
395.35	2596.82
395.56	2652.12
395.77	2750.42
395.98	2744.28
396.20	2750.42
396.41	2818.00
396.62	2801.62
396.84	2760.66
397.05	2807.77
397.26	2877.40
397.47	2893.78
397.69	2772.95
397.90	2981.84
398.11	2967.51
398.32	2768.85
398.54	2904.02
398.75	2801.62
398.96	2910.16
399.18	2979.79
399.39	2942.93
399.60	2955.22
399.81	2959.31
400.03	2908.12
400.24	3086.29
400.45	2934.74
400.66	3071.95
400.88	3053.52
401.09	3090.38
401.30	3096.53
401.51	3035.09
401.73	3002.32
401.94	3084.24
402.15	3237.84
402.36	3065.81
402.58	3174.35
402.79	3200.98
403.00	3217.36
403.21	3289.04
403.43	3164.11
403.64	3266.51
403.85	3182.54
404.06	3344.33
404.27	3190.74
404.49	3108.82
404.70	3241.93
404.91	3315.66
405.12	3352.52
405.34	3354.57
405.55	3502.03
405.76	3256.27
405.97	3213.26
406.19	3411.92
406.40	3223.50
406.61	3282.89
406.82	3452.88
407.03	3344.33
407.25	3467.21
407.46	3481.55
407.67	3436.49
407.88	3512.27
408.09	3342.28
408.31	3559.37
408.52	3540.94
408.73	3516.36
408.94	3508.17
409.15	3510.22
409.37	3489.74
409.58	3561.42
409.79	3643.34
410.00	3577.80
410.21	3598.28
410.43	3542.99
410.64	3594.19
410.85	3622.86
411.06	3538.89
411.27	3635.14
411.48	3727.30
411.70	3571.66
411.91	3710.92
412.12	3731.40
412.33	3559.37
412.54	3745.73
412.76	3819.46
412.97	3727.30
413.18	3563.47
413.39	3774.41
413.60	3710.92
413.81	3821.51
414.03	3848.13
414.24	3942.34
414.45	3925.96
414.66	3796.93
414.87	3846.09
415.08	3786.69
415.30	3874.76
415.51	3891.14
415.72	3772.36
415.93	3864.52
416.14	3903.43
416.35	4063.17
416.56	3954.63
416.78	3991.49
416.99	4061.12
417.20	4022.21
417.41	4126.66
417.62	4138.94
417.83	4028.35
418.04	4216.77
418.26	4177.86
418.47	4044.74
418.68	4237.25
418.89	4231.10
419.10	4181.95
419.31	4132.80
419.52	4319.17
419.73	4321.21
419.95	4267.97
420.16	4208.58
420.37	4386.75
420.58	4243.39
420.79	4253.63
421.00	4392.89
421.21	4403.13
421.42	4345.79
421.63	4497.34
421.85	4581.31
422.06	4595.64
422.27	4573.11
422.48	4378.56
422.69	4468.67
422.90	4532.15
423.11	4605.88
423.32	4507.58
423.53	4745.14
423.75	4609.98
423.96	4739.00
424.17	4677.56
424.38	4736.95
424.59	4736.95
424.80	4857.78
425.01	4745.14
425.22	4820.92
425.43	4628.41
425.64	4777.91
425.85	4913.08
426.06	4874.17
426.28	4937.65
426.49	4904.89
426.70	5083.06
426.91	4966.32
427.12	5121.97
427.33	5064.63
427.54	4931.51
427.75	5093.30
427.96	5160.88
428.17	5148.59
428.38	5169.07
428.59	5353.39
428.80	5244.85
429.01	5181.36
429.23	5257.14
429.44	5537.71
429.65	5392.30
429.86	5431.21
430.07	5248.94
430.28	5347.25
430.49	5449.64
430.70	5500.84
430.91	5640.11
431.12	5533.61
431.33	5609.39
431.54	5529.52
431.75	5636.01
431.96	5627.82
432.17	5642.15
432.38	5590.95
432.59	5762.98
432.80	5660.59
433.01	5865.38
433.22	5926.82
433.43	5863.33
433.64	5781.42
433.85	5775.27
434.06	5963.68
434.27	5982.12
434.49	6025.12
434.70	6037.41
434.91	6186.91
435.12	5973.92
435.33	6053.80
435.54	6045.60
435.75	5892.01
435.96	6117.28
436.17	6100.90
436.38	6182.82
436.59	6123.43
436.80	6139.81
437.01	6571.93
437.22	6252.45
437.43	6250.40
437.64	6143.91
437.85	6356.90
438.06	6344.61
438.27	6305.70
438.48	6356.90
438.69	6522.78
438.90	6430.62
439.11	6596.51
439.32	6389.66
439.53	6651.80
439.74	6719.39
439.95	6641.56
440.16	6586.27
440.37	6412.19
440.57	6598.56
440.78	6729.63
440.99	6559.64
441.20	6647.71
441.41	6721.43
441.62	6856.60
441.83	6508.44
442.04	6883.22
442.25	6930.33
442.46	6752.15
442.67	6913.94
442.88	7219.09
443.09	6819.74
443.30	6913.94
443.51	6932.37
443.72	7186.32
443.93	6852.50
444.14	7292.82
444.35	6946.71
444.56	7194.51
444.77	7155.60
444.98	7288.72
445.19	7249.81
445.40	7200.66
445.61	7210.90
445.81	7403.41
446.02	7278.48
446.23	7196.56
446.44	7096.21
446.65	7452.56
446.86	7319.44
447.07	7370.64
447.28	7718.79
447.49	7608.20
447.70	7550.86
447.91	7526.29
448.12	7692.17
448.33	7792.52
448.54	7677.83
448.74	7532.43
448.95	7749.51
449.16	7573.39
449.37	7919.50
449.58	7600.01
449.79	7974.79
450.00	7700.36
450.21	7944.07
450.42	8001.41
450.63	8058.76
450.84	7853.96
451.05	7974.79
451.25	8062.85
451.46	7929.74
451.67	8177.54
451.88	8269.70
452.09	8193.92
452.30	8069.00
452.51	8167.30
452.72	8292.23
452.93	8499.07
453.13	8175.49
453.34	8288.13
453.55	8429.44
453.76	8470.40
453.97	8814.46
454.18	8607.61
454.39	8710.01
454.60	8497.02
454.81	8601.47
455.01	8980.34
455.22	8478.59
455.43	8855.42
455.64	8988.53
455.85	9019.25
456.06	9232.24
456.27	8818.55
456.48	8955.77
456.68	9000.82
456.89	8898.42
457.10	9213.81
457.31	9402.22
457.52	9232.24
457.73	9260.91
457.94	9375.60
458.14	9254.77
458.35	9791.34
458.56	9441.14
458.77	9432.94
458.98	9803.63
459.19	9637.74
459.39	9813.87
459.60	9895.78
459.81	9799.53
460.02	9852.78
460.23	9899.88
460.44	10157.92
460.65	10028.90
460.85	10119.01
461.06	10172.26
461.27	9860.97
461.48	10522.46
461.69	10356.58
461.89	10239.84
462.10	10395.49
462.31	10254.18
462.52	10291.04
462.73	10252.13
462.94	10788.70
463.14	10608.48
463.35	10571.61
463.56	11118.42
463.77	11030.36
463.98	10757.98
464.18	10723.16
464.39	11046.74
464.60	11272.02
464.81	11329.36
465.02	11251.54
465.23	11386.71
465.43	11239.25
465.64	11575.12
465.85	11511.63
466.06	11237.20
466.27	11851.60
466.47	11579.22
466.68	11667.28
466.89	11863.88
467.10	12044.10
467.30	11622.22
467.51	12007.24
467.72	12144.45
467.93	12007.24
468.14	12146.50
468.34	12265.28
468.55	12429.12
468.76	12398.40
468.97	12160.84
469.17	12465.99
469.38	12588.86
469.59	12652.35
469.80	12623.68
470.01	12756.80
470.21	12803.90
470.42	12941.11
470.63	13076.28
470.84	12810.04
471.04	13227.83
471.25	13172.54
471.46	13100.86
471.67	13578.03
471.87	13612.85
472.08	13719.34
472.29	13920.04
472.50	13387.57
472.70	13612.85
472.91	13870.89
473.12	13989.67
473.33	14145.32
473.53	14384.93
473.74	14368.55
473.95	14352.16
474.16	14786.33
474.36	14667.55
474.57	14743.33
474.78	14950.17
474.99	14663.46
475.19	14866.21
475.40	15271.70
475.61	15527.70
475.81	15220.50
476.02	15888.14
476.23	15376.15
476.44	15638.29
476.64	15851.28
476.85	16060.17
477.06	16105.23
477.27	16387.85
477.47	16193.29
477.68	16301.83
477.89	16471.81
478.09	16428.81
478.30	16584.45
478.51	16609.03
478.71	16807.68
478.92	16994.04
479.13	16967.42
479.34	17223.42
479.54	17141.50
479.75	17233.66
479.96	17491.70
480.16	17686.26
480.37	17583.86
480.58	17975.02
480.78	18005.74
480.99	18036.46
481.20	18140.91
481.41	18312.94
481.61	18484.97
481.82	18382.57
482.03	18581.22
482.23	18515.69
482.44	18884.32
482.65	19089.12
482.85	19146.46
483.06	19064.54
483.27	19238.62
483.47	19334.87
483.68	19484.37
483.89	19629.78
484.09	19531.48
484.30	19459.80
484.51	19957.46
484.71	20168.40
484.92	20100.81
485.13	20211.40
485.33	20111.05
485.54	20377.29
485.75	20672.20
485.95	20973.25
486.16	20840.13
486.37	21055.17
486.57	21098.17
486.78	20969.15
486.98	20866.75
487.19	21542.58
487.40	21878.45
487.60	21518.01
487.81	21663.41
488.02	21632.69
488.22	21685.94
488.43	21741.24
488.64	22161.07
488.84	22140.59
489.05	22290.09
489.25	22116.01
489.46	22597.29
489.67	22281.90
489.87	22537.90
490.08	22892.19
490.29	22953.63
490.49	23174.81
490.70	23191.20
490.90	23391.90
491.11	23346.84
491.32	23613.08
491.52	23293.60
491.73	23740.05
491.94	23713.43
492.14	23768.73
492.35	24014.48
492.55	23979.67
492.76	24641.16
492.97	24387.21
493.17	24311.44
493.38	24309.39
493.58	24946.31
493.79	24778.37
494.00	24661.64
494.20	25276.03
494.41	25005.70
494.61	25134.72
494.82	25263.74
495.02	25425.53
495.23	25458.30
495.44	25579.13
495.64	25548.41
495.85	25745.02
496.05	25611.90
496.26	26031.73
496.47	26068.59
496.67	25915.00
496.88	26398.32
497.08	26230.38
497.29	26730.09
497.49	26476.14
497.70	26574.44
497.91	26728.04
498.11	26666.60
498.32	27035.24
498.52	26885.73
498.73	27010.66
498.93	27061.86
499.14	27233.89
499.34	27403.87
499.55	27661.91
499.76	27500.12
499.96	27682.39
500.17	27741.78
500.37	27770.46
500.58	27760.22
500.78	28134.99
500.99	28276.30
501.19	28522.06
501.40	28022.36
501.60	28331.60
501.81	28397.13
502.02	28165.71
502.22	27997.78
502.43	28819.02
502.63	28970.57
502.84	28849.74
503.04	28913.22
503.25	29115.97
503.45	28710.47
503.66	29093.44
503.86	29038.15
504.07	29654.59
504.27	29056.58
504.48	29640.25
504.68	29197.89
504.89	29333.06
505.09	29713.98
505.30	29931.06
505.50	29849.14
505.71	29857.34
505.91	30268.98
506.12	30127.67
506.32	30146.10
506.53	29929.02
506.73	30017.08
506.94	30658.09
507.14	30447.15
507.35	30594.61
507.55	30613.04
507.76	30576.17
507.96	30602.80
508.17	30758.44
508.37	31006.25
508.58	30760.49
508.78	31172.13
508.99	31176.23
509.19	31147.56
509.40	31370.79
509.60	31149.60
509.81	31092.26
510.01	31227.43
510.22	31424.03
510.42	31198.76
510.63	31665.69
510.83	31544.86
511.04	31467.04
511.24	31948.31
511.44	31725.08
511.65	31788.57
511.85	31626.78
512.06	31886.87
512.26	32071.19
512.47	32153.11
512.67	32030.23
512.88	32196.12
513.08	32138.77
513.29	31970.84
513.49	32341.52
513.69	32321.04
513.90	32726.54
514.10	32636.43
514.31	32550.42
514.51	32886.28
514.72	32505.36
514.92	32538.13
515.13	32724.49
515.33	33041.93
515.53	33101.32
515.74	33007.11
515.94	32921.10
516.15	33060.36
516.35	32742.92
516.56	33283.59
516.76	33359.36
516.96	33347.08
517.17	33181.19
517.37	33396.23
517.58	33799.68
517.78	33666.56
517.99	33676.80
518.19	34139.64
518.39	33764.86
518.60	34385.40
518.80	33666.56
519.01	34260.47
519.21	34115.06
519.41	34495.99
519.62	34317.81
519.82	34555.38
520.03	34491.89
520.23	34430.45
520.43	34719.21
520.64	34899.44
520.84	34471.41
521.05	34637.30
521.25	34659.82
521.45	34954.73
521.66	35347.94
521.86	35188.20
522.07	35278.31
522.27	35251.69
522.47	35298.79
522.68	35591.65
522.88	35220.97
523.08	35677.66
523.29	35923.42
523.49	35515.87
523.70	35995.10
523.90	36079.07
524.10	36271.57
524.31	36644.30
524.51	36285.91
524.71	36730.32
524.92	36431.32
525.12	36781.52
525.33	36486.61
525.53	36806.09
525.73	36971.98
525.94	37006.80
526.14	36754.90
526.34	37037.51
526.55	36705.74
526.75	36912.59
526.95	37508.55
527.16	37242.31
527.36	37481.92
527.56	37402.05
527.77	37817.79
527.97	38346.17
528.17	37942.72
528.38	38323.64
528.58	38030.78
528.78	38395.32
528.99	38063.55
529.19	38536.63
529.39	37852.61
529.60	38665.65
529.80	38720.95
530.00	38602.16
530.21	38696.37
530.41	38852.02
530.61	38598.07
530.82	38860.21
531.02	38819.25
531.22	39159.21
531.43	39267.75
531.63	39708.07
531.83	39812.51
532.04	40035.74
532.24	39380.39
532.44	40179.10
532.64	39982.49
532.85	40205.72
533.05	40437.14
533.25	39898.53
533.46	40080.80
533.66	40514.97
533.86	40678.80
534.07	40777.11
534.27	40697.24
534.47	40930.70
534.67	40959.38
534.88	41272.71
535.08	41246.09
535.28	41323.91
535.49	41551.24
535.69	41713.03
535.89	41835.91
536.09	41995.65
536.30	41805.19
536.50	41917.82
536.70	41905.54
536.91	42116.48
537.11	42333.56
537.31	42014.08
537.51	42599.80
537.72	42548.60
537.92	42794.36
538.12	42960.24
538.32	42007.94
538.53	43183.47
538.73	42724.72
538.93	42866.03
539.13	42980.72
539.34	42751.35
539.54	43050.35
539.74	43218.28
539.94	43226.48
540.15	43027.82
540.35	43509.10
540.55	43707.75
540.75	43568.49
540.96	43421.03
541.16	43912.55
541.36	43490.66
541.56	44019.04
541.77	44193.12
541.97	44072.29
542.17	44217.69
542.37	44295.52
542.58	44164.45
542.78	44242.27
542.98	44488.03
543.18	44684.63
543.38	44645.72
543.59	44938.58
543.79	44567.90
543.99	44846.42
544.19	45108.56
544.40	44739.93
544.60	45667.66
544.80	44815.70
545.00	44979.54
545.20	45532.49
545.41	45167.95
545.61	45258.06
545.81	45593.93
546.01	45763.91
546.21	45806.92
546.42	45843.78
546.62	45479.24
546.82	45561.16
547.02	45999.43
547.22	46009.67
547.43	45614.41
547.63	45905.22
547.83	46286.14
548.03	46060.87
548.23	46296.38
548.44	46368.06
548.64	46011.71
548.84	46083.39
549.04	46732.60
549.24	46409.02
549.45	46789.94
549.65	46576.95
549.85	46331.20
550.05	46843.19
550.25	46994.74
550.45	47160.62
550.66	46837.05
550.86	46736.69
551.06	46767.41
551.26	46726.46
551.46	46921.01
551.66	46681.40
551.87	47058.23
552.07	47248.69
552.27	47193.39
552.47	47129.90
552.67	47633.71
552.87	47297.84
553.07	47451.44
553.28	47768.87
553.48	47547.69
553.68	47322.41
553.88	47516.97
554.08	48010.53
554.28	47562.03
554.48	47883.56
554.69	47930.66
554.89	47660.33
555.09	48061.73
555.29	47740.20
555.49	47686.95
555.69	47740.20
555.89	47717.67
556.10	48352.54
556.30	47969.57
556.50	48182.56
556.70	47598.89
556.90	48192.80
557.10	48631.07
557.30	47979.81
557.50	48561.44
557.70	48413.98
557.91	48825.62
558.11	48725.27
558.31	48516.38
558.51	48454.94
558.71	48321.82
558.91	48805.14
559.11	48674.07
559.31	48794.90
559.51	48540.96
559.72	48487.71
559.92	48930.07
560.12	48827.67
560.32	48979.22
560.52	48244.00
560.72	48626.97
560.92	48928.02
561.12	49208.59
561.32	49063.19
561.52	48786.71
561.72	49323.28
561.93	48672.03
562.13	49282.32
562.33	49141.01
562.53	49472.78
562.73	49001.75
562.93	49192.21
563.13	49261.84
563.33	49354.00
563.53	49343.76
563.73	48882.97
563.93	48796.95
564.13	49706.25
564.33	49306.90
564.53	49212.69
564.74	49497.36
564.94	49227.02
565.14	49751.30
565.34	49081.62
565.54	49767.69
565.74	49505.55
565.94	49628.43
566.14	49587.47
566.34	49517.84
566.54	50134.28
566.74	49521.93
566.94	49857.80
567.14	49890.57
567.34	49767.69
567.54	49816.84
567.74	49716.49
567.94	49968.39
568.14	50081.03
568.34	50089.22
568.54	50152.71
568.74	50904.31
568.94	49886.47
569.14	50480.38
569.34	50468.09
569.54	50556.16
569.75	50255.11
569.95	50126.08
570.15	50674.94
570.35	50384.13
570.55	50509.05
570.75	50783.48
570.95	50717.95
571.15	50830.58
571.35	50466.05
571.55	50953.46
571.75	50722.04
571.95	50713.85
572.15	50619.64
572.35	50541.82
572.55	50818.30
572.75	50394.37
572.95	50869.50
573.15	50943.22
573.35	51053.81
573.55	51231.99
573.75	50537.72
573.95	50908.41
574.15	51293.43
574.35	50877.69
574.55	51115.25
574.75	50855.16
574.95	51367.15
575.15	51291.38
575.34	51111.16
575.54	51410.16
575.74	51086.58
575.94	51231.99
576.14	51242.23
576.34	51377.39
576.54	51887.34
576.74	51420.40
576.94	51533.04
577.14	51741.93
577.34	51836.14
577.54	51879.14
577.74	51811.56
577.94	51963.11
578.14	51719.40
578.34	52020.45
578.54	51580.14
578.74	51350.77
578.94	52270.31
579.14	51367.15
579.34	51700.97
579.54	52196.58
579.74	52458.72
579.94	52088.04
580.13	52376.80
580.33	52022.50
580.53	52384.99
580.73	52133.09
580.93	51983.59
581.13	52794.59
581.33	52813.02
581.53	52720.86
581.73	52227.30
581.93	52976.86
582.13	52698.33
582.33	52993.24
582.53	52944.09
582.73	52937.94
582.92	53224.66
583.12	52643.04
583.32	52929.75
583.52	52661.47
583.72	52903.13
583.92	52923.61
584.12	53134.55
584.32	53433.55
584.52	53263.57
584.72	53302.48
584.92	53425.36
585.11	53509.33
585.31	53306.58
585.51	53761.23
585.71	53433.55
585.91	53767.37
586.11	53464.27
586.31	53359.83
586.51	53593.29
586.71	53521.62
586.91	53920.97
587.10	53636.30
587.30	53509.33
587.50	53880.01
587.70	53939.40
587.90	53744.84
588.10	54074.57
588.30	53988.55
