SpectraSuite Data File
++++++++++++++++++++++++++++++++++++
Date: Tue Jun 13 11:52:06 CEST 2017
User: INFO_000
Dark Spectrum Present: No
Reference Spectrum Present: No
Number of Sampled Component Spectra: 1
Spectrometers: USB4H00879
Integration Time (usec): 30000 (USB4H00879)
Spectra Averaged: 1 (USB4H00879)
Boxcar Smoothing: 0 (USB4H00879)
Correct for Electrical Dark: No (USB4H00879)
Strobe/Lamp Enabled: No (USB4H00879)
Correct for Detector Non-linearity: No (USB4H00879)
Correct for Stray Light: No (USB4H00879)
Number of Pixels in Processed Spectrum: 3648
>>>>>Begin Processed Spectral Data<<<<<
345.13	1368.04
345.34	1368.04
345.56	1368.04
345.78	1345.52
345.99	1378.28
346.21	1456.11
346.42	1560.55
346.64	1527.78
346.86	1558.50
347.07	1458.15
347.29	1538.02
347.50	1490.92
347.72	1570.79
347.94	1599.46
348.15	1484.78
348.37	1472.49
348.59	1480.68
348.80	1505.26
349.02	1593.32
349.23	1658.85
349.45	1648.61
349.67	1669.09
349.88	1583.08
350.10	1730.53
350.31	1652.71
350.53	1589.22
350.75	1679.33
350.96	1624.04
351.18	1632.23
351.39	1640.42
351.61	1630.18
351.82	1599.46
352.04	1669.09
352.26	1605.61
352.47	1646.57
352.69	1632.23
352.90	1628.14
353.12	1650.66
353.34	1677.29
353.55	1619.94
353.77	1642.47
353.98	1626.09
354.20	1634.28
354.41	1697.77
354.63	1693.67
354.85	1705.96
355.06	1658.85
355.28	1683.43
355.49	1757.16
355.71	1718.25
355.92	1646.57
356.14	1673.19
356.35	1761.25
356.57	1636.33
356.79	1685.48
357.00	1740.77
357.22	1730.53
357.43	1726.44
357.65	1632.23
357.86	1728.49
358.08	1726.44
358.29	1669.09
358.51	1755.11
358.72	1716.20
358.94	1712.10
359.16	1732.58
359.37	1718.25
359.59	1636.33
359.80	1705.96
360.02	1683.43
360.23	1742.82
360.45	1748.97
360.66	1710.05
360.88	1740.77
361.09	1742.82
361.31	1724.39
361.52	1740.77
361.74	1773.54
361.95	1781.73
362.17	1781.73
362.38	1804.26
362.60	1763.30
362.81	1720.29
363.03	1708.01
363.24	1775.59
363.46	1751.01
363.67	1787.88
363.89	1785.83
364.10	1685.48
364.32	1765.35
364.53	1818.60
364.75	1693.67
364.96	1738.73
365.18	1798.12
365.39	1773.54
365.61	1787.88
365.82	1830.88
366.04	1877.99
366.25	1777.64
366.47	1796.07
366.68	1791.97
366.90	1740.77
367.11	1824.74
367.33	1845.22
367.54	1798.12
367.76	1832.93
367.97	1877.99
368.19	1808.36
368.40	1890.28
368.62	1777.64
368.83	1812.45
369.05	1783.78
369.26	1822.69
369.48	1736.68
369.69	1806.31
369.91	1837.03
370.12	1800.16
370.33	1863.65
370.55	1757.16
370.76	1843.17
370.98	1851.36
371.19	1857.51
371.41	1841.12
371.62	1832.93
371.84	1808.36
372.05	1886.18
372.27	1910.75
372.48	1877.99
372.69	1906.66
372.91	1906.66
373.12	1937.38
373.34	1884.13
373.55	1853.41
373.77	1935.33
373.98	1896.42
374.20	1992.67
374.41	1970.15
374.62	1943.52
374.84	1902.56
375.05	1980.39
375.27	1980.39
375.48	1988.58
375.70	1976.29
375.91	2000.87
376.12	1994.72
376.34	1949.67
376.55	1959.91
376.77	2062.30
376.98	1877.99
377.19	2027.49
377.41	2039.78
377.62	1980.39
377.84	2017.25
378.05	2109.41
378.27	2027.49
378.48	2109.41
378.69	2133.98
378.91	2015.20
379.12	2047.97
379.34	2052.06
379.55	2146.27
379.76	2025.44
379.98	2095.07
380.19	2041.82
380.41	2152.42
380.62	2215.90
380.83	2078.69
381.05	2021.35
381.26	2189.28
381.47	2138.08
381.69	2107.36
381.90	2242.53
382.12	2133.98
382.33	2060.26
382.54	2093.02
382.76	2158.56
382.97	2136.03
383.19	2041.82
383.40	2228.19
383.61	2140.13
383.83	2148.32
384.04	2168.80
384.25	2207.71
384.47	2207.71
384.68	2195.42
384.89	2152.42
385.11	2209.76
385.32	2236.38
385.54	2224.09
385.75	2195.42
385.96	2316.25
386.18	2271.20
386.39	2283.49
386.60	2230.24
386.82	2375.64
387.03	2332.64
387.24	2412.51
387.46	2355.16
387.67	2383.84
387.88	2353.12
388.10	2385.88
388.31	2406.36
388.52	2365.40
388.74	2396.12
388.95	2469.85
389.16	2363.36
389.38	2379.74
389.59	2457.56
389.80	2416.60
390.02	2369.50
390.23	2426.84
390.44	2445.27
390.66	2484.19
390.87	2445.27
391.08	2432.99
391.30	2435.03
391.51	2416.60
391.72	2621.40
391.94	2512.86
392.15	2449.37
392.36	2527.19
392.58	2406.36
392.79	2539.48
393.00	2549.72
393.22	2666.46
393.43	2596.82
393.64	2697.17
393.85	2605.02
394.07	2529.24
394.28	2533.34
394.49	2648.02
394.71	2613.21
394.92	2709.46
395.13	2656.22
395.35	2701.27
395.56	2686.94
395.77	2629.59
395.98	2670.55
396.20	2760.66
396.41	2695.13
396.62	2809.81
396.84	2705.37
397.05	2650.07
397.26	2846.68
397.47	2809.81
397.69	2781.14
397.90	2832.34
398.11	2748.37
398.32	2797.53
398.54	2871.25
398.75	2824.15
398.96	2856.92
399.18	2938.84
399.39	2996.18
399.60	2944.98
399.81	2850.77
400.03	2983.89
400.24	3053.52
400.45	2940.88
400.66	3076.05
400.88	2967.51
401.09	3022.80
401.30	3049.43
401.51	3078.10
401.73	3000.27
401.94	2967.51
402.15	3164.11
402.36	2955.22
402.58	3014.61
402.79	3033.04
403.00	3114.96
403.21	3149.78
403.43	3205.07
403.64	3203.02
403.85	3137.49
404.06	3098.58
404.27	3168.21
404.49	3098.58
404.70	3172.30
404.91	3268.56
405.12	3174.35
405.34	3241.93
405.55	3338.19
405.76	3176.40
405.97	3141.58
406.19	3442.64
406.40	3190.74
406.61	3246.03
406.82	3426.25
407.03	3239.89
407.25	3354.57
407.46	3332.05
407.67	3446.73
407.88	3401.68
408.09	3340.24
408.31	3411.92
408.52	3289.04
408.73	3461.07
408.94	3340.24
409.15	3426.25
409.37	3448.78
409.58	3385.29
409.79	3485.64
410.00	3553.23
410.21	3594.19
410.43	3467.21
410.64	3459.02
410.85	3571.66
411.06	3643.34
411.27	3616.71
411.48	3614.66
411.70	3608.52
411.91	3608.52
412.12	3629.00
412.33	3575.75
412.54	3708.87
412.76	3696.58
412.97	3755.97
413.18	3579.85
413.39	3721.16
413.60	3629.00
413.81	3696.58
414.03	3686.34
414.24	3708.87
414.45	3903.43
414.66	3778.50
414.87	3817.41
415.08	3753.93
415.30	3860.42
415.51	3948.48
415.72	3878.85
415.93	3825.61
416.14	3887.04
416.35	3968.96
416.56	4001.73
416.78	3966.92
416.99	3993.54
417.20	3956.68
417.41	3999.68
417.62	3956.68
417.83	4126.66
418.04	3985.35
418.26	4048.83
418.47	4032.45
418.68	4128.70
418.89	4134.85
419.10	4089.79
419.31	4126.66
419.52	4278.21
419.73	4181.95
419.95	4257.73
420.16	4196.29
420.37	4214.72
420.58	4353.98
420.79	4081.60
421.00	4257.73
421.21	4392.89
421.42	4364.22
421.63	4329.41
421.85	4353.98
422.06	4423.61
422.27	4333.50
422.48	4396.99
422.69	4458.43
422.90	4605.88
423.11	4493.24
423.32	4546.49
423.53	4483.00
423.75	4685.75
423.96	4779.96
424.17	4652.98
424.38	4782.01
424.59	4581.31
424.80	4837.30
425.01	4706.23
425.22	4720.57
425.43	4634.55
425.64	4921.27
425.85	4839.35
426.06	4931.51
426.28	4986.80
426.49	4816.82
426.70	4825.01
426.91	4902.84
427.12	5013.43
427.33	4896.69
427.54	4958.13
427.75	4970.42
427.96	5140.40
428.17	5085.11
428.38	5128.11
428.59	5199.79
428.80	5152.69
429.01	5152.69
429.23	5183.41
429.44	5539.76
429.65	5228.46
429.86	5377.97
430.07	5332.91
430.28	5277.62
430.49	5449.64
430.70	5437.36
430.91	5355.44
431.12	5494.70
431.33	5496.75
431.54	5615.53
431.75	5570.48
431.96	5431.21
432.17	5504.94
432.38	5455.79
432.59	5771.18
432.80	5582.76
433.01	5742.50
433.22	5889.96
433.43	5693.35
433.64	5711.78
433.85	5623.72
434.06	5742.50
434.27	5871.53
434.49	5961.64
434.70	6086.56
434.91	5889.96
435.12	6131.62
435.33	6035.36
435.54	5869.48
435.75	5863.33
435.96	5918.63
436.17	5912.49
436.38	6145.95
436.59	5965.73
436.80	6096.80
437.01	6225.82
437.22	6352.80
437.43	6201.25
437.64	6047.65
437.85	6406.05
438.06	6412.19
438.27	6238.11
438.48	6313.89
438.69	6340.51
438.90	6250.40
439.11	6262.69
439.32	6573.98
439.53	6352.80
439.74	6412.19
439.95	6530.97
440.16	6524.83
440.37	6545.31
440.57	6428.57
440.78	6586.27
440.99	6528.92
441.20	6522.78
441.41	6696.86
441.62	6881.18
441.83	6479.77
442.04	6840.22
442.25	6653.85
442.46	6664.09
442.67	7018.39
442.88	7169.94
443.09	6836.12
443.30	6825.88
443.51	6821.78
443.72	6979.48
443.93	6854.55
444.14	7190.42
444.35	6881.18
444.56	6961.05
444.77	7214.99
444.98	7128.98
445.19	7159.70
445.40	7081.88
445.61	7042.96
445.81	7335.82
446.02	7284.62
446.23	7153.55
446.44	7147.41
446.65	7303.06
446.86	7202.71
447.07	7268.24
447.28	7636.88
447.49	7493.52
447.70	7458.70
447.91	7401.36
448.12	7448.46
448.33	7544.72
448.54	7720.84
448.74	7413.65
448.95	7778.19
449.16	7468.94
449.37	7890.82
449.58	7651.21
449.79	8021.89
450.00	7616.40
450.21	7876.49
450.42	7962.50
450.63	7825.29
450.84	7890.82
451.05	7804.81
451.25	7935.88
451.46	7892.87
451.67	7948.17
451.88	8093.57
452.09	8097.67
452.30	7901.06
452.51	8028.04
452.72	8136.58
452.93	8419.20
453.13	8220.55
453.34	8005.51
453.55	8290.18
453.76	8286.08
453.97	8685.44
454.18	8451.97
454.39	8486.78
454.60	8464.25
454.81	8484.73
455.01	8808.31
455.22	8292.23
455.43	8834.94
455.64	8742.78
455.85	8918.90
456.06	8955.77
456.27	8875.90
456.48	8957.82
456.68	8912.76
456.89	8806.27
457.10	9168.76
457.31	8955.77
457.52	8748.92
457.73	9187.19
457.94	9402.22
458.14	9117.56
458.35	9647.98
458.56	9281.39
458.77	9205.62
458.98	9551.73
459.19	9430.90
459.39	9617.26
459.60	9699.18
459.81	9439.09
460.02	9779.05
460.23	9750.38
460.44	9987.94
460.65	10049.38
460.85	10112.87
461.06	10014.57
461.27	9885.55
461.48	10096.49
461.69	10438.50
461.89	9940.84
462.10	10379.11
462.31	10092.39
462.52	9989.99
462.73	10088.29
462.94	10743.64
463.14	10479.46
463.35	10471.26
463.56	11067.22
463.77	10751.84
463.98	10733.40
464.18	10581.85
464.39	10841.95
464.60	11087.70
464.81	10987.35
465.02	10923.87
465.23	11261.78
465.43	11169.62
465.64	11272.02
465.85	11444.05
466.06	11044.70
466.27	11659.09
466.47	11628.37
466.68	11503.44
466.89	11609.93
467.10	11851.60
467.30	11603.79
467.51	11898.70
467.72	11886.41
467.93	11698.00
468.14	12013.38
468.34	12111.69
468.55	12191.56
468.76	11986.76
468.97	12289.86
469.17	12314.44
469.38	12410.69
469.59	12773.18
469.80	12664.64
470.01	12531.52
470.21	12635.97
470.42	12918.59
470.63	12975.93
470.84	12805.95
471.04	13203.25
471.25	13129.53
471.46	13100.86
471.67	13279.03
471.87	13385.52
472.08	13442.87
472.29	13670.19
472.50	13207.35
472.70	13426.48
472.91	13621.04
473.12	14028.59
473.33	13920.04
473.53	14108.46
473.74	13930.28
473.95	14034.73
474.16	14479.14
474.36	14278.44
474.57	14466.85
474.78	15017.75
474.99	14772.00
475.19	14706.46
475.40	14974.75
475.61	14964.51
475.81	15081.24
476.02	15300.37
476.23	15283.99
476.44	15408.92
476.64	15771.41
476.85	15652.63
477.06	15570.71
477.27	15914.77
477.47	15982.35
477.68	16123.66
477.89	16004.88
478.09	16260.87
478.30	16281.35
478.51	16545.54
478.71	16658.18
478.92	16695.04
479.13	16785.15
479.34	17057.53
479.54	17069.82
479.75	17026.81
479.96	17247.99
480.16	17268.47
480.37	17286.90
480.58	17807.09
480.78	17864.43
480.99	17827.57
481.20	17827.57
481.41	17905.39
481.61	17997.55
481.82	18237.16
482.03	18067.18
482.23	18157.29
482.44	18384.62
482.65	18968.29
482.85	18927.33
483.06	18786.02
483.27	18960.09
483.47	18884.32
483.68	19203.80
483.89	19306.20
484.09	19363.54
484.30	19310.30
484.51	19828.43
484.71	19932.88
484.92	19556.05
485.13	19918.54
485.33	20119.24
485.54	19949.26
485.75	20186.83
485.95	20461.26
486.16	20637.38
486.37	20692.68
486.57	20659.91
486.78	20612.81
486.98	20666.05
487.19	21315.26
487.40	21092.03
487.60	21233.34
487.81	21493.43
488.02	21366.46
488.22	21436.09
488.43	21575.35
488.64	22015.66
488.84	21704.37
489.05	22242.99
489.25	21837.49
489.46	22429.35
489.67	22402.73
489.87	22484.65
490.08	22744.74
490.29	22503.08
490.49	23019.17
490.70	22841.00
490.90	23303.84
491.11	23131.81
491.32	23219.87
491.52	23332.51
491.73	23287.45
491.94	23504.54
492.14	23506.59
492.35	23877.27
492.55	23881.36
492.76	24067.73
492.97	23948.95
493.17	23856.79
493.38	24190.61
493.58	24778.37
493.79	24462.99
494.00	24288.91
494.20	24673.93
494.41	24909.44
494.61	24614.54
494.82	25089.67
495.02	25124.48
495.23	25337.47
495.44	25118.34
495.64	25499.26
495.85	25124.48
496.05	25759.35
496.26	25556.60
496.47	25648.76
496.67	25716.34
496.88	25871.99
497.08	25869.94
497.29	26304.11
497.49	26005.11
497.70	26410.60
497.91	26578.54
498.11	26375.79
498.32	26652.27
498.52	26656.36
498.73	27217.50
498.93	27006.56
499.14	26869.35
499.34	27045.48
499.55	26916.45
499.76	27285.09
499.96	27457.12
500.17	27512.41
500.37	27457.12
500.58	27543.13
500.78	27633.24
500.99	27876.95
501.19	27971.16
501.40	28194.39
501.60	28048.98
501.81	27960.92
502.02	28075.60
502.22	27999.83
502.43	28313.17
502.63	28149.33
502.84	28565.07
503.04	28812.87
503.25	28374.61
503.45	28579.40
503.66	28730.95
503.86	28704.33
504.07	29320.77
504.27	28870.22
504.48	29281.86
504.68	29134.40
504.89	29726.27
505.09	29562.43
505.30	29331.01
505.50	29720.12
505.71	29636.16
505.91	29632.06
506.12	29740.60
506.32	29548.09
506.53	30176.82
506.73	30041.65
506.94	30107.19
507.14	29896.25
507.35	30027.32
507.55	29976.12
507.76	30068.28
507.96	30398.00
508.17	30121.52
508.37	30309.94
508.58	30686.76
508.78	30727.72
508.99	30832.17
509.19	31092.26
509.40	30826.03
509.60	30885.42
509.81	30381.62
510.01	31077.93
510.22	30774.83
510.42	31018.53
510.63	31401.50
510.83	31331.87
511.04	31172.13
511.24	31481.38
511.44	31399.46
511.65	31579.68
511.85	31655.45
512.06	31389.22
512.26	31540.77
512.47	31555.10
512.67	31802.91
512.88	31911.45
513.08	31811.10
513.29	32085.53
513.49	32081.43
513.69	32069.14
513.90	32069.14
514.10	32241.17
514.31	32239.12
514.51	32658.96
514.72	32333.33
514.92	32316.95
515.13	32527.89
515.33	32798.22
515.53	32828.94
515.74	32738.83
515.94	32728.59
516.15	32679.44
516.35	32628.24
516.56	33404.42
516.76	32620.05
516.96	33156.61
517.17	32982.54
517.37	33345.03
517.58	33433.09
517.78	33703.42
517.99	33463.81
518.19	33596.93
518.39	33580.54
518.60	33635.84
518.80	33687.04
519.01	33912.31
519.21	33914.36
519.41	33893.88
519.62	33869.31
519.82	34199.03
520.03	34491.89
520.23	34278.90
520.43	34229.75
520.64	34450.93
520.84	34459.12
521.05	34676.21
521.25	34590.19
521.45	34512.37
521.66	34747.89
521.86	35110.38
522.07	34809.32
522.27	34731.50
522.47	35558.88
522.68	35417.57
522.88	35212.77
523.08	35597.79
523.29	35698.14
523.49	35503.59
523.70	35827.17
523.90	35866.08
524.10	35835.36
524.31	36101.59
524.51	35669.47
524.71	35898.84
524.92	35911.13
525.12	36468.18
525.33	36249.05
525.53	36466.13
525.73	36677.07
525.94	36668.88
526.14	36478.42
526.34	36912.59
526.55	36888.01
526.75	37152.20
526.95	37113.29
527.16	36928.97
527.36	36838.86
527.56	37418.44
527.77	37672.39
527.97	37377.48
528.17	37635.52
528.38	37828.03
528.58	37774.78
528.78	37930.43
528.99	37957.05
529.19	38266.30
529.39	37672.39
529.60	38362.55
529.80	38256.06
530.00	38307.26
530.21	38276.54
530.41	38467.00
530.61	38542.77
530.82	38608.31
531.02	38225.34
531.22	38997.42
531.43	38802.86
531.63	39050.67
531.83	39447.97
532.04	39816.61
532.24	38815.15
532.44	39898.53
532.64	39675.30
532.85	39884.19
533.05	39720.35
533.25	39929.25
533.46	39746.98
533.66	40207.77
533.86	40279.45
534.07	40955.28
534.27	40377.75
534.47	40785.30
534.67	40988.05
534.88	40756.63
535.08	40834.45
535.28	41258.38
535.49	41067.92
535.69	41330.06
535.89	41420.17
536.09	41268.62
536.30	41686.40
536.50	41362.82
536.70	41825.67
536.91	41346.44
537.11	42241.40
537.31	41840.00
537.51	41844.10
537.72	42464.63
537.92	42632.57
538.12	42603.89
538.32	42435.96
538.53	42689.91
538.73	42417.53
538.93	42474.87
539.13	42681.72
539.34	42358.14
539.54	42820.98
539.74	43140.46
539.94	43074.93
540.15	43181.42
540.35	42997.10
540.55	43505.00
540.75	43189.61
540.96	43322.73
541.16	43615.59
541.36	43865.44
541.56	43828.58
541.77	43789.67
541.97	43472.23
542.17	44352.86
542.37	43920.74
542.58	44066.14
542.78	44086.62
542.98	44121.44
543.18	44508.50
543.38	44741.97
543.59	44627.29
543.79	44498.26
543.99	44553.56
544.19	44711.25
544.40	44823.89
544.60	44860.76
544.80	45118.80
545.00	45008.21
545.20	45090.13
545.41	45040.98
545.61	45251.92
545.81	45165.90
546.01	45253.97
546.21	45296.97
546.42	45251.92
546.62	45528.39
546.82	45380.94
547.02	45663.56
547.22	46208.32
547.43	45829.44
547.63	45759.81
547.83	45811.01
548.03	45616.46
548.23	45925.70
548.44	46060.87
548.64	46339.39
548.84	46406.97
549.04	45913.41
549.24	46415.16
549.45	46535.99
549.65	46056.77
549.85	46710.07
550.05	46765.37
550.25	46376.25
550.45	47338.80
550.66	46810.42
550.86	46662.97
551.06	47084.85
551.26	47215.92
551.46	46880.05
551.66	46748.98
551.87	47281.45
552.07	47330.61
552.27	47455.53
552.47	47039.79
552.67	47412.52
552.87	47127.86
553.07	47697.19
553.28	47580.46
553.48	47324.46
553.68	47263.02
553.88	47455.53
554.08	47861.03
554.28	47662.38
554.48	47381.80
554.69	47748.39
554.89	47756.58
555.09	47762.73
555.29	47858.98
555.49	47848.74
555.69	47791.40
555.89	47885.61
556.10	48051.49
556.30	47789.35
556.50	48194.85
556.70	47922.47
556.90	48164.13
557.10	48176.42
557.30	48082.21
557.50	48811.29
557.70	48012.58
557.91	48731.42
558.11	48817.43
558.31	48805.14
558.51	48151.84
558.71	48780.57
558.91	48555.29
559.11	48612.63
559.31	48575.77
559.51	48344.35
559.72	48684.31
559.92	48870.68
560.12	48588.06
560.32	48780.57
560.52	48739.61
560.72	48930.07
560.92	48733.46
561.12	49003.80
561.32	49521.93
561.52	49149.20
561.72	49038.61
561.93	49104.15
562.13	49630.47
562.33	48813.34
562.53	49796.36
562.73	48923.93
562.93	49075.48
563.13	49519.88
563.33	48981.27
563.53	49399.05
563.73	48971.03
563.93	49566.99
564.13	49710.35
564.33	49354.00
564.53	49575.18
564.74	49863.94
564.94	49337.62
565.14	49677.58
565.34	49427.73
565.54	49599.76
565.74	49644.81
565.94	49849.61
566.14	49974.53
566.34	49480.97
566.54	49984.77
566.74	49687.82
566.94	50070.79
567.14	49976.58
567.34	49904.90
567.54	49861.90
567.74	49978.63
567.94	49833.22
568.14	50668.79
568.34	50140.42
568.54	49900.81
568.74	49939.72
568.94	49909.00
569.14	50642.17
569.34	50263.30
569.54	50437.37
569.75	50197.76
569.95	50255.11
570.15	50171.14
570.35	50670.84
570.55	50648.32
570.75	50392.32
570.95	50877.69
571.15	50400.51
571.35	50629.88
571.55	50963.70
571.75	50900.22
571.95	50521.34
572.15	50453.76
572.35	50746.62
572.55	50361.60
572.75	50738.43
572.95	50599.16
573.15	51203.31
573.35	51047.67
573.55	51072.24
573.75	50910.46
573.95	51078.39
574.15	51010.81
574.35	51610.86
574.55	51268.85
574.75	51174.64
574.95	51432.69
575.15	51496.17
575.34	51277.04
575.54	51510.51
575.74	51399.92
575.94	51459.31
576.14	51592.43
576.34	51971.30
576.54	51971.30
576.74	51719.40
576.94	51592.43
577.14	51885.29
577.34	51877.10
577.54	51850.47
577.74	51586.28
577.94	51737.83
578.14	51893.48
578.34	52112.61
578.54	51909.86
578.74	51973.35
578.94	52456.67
579.14	51731.69
579.34	52417.76
579.54	52485.34
579.74	52573.41
579.94	52485.34
580.13	52894.94
580.33	52569.31
580.53	52614.37
580.73	52962.52
580.93	52888.79
581.13	52172.00
581.33	52698.33
581.53	53128.41
581.73	53107.93
581.93	53370.07
582.13	53112.02
582.33	52933.85
582.53	52657.37
582.73	53425.36
582.92	53034.20
583.12	53222.61
583.32	53200.08
583.52	52774.11
583.72	53290.19
583.92	53005.53
584.12	53339.35
584.32	53609.68
584.52	53865.67
584.72	53720.27
584.92	53783.76
585.11	54109.38
585.31	53525.71
585.51	54023.37
585.71	53689.55
585.91	54283.46
586.11	53421.26
586.31	53961.93
586.51	53730.51
586.71	54111.43
586.91	54326.47
587.10	53978.31
587.30	54017.22
587.50	54279.36
587.70	54052.04
587.90	54187.21
588.10	54625.47
588.30	54195.40
