SpectraSuite Data File
++++++++++++++++++++++++++++++++++++
Date: Tue Jun 13 12:03:49 CEST 2017
User: INFO_000
Dark Spectrum Present: No
Reference Spectrum Present: No
Number of Sampled Component Spectra: 1
Spectrometers: USB4H00879
Integration Time (usec): 30000 (USB4H00879)
Spectra Averaged: 1 (USB4H00879)
Boxcar Smoothing: 0 (USB4H00879)
Correct for Electrical Dark: No (USB4H00879)
Strobe/Lamp Enabled: No (USB4H00879)
Correct for Detector Non-linearity: No (USB4H00879)
Correct for Stray Light: No (USB4H00879)
Number of Pixels in Processed Spectrum: 3648
>>>>>Begin Processed Spectral Data<<<<<
345.13	1390.57
345.34	1390.57
345.56	1390.57
345.78	1327.08
345.99	1349.61
346.21	1630.18
346.42	1538.02
346.64	1544.17
346.86	1589.22
347.07	1517.54
347.29	1533.93
347.50	1501.16
347.72	1472.49
347.94	1585.13
348.15	1478.63
348.37	1464.30
348.59	1574.89
348.80	1546.22
349.02	1597.42
349.23	1589.22
349.45	1640.42
349.67	1730.53
349.88	1595.37
350.10	1675.24
350.31	1632.23
350.53	1527.78
350.75	1658.85
350.96	1562.60
351.18	1677.29
351.39	1566.70
351.61	1581.03
351.82	1636.33
352.04	1724.39
352.26	1654.76
352.47	1644.52
352.69	1652.71
352.90	1626.09
353.12	1648.61
353.34	1564.65
353.55	1677.29
353.77	1585.13
353.98	1648.61
354.20	1603.56
354.41	1673.19
354.63	1648.61
354.85	1744.87
355.06	1669.09
355.28	1689.57
355.49	1722.34
355.71	1667.05
355.92	1718.25
356.14	1628.14
356.35	1597.42
356.57	1662.95
356.79	1601.51
357.00	1597.42
357.22	1736.68
357.43	1632.23
357.65	1728.49
357.86	1654.76
358.08	1722.34
358.29	1769.44
358.51	1724.39
358.72	1755.11
358.94	1611.75
359.16	1689.57
359.37	1693.67
359.59	1669.09
359.80	1769.44
360.02	1687.53
360.23	1654.76
360.45	1718.25
360.66	1654.76
360.88	1687.53
361.09	1679.33
361.31	1722.34
361.52	1742.82
361.74	1697.77
361.95	1759.21
362.17	1679.33
362.38	1789.92
362.60	1738.73
362.81	1718.25
363.03	1703.91
363.24	1720.29
363.46	1701.86
363.67	1681.38
363.89	1720.29
364.10	1767.40
364.32	1695.72
364.53	1769.44
364.75	1660.90
364.96	1748.97
365.18	1814.50
365.39	1720.29
365.61	1699.81
365.82	1785.83
366.04	1822.69
366.25	1691.62
366.47	1673.19
366.68	1738.73
366.90	1748.97
367.11	1738.73
367.33	1738.73
367.54	1693.67
367.76	1732.58
367.97	1787.88
368.19	1761.25
368.40	1714.15
368.62	1716.20
368.83	1722.34
369.05	1732.58
369.26	1732.58
369.48	1736.68
369.69	1703.91
369.91	1791.97
370.12	1781.73
370.33	1771.49
370.55	1734.63
370.76	1810.40
370.98	1779.68
371.19	1771.49
371.41	1765.35
371.62	1802.21
371.84	1769.44
372.05	1826.79
372.27	1759.21
372.48	1806.31
372.69	1857.51
372.91	1794.02
373.12	1894.37
373.34	1791.97
373.55	1894.37
373.77	1902.56
373.98	1845.22
374.20	1851.36
374.41	1918.95
374.62	1832.93
374.84	1918.95
375.05	1896.42
375.27	1886.18
375.48	1882.08
375.70	1886.18
375.91	1820.64
376.12	1920.99
376.34	1947.62
376.55	1955.81
376.77	1910.75
376.98	1877.99
377.19	1886.18
377.41	1918.95
377.62	1970.15
377.84	1955.81
378.05	2011.11
378.27	2004.96
378.48	1980.39
378.69	1994.72
378.91	1966.05
379.12	1976.29
379.34	1978.34
379.55	2017.25
379.76	1937.38
379.98	1957.86
380.19	1970.15
380.41	1945.57
380.62	1964.00
380.83	1902.56
381.05	1939.43
381.26	1990.63
381.47	1949.67
381.69	1970.15
381.90	2090.98
382.12	2004.96
382.33	1994.72
382.54	1992.67
382.76	1970.15
382.97	1974.24
383.19	1976.29
383.40	2043.87
383.61	2009.06
383.83	2072.54
384.04	2025.44
384.25	2017.25
384.47	2031.58
384.68	2068.45
384.89	2015.20
385.11	2050.02
385.32	2076.64
385.54	2041.82
385.75	2136.03
385.96	2113.50
386.18	2158.56
386.39	2152.42
386.60	2088.93
386.82	2109.41
387.03	2047.97
387.24	2105.31
387.46	2158.56
387.67	2111.46
387.88	2148.32
388.10	2125.79
388.31	2181.09
388.52	2156.51
388.74	2273.25
388.95	2111.46
389.16	2127.84
389.38	2170.85
389.59	2246.62
389.80	2273.25
390.02	2158.56
390.23	2244.57
390.44	2199.52
390.66	2207.71
390.87	2240.48
391.08	2234.33
391.30	2346.97
391.51	2215.90
391.72	2248.67
391.94	2293.72
392.15	2293.72
392.36	2260.96
392.58	2265.05
392.79	2344.92
393.00	2303.96
393.22	2375.64
393.43	2400.22
393.64	2449.37
393.85	2504.67
394.07	2342.88
394.28	2359.26
394.49	2379.74
394.71	2301.92
394.92	2480.09
395.13	2365.40
395.35	2336.73
395.56	2435.03
395.77	2346.97
395.98	2549.72
396.20	2484.19
396.41	2443.23
396.62	2504.67
396.84	2392.03
397.05	2418.65
397.26	2475.99
397.47	2465.75
397.69	2455.51
397.90	2523.10
398.11	2519.00
398.32	2586.58
398.54	2492.38
398.75	2482.14
398.96	2523.10
399.18	2578.39
399.39	2609.11
399.60	2611.16
399.81	2490.33
400.03	2607.06
400.24	2680.79
400.45	2613.21
400.66	2678.74
400.88	2596.82
401.09	2684.89
401.30	2668.50
401.51	2658.26
401.73	2643.93
401.94	2668.50
402.15	2832.34
402.36	2682.84
402.58	2701.27
402.79	2701.27
403.00	2758.61
403.21	2713.56
403.43	2742.23
403.64	2721.75
403.85	2760.66
404.06	2781.14
404.27	2719.70
404.49	2791.38
404.70	2809.81
404.91	2740.18
405.12	2844.63
405.34	2842.58
405.55	2975.70
405.76	2811.86
405.97	2791.38
406.19	2955.22
406.40	2797.53
406.61	2844.63
406.82	2926.55
407.03	2910.16
407.25	2828.24
407.46	2965.46
407.67	2926.55
407.88	2885.59
408.09	2899.92
408.31	2852.82
408.52	2820.05
408.73	2967.51
408.94	2987.99
409.15	3059.67
409.37	3065.81
409.58	3041.23
409.79	3049.43
410.00	3008.47
410.21	2906.07
410.43	2979.79
410.64	3123.15
410.85	3055.57
411.06	3041.23
411.27	3121.10
411.48	3129.30
411.70	3080.14
411.91	3022.80
412.12	3143.63
412.33	3121.10
412.54	3157.97
412.76	3297.23
412.97	3102.67
413.18	3141.58
413.39	3145.68
413.60	3147.73
413.81	3151.82
414.03	3235.79
414.24	3186.64
414.45	3381.20
414.66	3223.50
414.87	3311.57
415.08	3225.55
415.30	3307.47
415.51	3268.56
415.72	3246.03
415.93	3403.72
416.14	3250.13
416.35	3252.17
416.56	3319.76
416.78	3299.28
416.99	3270.61
417.20	3260.37
417.41	3373.00
417.62	3416.01
417.83	3520.46
418.04	3504.07
418.26	3344.33
418.47	3418.06
418.68	3551.18
418.89	3422.16
419.10	3538.89
419.31	3510.22
419.52	3459.02
419.73	3518.41
419.95	3618.76
420.16	3465.16
420.37	3594.19
420.58	3514.31
420.79	3465.16
421.00	3629.00
421.21	3676.10
421.42	3518.41
421.63	3653.58
421.85	3672.01
422.06	3725.26
422.27	3733.45
422.48	3608.52
422.69	3762.12
422.90	3694.54
423.11	3725.26
423.32	3817.41
423.53	3690.44
423.75	3878.85
423.96	3925.96
424.17	3758.02
424.38	3915.72
424.59	3878.85
424.80	3975.11
425.01	3876.80
425.22	3956.68
425.43	3917.76
425.64	4081.60
425.85	4085.70
426.06	3915.72
426.28	3993.54
426.49	4022.21
426.70	3991.49
426.91	4011.97
427.12	4181.95
427.33	4081.60
427.54	4075.46
427.75	4163.52
427.96	4200.38
428.17	4073.41
428.38	4171.71
428.59	4337.60
428.80	4272.06
429.01	4317.12
429.23	4323.26
429.44	4429.76
429.65	4415.42
429.86	4396.99
430.07	4337.60
430.28	4392.89
430.49	4345.79
430.70	4560.83
430.91	4347.84
431.12	4399.04
431.33	4501.44
431.54	4515.77
431.75	4446.14
431.96	4624.31
432.17	4515.77
432.38	4491.20
432.59	4698.04
432.80	4605.88
433.01	4695.99
433.22	4759.48
433.43	4628.41
433.64	4599.74
433.85	4652.98
434.06	4749.24
434.27	4759.48
434.49	4698.04
434.70	4919.22
434.91	4757.43
435.12	4753.34
435.33	4919.22
435.54	4958.13
435.75	4747.19
435.96	4888.50
436.17	4757.43
436.38	4960.18
436.59	4966.32
436.80	4947.89
437.01	5081.01
437.22	5121.97
437.43	5023.67
437.64	4835.25
437.85	5146.55
438.06	5005.24
438.27	5113.78
438.48	5019.57
438.69	5164.98
438.90	5083.06
439.11	5021.62
439.32	5169.07
439.53	5214.13
439.74	5189.55
439.95	5201.84
440.16	5201.84
440.37	5207.98
440.57	5066.67
440.78	5304.24
440.99	5414.83
441.20	5431.21
441.41	5218.22
441.62	5365.68
441.83	5271.47
442.04	5312.43
442.25	5513.13
442.46	5547.95
442.67	5572.52
442.88	5699.50
443.09	5494.70
443.30	5466.03
443.51	5504.94
443.72	5787.56
443.93	5621.67
444.14	5701.54
444.35	5580.71
444.56	5621.67
444.77	5605.29
444.98	5703.59
445.19	5623.72
445.40	5736.36
445.61	5734.31
445.81	5842.85
446.02	5693.35
446.23	5795.75
446.44	5750.70
446.65	5832.62
446.86	5816.23
447.07	5754.79
447.28	5920.68
447.49	5990.31
447.70	5947.30
447.91	5889.96
448.12	6002.60
448.33	6090.66
448.54	6043.56
448.74	6061.99
448.95	6094.76
449.16	5986.21
449.37	6358.94
449.58	6055.84
449.79	6225.82
450.00	6029.22
450.21	6119.33
450.42	6209.44
450.63	6352.80
450.84	6416.29
451.05	6234.02
451.25	6244.26
451.46	6182.82
451.67	6387.61
451.88	6520.73
452.09	6463.39
452.30	6453.15
452.51	6426.53
452.72	6487.96
452.93	6631.32
453.13	6514.59
453.34	6530.97
453.55	6496.16
453.76	6643.61
453.97	7100.31
454.18	6657.95
454.39	6766.49
454.60	6707.10
454.81	6674.33
455.01	6860.70
455.22	6627.23
455.43	6711.19
455.64	7006.10
455.85	7171.99
456.06	7145.36
456.27	6848.41
456.48	6938.52
456.68	7051.16
456.89	6973.33
457.10	7141.27
457.31	7034.77
457.52	7088.02
457.73	7214.99
457.94	7526.29
458.14	7327.63
458.35	7319.44
458.56	7165.84
458.77	7335.82
458.98	7421.84
459.19	7335.82
459.39	7622.54
459.60	7636.88
459.81	7468.94
460.02	7690.12
460.23	7567.24
460.44	7831.43
460.65	7647.12
460.85	7724.94
461.06	7952.26
461.27	7561.10
461.48	8048.52
461.69	8159.11
461.89	7870.34
462.10	8091.52
462.31	7876.49
462.52	7937.93
462.73	8019.85
462.94	8318.85
463.14	8296.32
463.35	8286.08
463.56	8734.59
463.77	8445.82
463.98	8316.80
464.18	8376.19
464.39	8423.30
464.60	8574.85
464.81	8617.85
465.02	8611.71
465.23	8683.39
465.43	8793.98
465.64	8832.89
465.85	8705.92
466.06	8740.73
466.27	8959.86
466.47	9111.41
466.68	9129.84
466.89	9099.13
467.10	9236.34
467.30	9025.40
467.51	9205.62
467.72	9346.93
467.93	8959.86
468.14	9183.09
468.34	9437.04
468.55	9445.23
468.76	9359.22
468.97	9428.85
469.17	9514.86
469.38	9662.32
469.59	9764.72
469.80	9666.41
470.01	9772.91
470.21	9727.85
470.42	10006.38
470.63	9989.99
470.84	9889.64
471.04	10121.06
471.25	10110.82
471.46	10100.58
471.67	10342.24
471.87	10268.52
472.08	10430.30
472.29	10467.17
472.50	10442.59
472.70	10153.83
472.91	10403.68
473.12	10735.45
473.33	10743.64
473.53	10757.98
473.74	10852.19
473.95	10927.96
474.16	11065.18
474.36	11249.49
474.57	11278.16
474.78	11470.67
474.99	11153.24
475.19	11099.99
475.40	11663.18
475.61	11802.44
475.81	11540.30
476.02	11841.36
476.23	11833.16
476.44	11738.96
476.64	12068.68
476.85	12023.62
477.06	12011.34
477.27	12302.15
477.47	12187.46
477.68	12232.52
477.89	12388.16
478.09	12476.23
478.30	12644.16
478.51	12414.79
478.71	12648.26
478.92	12764.99
479.13	12687.17
479.34	12842.81
479.54	13080.38
479.75	13115.19
479.96	12914.49
480.16	13055.80
480.37	13358.90
480.58	13317.94
480.78	13625.14
480.99	13465.39
481.20	13672.24
481.41	13526.83
481.61	14004.01
481.82	14059.31
482.03	13866.80
482.23	13688.62
482.44	13952.81
482.65	14272.29
482.85	14133.03
483.06	14290.73
483.27	14307.11
483.47	14561.06
483.68	14526.24
483.89	14624.54
484.09	14774.05
484.30	14763.81
484.51	14991.13
484.71	15021.85
484.92	15036.19
485.13	15001.37
485.33	15015.71
485.54	15361.81
485.75	15345.43
485.95	15357.72
486.16	15675.15
486.37	15652.63
486.57	15666.96
486.78	15644.43
486.98	15589.14
487.19	15789.84
487.40	16082.70
487.60	16002.83
487.81	16205.58
488.02	16312.07
488.22	16084.75
488.43	16391.94
488.64	16469.76
488.84	16545.54
489.05	16637.70
489.25	16449.28
489.46	17053.44
489.67	16987.90
489.87	16832.26
490.08	16885.50
490.29	17258.23
490.49	17352.44
490.70	17137.40
490.90	17415.93
491.11	17372.92
491.32	17532.66
491.52	17606.39
491.73	17440.50
491.94	17657.59
492.14	17573.62
492.35	17725.17
492.55	17917.68
492.76	17925.87
492.97	18147.05
493.17	17993.45
493.38	18104.04
493.58	18509.54
493.79	18519.78
494.00	18181.87
494.20	18355.94
494.41	18665.19
494.61	18956.00
494.82	18720.48
495.02	18683.62
495.23	18640.61
495.44	18812.64
495.64	18800.35
495.85	18986.72
496.05	19158.75
496.26	19087.07
496.47	19517.14
496.67	19076.83
496.88	19396.31
497.08	19234.52
497.29	19347.16
497.49	19472.09
497.70	19887.82
497.91	19750.61
498.11	19701.46
498.32	19824.34
498.52	20080.33
498.73	20342.47
498.93	20215.50
499.14	20049.61
499.34	20186.83
499.55	20283.08
499.76	20317.90
499.96	20268.75
500.17	20508.36
500.37	20537.03
500.58	20496.07
500.78	20692.68
500.99	20700.87
501.19	20747.97
501.40	20793.03
501.60	20592.33
501.81	20805.31
502.02	20901.57
502.22	20793.03
502.43	21165.76
502.63	21143.23
502.84	21415.61
503.04	21044.93
503.25	21268.16
503.45	21208.76
503.66	21610.17
503.86	21219.00
504.07	21452.47
504.27	21569.21
504.48	21896.88
504.68	21763.76
504.89	21993.14
505.09	21864.11
505.30	21860.02
505.50	21792.44
505.71	22030.00
505.91	22245.04
506.12	22177.45
506.32	22023.86
506.53	22283.95
506.73	22251.18
506.94	22161.07
507.14	22329.00
507.35	22251.18
507.55	22501.03
507.76	22550.18
507.96	22496.94
508.17	22560.42
508.37	22556.33
508.58	22691.49
508.78	22628.01
508.99	22765.22
509.19	22681.25
509.40	22675.11
509.60	22931.11
509.81	22931.11
510.01	23029.41
510.22	23041.70
510.42	23346.84
510.63	23406.23
510.83	23207.58
511.04	22896.29
511.24	23414.43
511.44	23080.61
511.65	23223.97
511.85	23279.26
512.06	23322.27
512.26	23570.07
512.47	23459.48
512.67	23516.83
512.88	23555.74
513.08	23361.18
513.29	23895.70
513.49	23746.20
513.69	23529.11
513.90	23699.09
514.10	23963.28
514.31	24174.22
514.51	23801.49
514.72	23883.41
514.92	23899.80
515.13	24112.78
515.33	24049.30
515.53	24258.19
515.74	24135.31
515.94	24428.17
516.15	24309.39
516.35	24186.51
516.56	24651.40
516.76	24575.62
516.96	24315.53
517.17	24475.27
517.37	24602.25
517.58	24684.17
517.78	24886.92
517.99	24610.44
518.19	24927.88
518.39	24766.09
518.60	24782.47
518.80	24714.89
519.01	25157.25
519.21	24954.50
519.41	24962.69
519.62	24753.80
519.82	25020.03
520.03	25249.41
520.23	25239.17
520.43	25040.51
520.64	25517.69
520.84	25632.38
521.05	25474.68
521.25	25783.93
521.45	25566.84
521.66	25925.24
521.86	25650.81
522.07	25579.13
522.27	26005.11
522.47	25796.21
522.68	26066.55
522.88	26009.20
523.08	25902.71
523.29	26269.30
523.49	26310.25
523.70	26199.66
523.90	26615.40
524.10	26113.65
524.31	26465.90
524.51	26357.36
524.71	26525.29
524.92	26537.58
525.12	26699.37
525.33	26637.93
525.53	26556.01
525.73	26971.75
525.94	26775.14
526.14	27031.14
526.34	27127.39
526.55	27276.90
526.75	26945.12
526.95	27068.00
527.16	27170.40
527.36	27371.10
527.56	27498.08
527.77	27752.02
527.97	27461.21
528.17	27532.89
528.38	27901.53
528.58	27680.35
528.78	27932.25
528.99	27616.86
529.19	28005.97
529.39	27790.94
529.60	28094.04
529.80	28124.75
530.00	27887.19
530.21	28304.98
530.41	28341.84
530.61	28302.93
530.82	28292.69
531.02	28053.08
531.22	28485.20
531.43	28485.20
531.63	29003.33
531.83	29214.27
532.04	29251.14
532.24	28747.34
532.44	29044.29
532.64	29275.71
532.85	29218.37
533.05	29404.74
533.25	29169.22
533.46	29218.37
533.66	29529.66
533.86	29453.89
534.07	29595.20
534.27	29455.93
534.47	29767.23
534.67	29666.88
534.88	29793.85
535.08	29718.07
535.28	30352.94
535.49	29902.39
535.69	30414.38
535.89	30359.09
536.09	30279.22
536.30	30768.68
536.50	30602.80
536.70	30610.99
536.91	30549.55
537.11	30567.98
537.31	30586.41
537.51	30801.45
537.72	30979.62
537.92	31116.84
538.12	31161.89
538.32	30799.40
538.53	30981.67
538.73	31280.67
538.93	31419.94
539.13	31237.67
539.34	30830.12
539.54	31260.20
539.74	31340.07
539.94	31501.86
540.15	31102.50
540.35	31796.76
540.55	31669.79
540.75	31557.15
540.96	31888.92
541.16	31782.43
541.36	31813.15
541.56	32030.23
541.77	32177.68
541.97	31960.60
542.17	32255.51
542.37	31782.43
542.58	31960.60
542.78	32204.31
542.98	32159.25
543.18	32433.68
543.38	32525.84
543.59	32568.85
543.79	32693.77
543.99	32423.44
544.19	32755.21
544.40	32366.10
544.60	33072.65
544.80	32738.83
545.00	32753.16
545.20	33041.93
545.41	32656.91
545.61	33084.94
545.81	33084.94
546.01	33316.36
546.21	32914.95
546.42	32931.34
546.62	33009.16
546.82	33396.23
547.02	33310.21
547.22	33320.45
547.43	33342.98
547.63	33222.15
547.83	33203.72
548.03	32912.91
548.23	33578.50
548.44	33347.08
548.64	33480.19
548.84	33330.69
549.04	33820.16
549.24	34100.73
549.45	33629.69
549.65	33553.92
549.85	33945.08
550.05	34041.34
550.25	34266.61
550.45	34264.57
550.66	34287.09
550.86	33691.13
551.06	34309.62
551.26	34182.65
551.46	33994.23
551.66	34067.96
551.87	33947.13
552.07	34104.82
552.27	34330.10
552.47	34258.42
552.67	34592.24
552.87	34293.24
553.07	34481.65
553.28	34692.59
553.48	34543.09
553.68	34446.83
553.88	34276.85
554.08	34807.28
554.28	34659.82
554.48	34321.91
554.69	34704.88
554.89	34555.38
555.09	34467.31
555.29	34399.73
555.49	34424.31
555.69	34754.03
555.89	34719.21
556.10	34747.89
556.30	34823.66
556.50	35040.75
556.70	34815.47
556.90	34921.96
557.10	34885.10
557.30	34805.23
557.50	34827.76
557.70	34903.53
557.91	34977.26
558.11	34915.82
558.31	35161.58
558.51	35026.41
558.71	34954.73
558.91	35067.37
559.11	35030.51
559.31	35417.57
559.51	34840.04
559.72	35091.94
559.92	35249.64
560.12	34940.39
560.32	35153.38
560.52	35141.10
560.72	35560.93
560.92	35208.68
561.12	35165.67
561.32	35765.73
561.52	34932.20
561.72	35319.27
561.93	35100.14
562.13	35300.84
562.33	35098.09
562.53	35800.54
562.73	35010.03
562.93	35212.77
563.13	35409.38
563.33	35243.49
563.53	35403.24
563.73	35583.46
563.93	35794.40
564.13	35546.59
564.33	35681.76
564.53	35595.74
564.74	36046.30
564.94	35517.92
565.14	35804.64
565.34	35669.47
565.54	35698.14
565.74	35685.86
565.94	36373.97
566.14	35583.46
566.34	35810.78
566.54	35931.61
566.74	35882.46
566.94	36048.35
567.14	36122.07
567.34	35958.24
567.54	36222.42
567.74	35737.05
567.94	35562.98
568.14	36423.12
568.34	36369.88
568.54	35923.42
568.74	35898.84
568.94	36277.72
569.14	36285.91
569.34	36398.55
569.54	36302.29
569.75	36189.66
569.95	36431.32
570.15	36791.76
570.35	36175.32
570.55	36445.65
570.75	36556.24
570.95	36472.28
571.15	36599.25
571.35	36113.88
571.55	36541.91
571.75	36609.49
571.95	36556.24
572.15	36756.94
572.35	36715.98
572.55	36386.26
572.75	36713.94
572.95	36728.27
573.15	36861.39
573.35	36462.04
573.55	36699.60
573.75	36922.83
573.95	36988.36
574.15	36820.43
574.35	36945.36
574.55	36472.28
574.75	36789.71
574.95	36939.21
575.15	36679.12
575.34	36789.71
575.54	37207.50
575.74	37262.79
575.94	37150.15
576.14	36881.87
576.34	37012.94
576.54	37359.05
576.74	36961.74
576.94	37084.62
577.14	37266.89
577.34	37694.91
577.54	37012.94
577.74	37199.30
577.94	37025.23
578.14	37606.85
578.34	37205.45
578.54	37387.72
578.74	36924.88
578.94	37590.47
579.14	36988.36
579.34	37281.22
579.54	37101.00
579.74	37768.64
579.94	37494.21
580.13	37854.65
580.33	37690.82
580.53	38030.78
580.73	37596.61
580.93	37692.86
581.13	37471.68
581.33	37801.41
581.53	37699.01
581.73	37844.41
581.93	38309.30
582.13	38026.68
582.33	37776.83
582.53	37809.60
582.73	38055.36
582.92	38403.51
583.12	38053.31
583.32	38206.90
583.52	37813.70
583.72	38456.76
583.92	38282.68
584.12	38145.47
584.32	38167.99
584.52	38268.34
584.72	38661.55
584.92	38692.27
585.11	38634.93
585.31	38661.55
585.51	38835.63
585.71	38579.64
585.91	38950.32
586.11	38444.47
586.31	38528.44
586.51	38634.93
586.71	38565.30
586.91	38825.39
587.10	38477.24
587.30	39144.87
587.50	38596.02
587.70	38927.79
587.90	38733.23
588.10	38706.61
588.30	38536.63
588.50	38993.32
588.69	38739.38
