SpectraSuite Data File
++++++++++++++++++++++++++++++++++++
Date: Tue Jun 13 12:03:49 CEST 2017
User: INFO_000
Dark Spectrum Present: No
Reference Spectrum Present: No
Number of Sampled Component Spectra: 1
Spectrometers: USB4H00879
Integration Time (usec): 30000 (USB4H00879)
Spectra Averaged: 1 (USB4H00879)
Boxcar Smoothing: 0 (USB4H00879)
Correct for Electrical Dark: No (USB4H00879)
Strobe/Lamp Enabled: No (USB4H00879)
Correct for Detector Non-linearity: No (USB4H00879)
Correct for Stray Light: No (USB4H00879)
Number of Pixels in Processed Spectrum: 3648
>>>>>Begin Processed Spectral Data<<<<<
345.13	1359.85
345.34	1359.85
345.56	1359.85
345.78	1304.56
345.99	1374.19
346.21	1511.40
346.42	1595.37
346.64	1533.93
346.86	1630.18
347.07	1495.02
347.29	1515.50
347.50	1423.34
347.72	1548.26
347.94	1634.28
348.15	1480.68
348.37	1515.50
348.59	1535.98
348.80	1574.89
349.02	1583.08
349.23	1648.61
349.45	1597.42
349.67	1689.57
349.88	1589.22
350.10	1677.29
350.31	1673.19
350.53	1646.57
350.75	1681.38
350.96	1564.65
351.18	1632.23
351.39	1665.00
351.61	1617.90
351.82	1712.10
352.04	1648.61
352.26	1642.47
352.47	1578.98
352.69	1650.66
352.90	1679.33
353.12	1644.52
353.34	1648.61
353.55	1738.73
353.77	1603.56
353.98	1601.51
354.20	1576.94
354.41	1654.76
354.63	1632.23
354.85	1765.35
355.06	1636.33
355.28	1564.65
355.49	1693.67
355.71	1646.57
355.92	1634.28
356.14	1720.29
356.35	1636.33
356.57	1638.38
356.79	1613.80
357.00	1687.53
357.22	1697.77
357.43	1658.85
357.65	1665.00
357.86	1597.42
358.08	1677.29
358.29	1708.01
358.51	1671.14
358.72	1730.53
358.94	1654.76
359.16	1693.67
359.37	1685.48
359.59	1720.29
359.80	1742.82
360.02	1716.20
360.23	1658.85
360.45	1716.20
360.66	1720.29
360.88	1564.65
361.09	1736.68
361.31	1734.63
361.52	1714.15
361.74	1830.88
361.95	1771.49
362.17	1710.05
362.38	1779.68
362.60	1708.01
362.81	1730.53
363.03	1720.29
363.24	1738.73
363.46	1757.16
363.67	1697.77
363.89	1742.82
364.10	1724.39
364.32	1699.81
364.53	1847.27
364.75	1636.33
364.96	1638.38
365.18	1781.73
365.39	1708.01
365.61	1636.33
365.82	1802.21
366.04	1728.49
366.25	1654.76
366.47	1767.40
366.68	1800.16
366.90	1699.81
367.11	1800.16
367.33	1787.88
367.54	1765.35
367.76	1728.49
367.97	1832.93
368.19	1769.44
368.40	1796.07
368.62	1671.14
368.83	1703.91
369.05	1841.12
369.26	1693.67
369.48	1748.97
369.69	1732.58
369.91	1740.77
370.12	1720.29
370.33	1863.65
370.55	1720.29
370.76	1810.40
370.98	1781.73
371.19	1779.68
371.41	1810.40
371.62	1865.70
371.84	1771.49
372.05	1847.27
372.27	1810.40
372.48	1738.73
372.69	1771.49
372.91	1812.45
373.12	1808.36
373.34	1820.64
373.55	1804.26
373.77	1820.64
373.98	1869.80
374.20	1798.12
374.41	1847.27
374.62	1804.26
374.84	1834.98
375.05	1929.19
375.27	1841.12
375.48	1896.42
375.70	1923.04
375.91	1851.36
376.12	1943.52
376.34	1925.09
376.55	1900.52
376.77	1916.90
376.98	1894.37
377.19	1892.32
377.41	1933.28
377.62	1853.41
377.84	1968.10
378.05	1927.14
378.27	1949.67
378.48	1978.34
378.69	1974.24
378.91	1920.99
379.12	1886.18
379.34	2017.25
379.55	1980.39
379.76	1892.32
379.98	1925.09
380.19	1918.95
380.41	1931.23
380.62	1941.47
380.83	1947.62
381.05	1912.80
381.26	2031.58
381.47	1980.39
381.69	1992.67
381.90	2009.06
382.12	1959.91
382.33	2045.92
382.54	2107.36
382.76	1955.81
382.97	2013.15
383.19	1984.48
383.40	2023.39
383.61	2023.39
383.83	1990.63
384.04	2002.91
384.25	2041.82
384.47	2062.30
384.68	1990.63
384.89	1959.91
385.11	2070.50
385.32	2031.58
385.54	2027.49
385.75	2109.41
385.96	2119.65
386.18	2156.51
386.39	2197.47
386.60	2158.56
386.82	2152.42
387.03	2154.46
387.24	2191.33
387.46	2162.66
387.67	2107.36
387.88	2107.36
388.10	2213.85
388.31	2158.56
388.52	2138.08
388.74	2209.76
388.95	2158.56
389.16	2181.09
389.38	2140.13
389.59	2232.29
389.80	2254.81
390.02	2183.13
390.23	2273.25
390.44	2195.42
390.66	2240.48
390.87	2209.76
391.08	2267.10
391.30	2283.49
391.51	2226.14
391.72	2277.34
391.94	2281.44
392.15	2283.49
392.36	2295.77
392.58	2215.90
392.79	2344.92
393.00	2353.12
393.22	2365.40
393.43	2328.54
393.64	2363.36
393.85	2346.97
394.07	2357.21
394.28	2387.93
394.49	2385.88
394.71	2435.03
394.92	2551.77
395.13	2400.22
395.35	2353.12
395.56	2383.84
395.77	2387.93
395.98	2412.51
396.20	2555.86
396.41	2361.31
396.62	2545.63
396.84	2424.80
397.05	2402.27
397.26	2543.58
397.47	2533.34
397.69	2396.12
397.90	2578.39
398.11	2592.73
398.32	2613.21
398.54	2527.19
398.75	2623.45
398.96	2555.86
399.18	2559.96
399.39	2596.82
399.60	2613.21
399.81	2457.56
400.03	2660.31
400.24	2650.07
400.45	2596.82
400.66	2656.22
400.88	2678.74
401.09	2660.31
401.30	2727.89
401.51	2580.44
401.73	2670.55
401.94	2641.88
402.15	2766.81
402.36	2779.09
402.58	2682.84
402.79	2803.67
403.00	2678.74
403.21	2768.85
403.43	2719.70
403.64	2799.57
403.85	2680.79
404.06	2869.20
404.27	2680.79
404.49	2791.38
404.70	2711.51
404.91	2883.54
405.12	2822.10
405.34	2815.96
405.55	2877.40
405.76	2717.65
405.97	2807.77
406.19	2856.92
406.40	2770.90
406.61	2879.44
406.82	2908.12
407.03	2936.79
407.25	2928.60
407.46	2899.92
407.67	3028.95
407.88	2908.12
408.09	2944.98
408.31	2811.86
408.52	2938.84
408.73	2975.70
408.94	2869.20
409.15	2981.84
409.37	2928.60
409.58	3049.43
409.79	2985.94
410.00	3080.14
410.21	3108.82
410.43	3022.80
410.64	3074.00
410.85	3106.77
411.06	3196.88
411.27	3063.76
411.48	3047.38
411.70	3143.63
411.91	3162.06
412.12	3188.69
412.33	3074.00
412.54	3243.98
412.76	3225.55
412.97	3178.45
413.18	3051.47
413.39	3227.60
413.60	3168.21
413.81	3219.41
414.03	3174.35
414.24	3239.89
414.45	3303.37
414.66	3164.11
414.87	3256.27
415.08	3203.02
415.30	3282.89
415.51	3254.22
415.72	3317.71
415.93	3284.94
416.14	3368.91
416.35	3426.25
416.56	3344.33
416.78	3418.06
416.99	3422.16
417.20	3336.14
417.41	3428.30
417.62	3448.78
417.83	3411.92
418.04	3358.67
418.26	3413.96
418.47	3416.01
418.68	3528.65
418.89	3461.07
419.10	3551.18
419.31	3596.23
419.52	3596.23
419.73	3381.20
419.95	3741.64
420.16	3504.07
420.37	3590.09
420.58	3553.23
420.79	3551.18
421.00	3647.43
421.21	3600.33
421.42	3592.14
421.63	3737.54
421.85	3624.90
422.06	3692.49
422.27	3725.26
422.48	3655.62
422.69	3706.82
422.90	3796.93
423.11	3841.99
423.32	3606.47
423.53	3768.26
423.75	3776.45
423.96	3911.62
424.17	3813.32
424.38	3968.96
424.59	3952.58
424.80	3934.15
425.01	3872.71
425.22	3958.72
425.43	3876.80
425.64	4057.03
425.85	4120.51
426.06	4028.35
426.28	4046.79
426.49	3999.68
426.70	3964.87
426.91	4095.94
427.12	4227.01
427.33	4118.47
427.54	4054.98
427.75	4011.97
427.96	4235.20
428.17	4153.28
428.38	4278.21
428.59	4327.36
428.80	4173.76
429.01	4200.38
429.23	4196.29
429.44	4511.68
429.65	4325.31
429.86	4339.65
430.07	4278.21
430.28	4343.74
430.49	4331.45
430.70	4644.79
430.91	4388.80
431.12	4495.29
431.33	4540.35
431.54	4487.10
431.75	4446.14
431.96	4554.68
432.17	4474.81
432.38	4523.96
432.59	4599.74
432.80	4523.96
433.01	4628.41
433.22	4753.34
433.43	4630.46
433.64	4642.75
433.85	4638.65
434.06	4665.27
434.27	4655.03
434.49	4855.73
434.70	4827.06
434.91	4894.65
435.12	4794.29
435.33	4784.06
435.54	4724.66
435.75	4612.03
435.96	4900.79
436.17	4802.49
436.38	4968.37
436.59	4827.06
436.80	4966.32
437.01	5083.06
437.22	5148.59
437.43	5064.63
437.64	4968.37
437.85	5070.77
438.06	4929.46
438.27	5054.39
438.48	5029.81
438.69	5203.89
438.90	5189.55
439.11	5091.25
439.32	5150.64
439.53	5228.46
439.74	5277.62
439.95	5341.10
440.16	5255.09
440.37	5105.59
440.57	5089.20
440.78	5277.62
440.99	5261.23
441.20	5357.49
441.41	5291.95
441.62	5218.22
441.83	5238.70
442.04	5451.69
442.25	5511.08
442.46	5418.93
442.67	5556.14
442.88	5742.50
443.09	5267.38
443.30	5515.18
443.51	5406.64
443.72	5787.56
443.93	5541.80
444.14	5865.38
444.35	5445.55
444.56	5674.92
444.77	5713.83
444.98	5586.86
445.19	5668.78
445.40	5773.22
445.61	5715.88
445.81	5930.92
446.02	5814.18
446.23	5699.50
446.44	5726.12
446.65	5877.67
446.86	5717.93
447.07	5838.76
447.28	5994.40
447.49	5990.31
447.70	5935.01
447.91	5984.16
448.12	5812.14
448.33	5932.97
448.54	6133.67
448.74	6035.36
448.95	6021.03
449.16	5883.81
449.37	6371.23
449.58	6098.85
449.79	6344.61
450.00	6027.17
450.21	6203.30
450.42	6289.31
450.63	6412.19
450.84	6156.19
451.05	6457.25
451.25	6326.18
451.46	6283.17
451.67	6420.38
451.88	6586.27
452.09	6518.68
452.30	6537.12
452.51	6399.90
452.72	6670.23
452.93	6709.15
453.13	6371.23
453.34	6483.87
453.55	6653.85
453.76	6621.08
453.97	6889.37
454.18	6651.80
454.39	6746.01
454.60	6885.27
454.81	6698.91
455.01	6852.50
455.22	6666.14
455.43	6797.21
455.64	6903.70
455.85	6954.90
456.06	7057.30
456.27	6891.41
456.48	6922.13
456.68	7083.92
456.89	7063.44
457.10	7094.16
457.31	7202.71
457.52	7229.33
457.73	7208.85
457.94	7325.58
458.14	7135.12
458.35	7532.43
458.56	7270.29
458.77	7301.01
458.98	7528.33
459.19	7413.65
459.39	7587.72
459.60	7587.72
459.81	7569.29
460.02	7694.22
460.23	7645.07
460.44	7757.71
460.65	7813.00
460.85	7872.39
461.06	7876.49
461.27	7546.76
461.48	8021.89
461.69	8044.42
461.89	7858.06
462.10	8056.71
462.31	7833.48
462.52	7929.74
462.73	8132.48
462.94	8202.11
463.14	8279.94
463.35	8101.76
463.56	8560.51
463.77	8357.76
463.98	8306.56
464.18	8372.10
464.39	8456.06
464.60	8515.45
464.81	8593.28
465.02	8535.93
465.23	8816.51
465.43	8583.04
465.64	8959.86
465.85	8746.87
466.06	8593.28
466.27	9076.60
466.47	9035.64
466.68	8916.86
466.89	8845.18
467.10	9107.32
467.30	9097.08
467.51	9123.70
467.72	9193.33
467.93	9019.25
468.14	9260.91
468.34	9387.89
468.55	9447.28
468.76	9242.48
468.97	9201.52
469.17	9578.35
469.38	9529.20
469.59	9701.23
469.80	9654.12
470.01	9764.72
470.21	9697.13
470.42	9791.34
470.63	9928.55
470.84	9903.98
471.04	9899.88
471.25	9865.07
471.46	10078.05
471.67	10254.18
471.87	10205.03
472.08	10377.06
472.29	10393.44
472.50	10200.93
472.70	10405.73
472.91	10313.57
473.12	10729.31
473.33	10710.88
473.53	10831.71
473.74	10848.09
473.95	11003.74
474.16	11036.50
474.36	11259.73
474.57	11220.82
474.78	11362.13
474.99	11173.72
475.19	11304.79
475.40	11579.22
475.61	11333.46
475.81	11716.43
476.02	11745.10
476.23	11790.16
476.44	12023.62
476.64	12066.63
476.85	12308.29
477.06	12031.82
477.27	12255.04
477.47	12418.88
477.68	12136.26
477.89	12543.81
478.09	12490.56
478.30	12595.01
478.51	12500.80
478.71	12730.17
478.92	12678.97
479.13	12746.56
479.34	13051.70
479.54	13037.37
479.75	13045.56
479.96	12896.06
480.16	12959.55
480.37	13229.88
480.58	13397.81
480.78	13500.21
480.99	13557.55
481.20	13641.52
481.41	13688.62
481.61	13754.16
481.82	13782.83
482.03	13772.59
482.23	13733.68
482.44	14380.84
482.65	14290.73
482.85	14315.30
483.06	14122.79
483.27	14444.32
483.47	14552.87
483.68	14454.56
483.89	14593.83
484.09	14632.74
484.30	14825.25
484.51	14907.16
484.71	14954.27
484.92	14880.54
485.13	14923.55
485.33	15220.50
485.54	15300.37
485.75	15519.51
485.95	15292.18
486.16	15529.75
486.37	15585.04
486.57	15658.77
486.78	15654.67
486.98	15763.22
487.19	16066.31
487.40	15994.64
487.60	16031.50
487.81	16369.41
488.02	16127.75
488.22	16115.47
488.43	16377.61
488.64	16461.57
488.84	16303.88
489.05	16484.10
489.25	16690.95
489.46	16961.28
489.67	16951.04
489.87	16971.52
490.08	17032.96
490.29	16832.26
490.49	17252.09
490.70	16908.03
490.90	17307.38
491.11	17397.49
491.32	17481.46
491.52	17383.16
491.73	17565.43
491.94	17780.46
492.14	17843.95
492.35	17819.38
492.55	18271.98
492.76	17719.03
492.97	18052.84
493.17	18136.81
493.38	18140.91
493.58	18628.32
493.79	18384.62
494.00	18355.94
494.20	18394.86
494.41	18597.60
494.61	18591.46
494.82	18732.77
495.02	18568.93
495.23	18689.76
495.44	18822.88
495.64	18886.37
495.85	19058.40
496.05	18986.72
496.26	18972.38
496.47	19265.24
496.67	19359.45
496.88	19480.28
497.08	19404.50
497.29	19660.50
497.49	19431.13
497.70	19810.00
497.91	19875.54
498.11	19754.71
498.32	20008.65
498.52	19926.74
498.73	20057.81
498.93	20182.73
499.14	20072.14
499.34	20401.86
499.55	20412.10
499.76	20221.64
499.96	20328.14
500.17	20444.87
500.37	20516.55
500.58	20575.94
500.78	20647.62
500.99	20485.83
501.19	20903.62
501.40	20850.37
501.60	20795.07
501.81	21030.59
502.02	21163.71
502.22	21128.89
502.43	21159.61
502.63	21212.86
502.84	21055.17
503.04	21049.02
503.25	21286.59
503.45	21067.45
503.66	21221.05
503.86	21309.11
504.07	21755.57
504.27	21071.55
504.48	21673.65
504.68	21894.83
504.89	21581.49
505.09	21685.94
505.30	21982.90
505.50	21882.55
505.71	22001.33
505.91	21941.94
506.12	22261.42
506.32	21941.94
506.53	22263.47
506.73	22232.75
506.94	22361.77
507.14	22242.99
507.35	22503.08
507.55	22660.77
507.76	22595.24
507.96	22525.61
508.17	22478.50
508.37	22515.37
508.58	22474.41
508.78	22541.99
508.99	22816.42
509.19	22632.10
509.40	22890.15
509.60	22867.62
509.81	22879.91
510.01	22687.40
510.22	23004.83
510.42	23312.03
510.63	23127.71
510.83	23099.04
511.04	23357.08
511.24	23436.95
511.44	23275.16
511.65	23428.76
511.85	23049.89
512.06	23428.76
512.26	23545.50
512.47	23418.52
512.67	23387.80
512.88	23678.61
513.08	23568.02
513.29	23836.31
513.49	23606.94
513.69	23760.53
513.90	23928.47
514.10	23965.33
514.31	23713.43
514.51	24065.68
514.72	23766.68
514.92	24057.49
515.13	24022.67
515.33	23895.70
515.53	23953.04
515.74	24223.37
515.94	24313.48
516.15	24258.19
516.35	23905.94
516.56	24600.20
516.76	24153.74
516.96	24268.43
517.17	24508.04
517.37	24508.04
517.58	24477.32
517.78	24626.82
517.99	24751.75
518.19	24872.58
518.39	24610.44
518.60	24733.32
518.80	24923.78
519.01	25089.67
519.21	24977.03
519.41	25075.33
519.62	25110.14
519.82	25216.64
520.03	25525.88
520.23	25204.35
520.43	25040.51
520.64	25605.75
520.84	25519.74
521.05	25308.80
521.25	25632.38
521.45	25429.63
521.66	25714.30
521.86	25597.56
522.07	25474.68
522.27	25734.78
522.47	26011.25
522.68	26127.99
522.88	25673.34
523.08	25947.76
523.29	25900.66
523.49	25904.76
523.70	26154.61
523.90	26330.73
524.10	26363.50
524.31	26676.84
524.51	26224.24
524.71	26668.65
524.92	26535.53
525.12	26789.48
525.33	26535.53
525.53	26869.35
525.73	26752.62
525.94	26795.62
526.14	26818.15
526.34	27092.58
526.55	27061.86
526.75	27098.72
526.95	26908.26
527.16	27012.71
527.36	27068.00
527.56	27330.14
527.77	27500.12
527.97	27557.47
528.17	27356.77
528.38	27659.87
528.58	27735.64
528.78	27571.80
528.99	27516.51
529.19	27899.48
529.39	27557.47
529.60	28057.17
529.80	27938.39
530.00	27973.21
530.21	28268.11
530.41	28419.66
530.61	28223.06
530.82	28358.22
531.02	28354.13
531.22	28620.36
531.43	28520.01
531.63	28569.16
531.83	29240.90
532.04	29101.64
532.24	29081.16
532.44	29191.75
532.64	28991.05
532.85	29449.79
533.05	29261.38
533.25	29556.28
533.46	29349.44
533.66	29662.78
533.86	29140.55
534.07	29949.50
534.27	29414.98
534.47	29849.14
534.67	29959.73
534.88	29765.18
535.08	30015.03
535.28	30158.39
535.49	30025.27
535.69	30387.76
535.89	30172.72
536.09	30379.57
536.30	30479.92
536.50	30813.74
536.70	30629.42
536.91	30363.18
537.11	30549.55
537.31	30561.84
537.51	30828.07
537.72	31010.34
537.92	30873.13
538.12	31450.66
538.32	31153.70
538.53	31235.62
538.73	31129.12
538.93	31051.30
539.13	31295.01
539.34	31055.40
539.54	31274.53
539.74	31393.31
539.94	31448.61
540.15	31295.01
540.35	32110.10
540.55	31606.30
540.75	31667.74
540.96	31942.17
541.16	31829.53
541.36	31852.06
541.56	31602.21
541.77	32122.39
541.97	32067.09
542.17	31929.88
542.37	32517.65
542.58	32288.28
542.78	32146.97
542.98	31899.16
543.18	32407.06
543.38	32411.15
543.59	32720.40
543.79	32433.68
543.99	32296.47
544.19	32423.44
544.40	32570.90
544.60	32798.22
544.80	32718.35
545.00	32673.29
545.20	32761.36
545.41	33027.59
545.61	33197.57
545.81	32849.42
546.01	33076.74
546.21	33295.88
546.42	32732.68
546.62	33310.21
546.82	33216.01
547.02	32998.92
547.22	33136.13
547.43	33285.64
547.63	33476.10
547.83	33164.81
548.03	32830.99
548.23	33660.41
548.44	33512.96
548.64	33773.05
548.84	33164.81
549.04	33682.94
549.24	34067.96
549.45	33916.41
549.65	33592.83
549.85	33756.67
550.05	34043.38
550.25	33983.99
550.45	34293.24
550.66	33951.23
550.86	33940.99
551.06	34438.64
551.26	33691.13
551.46	34211.32
551.66	33912.31
551.87	34014.71
552.07	34135.54
552.27	34176.50
552.47	34444.79
552.67	34461.17
552.87	33949.18
553.07	34418.16
553.28	34491.89
553.48	34532.85
553.68	34364.92
553.88	34614.77
554.08	34227.70
554.28	34649.58
554.48	34473.46
554.69	34495.99
554.89	34665.97
555.09	34500.08
555.29	34467.31
555.49	34682.35
555.69	34768.37
555.89	34985.45
556.10	35110.38
556.30	34557.42
556.50	35120.62
556.70	34751.98
556.90	34649.58
557.10	35016.17
557.30	34674.16
557.50	35382.76
557.70	35141.10
557.91	35419.62
558.11	34969.07
558.31	35141.10
558.51	35165.67
558.71	34901.48
558.91	35370.47
559.11	34907.63
559.31	35134.95
559.51	34893.29
559.72	35100.14
559.92	35347.94
560.12	35130.86
560.32	35483.11
560.52	35163.62
560.72	35431.91
560.92	35440.10
561.12	35345.89
561.32	35622.37
561.52	35167.72
561.72	35741.15
561.93	35431.91
562.13	35495.39
562.33	35522.02
562.53	36023.77
562.73	34917.87
562.93	35620.32
563.13	35562.98
563.33	35454.44
563.53	35452.39
563.73	35030.51
563.93	35257.83
564.13	35780.06
564.33	35323.36
564.53	35732.96
564.74	36357.59
564.94	35366.37
565.14	35884.51
565.34	35528.16
565.54	36339.16
565.74	36034.01
565.94	36283.86
566.14	35696.10
566.34	35970.52
566.54	36163.03
566.74	35624.42
566.94	35956.19
567.14	36314.58
567.34	35769.82
567.54	36058.59
567.74	36185.56
567.94	36083.16
568.14	36306.39
568.34	36220.38
568.54	36089.31
568.74	36394.45
568.94	36144.60
569.14	36345.30
569.34	36503.00
569.54	36314.58
569.75	36031.96
569.95	36214.23
570.15	36439.51
570.35	36586.96
570.55	36347.35
570.75	36247.00
570.95	36443.60
571.15	36351.45
571.35	36324.82
571.55	36754.90
571.75	36543.95
571.95	36251.09
572.15	36179.42
572.35	36736.46
572.55	36791.76
572.75	36648.40
572.95	36836.81
573.15	36574.67
573.35	36396.50
573.55	36578.77
573.75	36824.53
573.95	36734.42
574.15	36836.81
574.35	37174.73
574.55	36951.50
574.75	36830.67
574.95	37178.82
575.15	36597.20
575.34	37057.99
575.54	36869.58
575.74	37262.79
575.94	37025.23
576.14	36834.77
576.34	37516.74
576.54	37254.60
576.74	37336.52
576.94	36724.18
577.14	37209.54
577.34	37334.47
577.54	36926.92
577.74	37236.17
577.94	37514.69
578.14	37500.36
578.34	37594.56
578.54	37164.49
578.74	37266.89
578.94	37791.17
579.14	37397.96
579.34	37002.70
579.54	37778.88
579.74	37713.34
579.94	37350.85
580.13	37680.58
580.33	37594.56
580.53	37467.59
580.73	37842.37
580.93	37678.53
581.13	37805.50
581.33	37557.70
581.53	37819.84
581.73	37819.84
581.93	38112.70
582.13	37950.91
582.33	37971.39
582.53	38159.80
582.73	38284.73
582.92	38034.88
583.12	38264.25
583.32	38176.19
583.52	37897.66
583.72	38499.76
583.92	38059.45
584.12	38223.29
584.32	38624.69
584.52	38211.00
584.72	38516.15
584.92	38735.28
585.11	38868.40
585.31	38161.85
585.51	38933.93
585.71	38315.45
585.91	38755.76
586.11	38260.15
586.31	38684.08
586.51	38391.22
586.71	38522.29
586.91	38966.70
587.10	38651.31
587.30	38872.49
587.50	38757.81
587.70	38452.66
587.90	38974.89
588.10	38755.76
588.30	38639.03
588.50	39065.00
588.69	38852.02
588.89	38661.55
