SpectraSuite Data File
++++++++++++++++++++++++++++++++++++
Date: Tue Jun 13 12:02:25 CEST 2017
User: INFO_000
Dark Spectrum Present: No
Reference Spectrum Present: No
Number of Sampled Component Spectra: 1
Spectrometers: USB4H00879
Integration Time (usec): 30000 (USB4H00879)
Spectra Averaged: 1 (USB4H00879)
Boxcar Smoothing: 0 (USB4H00879)
Correct for Electrical Dark: No (USB4H00879)
Strobe/Lamp Enabled: No (USB4H00879)
Correct for Detector Non-linearity: No (USB4H00879)
Correct for Stray Light: No (USB4H00879)
Number of Pixels in Processed Spectrum: 3648
>>>>>Begin Processed Spectral Data<<<<<
345.13	1337.32
345.34	1337.32
345.56	1337.32
345.78	1329.13
345.99	1398.76
346.21	1523.69
346.42	1523.69
346.64	1495.02
346.86	1574.89
347.07	1538.02
347.29	1523.69
347.50	1499.11
347.72	1566.70
347.94	1544.17
348.15	1527.78
348.37	1560.55
348.59	1568.74
348.80	1439.72
349.02	1548.26
349.23	1662.95
349.45	1556.46
349.67	1562.60
349.88	1601.51
350.10	1597.42
350.31	1617.90
350.53	1591.27
350.75	1587.18
350.96	1624.04
351.18	1634.28
351.39	1638.38
351.61	1603.56
351.82	1667.05
352.04	1673.19
352.26	1587.18
352.47	1716.20
352.69	1693.67
352.90	1605.61
353.12	1587.18
353.34	1599.46
353.55	1628.14
353.77	1636.33
353.98	1656.81
354.20	1667.05
354.41	1689.57
354.63	1667.05
354.85	1708.01
355.06	1677.29
355.28	1558.50
355.49	1675.24
355.71	1628.14
355.92	1685.48
356.14	1679.33
356.35	1644.52
356.57	1660.90
356.79	1642.47
357.00	1613.80
357.22	1624.04
357.43	1535.98
357.65	1632.23
357.86	1654.76
358.08	1658.85
358.29	1716.20
358.51	1708.01
358.72	1589.22
358.94	1689.57
359.16	1628.14
359.37	1593.32
359.59	1671.14
359.80	1626.09
360.02	1722.34
360.23	1656.81
360.45	1699.81
360.66	1611.75
360.88	1619.94
361.09	1624.04
361.31	1710.05
361.52	1677.29
361.74	1603.56
361.95	1738.73
362.17	1587.18
362.38	1740.77
362.60	1740.77
362.81	1742.82
363.03	1675.24
363.24	1656.81
363.46	1648.61
363.67	1759.21
363.89	1675.24
364.10	1716.20
364.32	1701.86
364.53	1667.05
364.75	1630.18
364.96	1665.00
365.18	1718.25
365.39	1658.85
365.61	1673.19
365.82	1716.20
366.04	1705.96
366.25	1650.66
366.47	1681.38
366.68	1650.66
366.90	1601.51
367.11	1697.77
367.33	1654.76
367.54	1724.39
367.76	1695.72
367.97	1705.96
368.19	1708.01
368.40	1775.59
368.62	1624.04
368.83	1603.56
369.05	1738.73
369.26	1660.90
369.48	1695.72
369.69	1689.57
369.91	1773.54
370.12	1712.10
370.33	1726.44
370.55	1687.53
370.76	1724.39
370.98	1789.92
371.19	1740.77
371.41	1732.58
371.62	1724.39
371.84	1701.86
372.05	1755.11
372.27	1691.62
372.48	1732.58
372.69	1753.06
372.91	1796.07
373.12	1761.25
373.34	1726.44
373.55	1837.03
373.77	1859.56
373.98	1816.55
374.20	1785.83
374.41	1851.36
374.62	1722.34
374.84	1771.49
375.05	1812.45
375.27	1834.98
375.48	1826.79
375.70	1834.98
375.91	1839.08
376.12	1851.36
376.34	1800.16
376.55	1826.79
376.77	1927.14
376.98	1810.40
377.19	1738.73
377.41	1753.06
377.62	1789.92
377.84	1871.84
378.05	1845.22
378.27	1839.08
378.48	1839.08
378.69	1859.56
378.91	1880.04
379.12	1841.12
379.34	1935.33
379.55	1933.28
379.76	1898.47
379.98	1800.16
380.19	1959.91
380.41	1847.27
380.62	1875.94
380.83	1884.13
381.05	1839.08
381.26	1957.86
381.47	1910.75
381.69	1884.13
381.90	1925.09
382.12	1882.08
382.33	1869.80
382.54	1822.69
382.76	1902.56
382.97	1908.71
383.19	1900.52
383.40	1894.37
383.61	1890.28
383.83	1875.94
384.04	1941.47
384.25	2045.92
384.47	1937.38
384.68	1976.29
384.89	1972.19
385.11	1912.80
385.32	1900.52
385.54	1986.53
385.75	1904.61
385.96	2019.30
386.18	2060.26
386.39	1974.24
386.60	1974.24
386.82	1964.00
387.03	1937.38
387.24	1961.95
387.46	2039.78
387.67	2029.54
387.88	2043.87
388.10	2041.82
388.31	2013.15
388.52	2060.26
388.74	2097.12
388.95	2099.17
389.16	2013.15
389.38	2072.54
389.59	2095.07
389.80	2117.60
390.02	2027.49
390.23	2170.85
390.44	2136.03
390.66	2156.51
390.87	2117.60
391.08	2179.04
391.30	2154.46
391.51	2133.98
391.72	2062.30
391.94	2140.13
392.15	2146.27
392.36	2125.79
392.58	2093.02
392.79	2131.94
393.00	2211.81
393.22	2207.71
393.43	2181.09
393.64	2308.06
393.85	2164.70
394.07	2164.70
394.28	2273.25
394.49	2209.76
394.71	2252.77
394.92	2328.54
395.13	2197.47
395.35	2203.61
395.56	2224.09
395.77	2353.12
395.98	2301.92
396.20	2346.97
396.41	2357.21
396.62	2357.21
396.84	2211.81
397.05	2301.92
397.26	2418.65
397.47	2437.08
397.69	2330.59
397.90	2428.89
398.11	2369.50
398.32	2361.31
398.54	2357.21
398.75	2285.53
398.96	2459.61
399.18	2420.70
399.39	2379.74
399.60	2508.76
399.81	2404.32
400.03	2400.22
400.24	2482.14
400.45	2398.17
400.66	2449.37
400.88	2469.85
401.09	2566.10
401.30	2467.80
401.51	2541.53
401.73	2549.72
401.94	2443.23
402.15	2525.15
402.36	2545.63
402.58	2519.00
402.79	2494.43
403.00	2566.10
403.21	2641.88
403.43	2588.63
403.64	2541.53
403.85	2510.81
404.06	2643.93
404.27	2478.04
404.49	2674.65
404.70	2545.63
404.91	2648.02
405.12	2717.65
405.34	2549.72
405.55	2705.37
405.76	2627.54
405.97	2678.74
406.19	2637.78
406.40	2854.87
406.61	2740.18
406.82	2744.28
407.03	2707.41
407.25	2713.56
407.46	2725.85
407.67	2779.09
407.88	2787.29
408.09	2779.09
408.31	2807.77
408.52	2789.33
408.73	2758.61
408.94	2721.75
409.15	2801.62
409.37	2791.38
409.58	2863.06
409.79	2899.92
410.00	2844.63
410.21	2893.78
410.43	2881.49
410.64	2863.06
410.85	2910.16
411.06	2908.12
411.27	2906.07
411.48	2883.54
411.70	2951.12
411.91	2934.74
412.12	3006.42
412.33	2770.90
412.54	2877.40
412.76	2992.08
412.97	3082.19
413.18	3074.00
413.39	3065.81
413.60	2951.12
413.81	3047.38
414.03	3016.66
414.24	2971.60
414.45	3080.14
414.66	2992.08
414.87	3114.96
415.08	3006.42
415.30	3074.00
415.51	3098.58
415.72	3090.38
415.93	3088.34
416.14	3112.91
416.35	3157.97
416.56	3137.49
416.78	3184.59
416.99	3250.13
417.20	3014.61
417.41	3196.88
417.62	3164.11
417.83	3221.45
418.04	3209.17
418.26	3215.31
418.47	3250.13
418.68	3336.14
418.89	3352.52
419.10	3407.82
419.31	3241.93
419.52	3377.10
419.73	3313.61
419.95	3276.75
420.16	3198.93
420.37	3350.48
420.58	3366.86
420.79	3196.88
421.00	3348.43
421.21	3377.10
421.42	3334.09
421.63	3440.59
421.85	3407.82
422.06	3565.51
422.27	3469.26
422.48	3528.65
422.69	3532.75
422.90	3520.46
423.11	3463.12
423.32	3444.68
423.53	3596.23
423.75	3538.89
423.96	3692.49
424.17	3524.55
424.38	3688.39
424.59	3706.82
424.80	3626.95
425.01	3583.95
425.22	3696.58
425.43	3692.49
425.64	3786.69
425.85	3731.40
426.06	3778.50
426.28	3682.25
426.49	3749.83
426.70	3635.14
426.91	3942.34
427.12	3780.55
427.33	3925.96
427.54	3708.87
427.75	3801.03
427.96	3956.68
428.17	3848.13
428.38	3971.01
428.59	3807.17
428.80	3956.68
429.01	3973.06
429.23	4022.21
429.44	4143.04
429.65	4089.79
429.86	4067.27
430.07	4085.70
430.28	3958.72
430.49	4011.97
430.70	4206.53
430.91	4116.42
431.12	4097.99
431.33	4196.29
431.54	4286.40
431.75	4220.86
431.96	4310.97
432.17	4304.83
432.38	4237.25
432.59	4528.06
432.80	4351.93
433.01	4407.23
433.22	4419.52
433.43	4249.54
433.64	4464.57
433.85	4374.46
434.06	4407.23
434.27	4394.94
434.49	4474.81
434.70	4503.48
434.91	4556.73
435.12	4542.39
435.33	4534.20
435.54	4495.29
435.75	4507.58
435.96	4548.54
436.17	4437.95
436.38	4675.51
436.59	4691.90
436.80	4566.97
437.01	4859.83
437.22	4806.58
437.43	4634.55
437.64	4609.98
437.85	4888.50
438.06	4769.72
438.27	4671.42
438.48	4661.18
438.69	4898.74
438.90	4761.53
439.11	4677.56
439.32	4974.52
439.53	4818.87
439.74	4911.03
439.95	4943.80
440.16	4886.45
440.37	4966.32
440.57	4982.71
440.78	4992.95
440.99	4861.88
441.20	4966.32
441.41	4962.23
441.62	4900.79
441.83	5005.24
442.04	5023.67
442.25	5044.15
442.46	5033.91
442.67	5169.07
442.88	5410.73
443.09	5183.41
443.30	5160.88
443.51	5216.18
443.72	5443.50
443.93	5070.77
444.14	5365.68
444.35	5193.65
444.56	5306.29
444.77	5330.86
444.98	5357.49
445.19	5351.34
445.40	5347.25
445.61	5328.81
445.81	5488.56
446.02	5332.91
446.23	5451.69
446.44	5216.18
446.65	5380.01
446.86	5273.52
447.07	5470.12
447.28	5525.42
447.49	5537.71
447.70	5523.37
447.91	5580.71
448.12	5593.00
448.33	5670.83
448.54	5685.16
448.74	5519.28
448.95	5666.73
449.16	5541.80
449.37	5896.10
449.58	5693.35
449.79	5892.01
450.00	5707.69
450.21	5842.85
450.42	5904.29
450.63	6084.52
450.84	6002.60
451.05	5863.33
451.25	5877.67
451.46	5767.08
451.67	5959.59
451.88	6049.70
452.09	5945.25
452.30	5975.97
452.51	6064.04
452.72	6078.37
452.93	6244.26
453.13	6018.98
453.34	6176.67
453.55	6057.89
453.76	6191.01
453.97	6420.38
454.18	6324.13
454.39	6375.33
454.60	6340.51
454.81	6203.30
455.01	6485.92
455.22	6270.88
455.43	6358.94
455.64	6555.55
455.85	6535.07
456.06	6676.38
456.27	6606.75
456.48	6485.92
456.68	6565.79
456.89	6684.57
457.10	6756.25
457.31	6827.93
457.52	6737.82
457.73	6870.94
457.94	6866.84
458.14	6602.65
458.35	7006.10
458.56	6834.07
458.77	6897.56
458.98	7022.48
459.19	7045.01
459.39	7004.05
459.60	7137.17
459.81	7038.87
460.02	7063.44
460.23	7137.17
460.44	7399.31
460.65	7298.96
460.85	7315.34
461.06	7346.06
461.27	7092.12
461.48	7464.85
461.69	7544.72
461.89	7214.99
462.10	7536.52
462.31	7497.61
462.52	7411.60
462.73	7563.15
462.94	7585.68
463.14	7657.36
463.35	7626.64
463.56	7935.88
463.77	7915.40
463.98	7825.29
464.18	7858.06
464.39	8077.19
464.60	7982.98
464.81	8036.23
465.02	8044.42
465.23	8193.92
465.43	7974.79
465.64	8406.91
465.85	8206.21
466.06	8275.84
466.27	8476.54
466.47	8351.62
466.68	8513.41
466.89	8427.39
467.10	8722.30
467.30	8384.38
467.51	8740.73
467.72	8634.24
467.93	8728.44
468.14	8712.06
468.34	8859.51
468.55	8904.57
468.76	8980.34
468.97	8836.99
469.17	8955.77
469.38	9142.13
469.59	9211.76
469.80	9152.37
470.01	9256.82
470.21	9090.93
470.42	9357.17
470.63	9441.14
470.84	9162.61
471.04	9512.81
471.25	9451.38
471.46	9525.10
471.67	9693.04
471.87	9635.69
472.08	9787.24
472.29	9885.55
472.50	9625.45
472.70	9940.84
472.91	9942.89
473.12	10094.44
473.33	10239.84
473.53	10213.22
473.74	10188.64
473.95	10270.56
474.16	10526.56
474.36	10327.91
474.57	10471.26
474.78	10776.41
474.99	10604.38
475.19	10440.54
475.40	10876.76
475.61	10717.02
475.81	11005.78
476.02	11229.01
476.23	10915.67
476.44	11071.32
476.64	11364.18
476.85	11636.56
477.06	11517.78
477.27	11470.67
477.47	11640.65
477.68	11710.29
477.89	11792.20
478.09	11716.43
478.30	11712.33
478.51	11671.37
478.71	11929.42
478.92	12164.93
479.13	11951.95
479.34	12164.93
479.54	12390.21
479.75	12474.18
479.96	12367.68
480.16	12416.83
480.37	12422.98
480.58	12670.78
480.78	12861.24
480.99	12595.01
481.20	12869.44
481.41	12875.58
481.61	12767.04
481.82	13262.65
482.03	13039.42
482.23	13121.34
482.44	13387.57
482.65	13422.39
482.85	13377.33
483.06	13504.31
483.27	13586.22
483.47	13891.37
483.68	13967.15
483.89	13965.10
484.09	13952.81
484.30	14018.35
484.51	14010.15
484.71	14393.12
484.92	14204.71
485.13	14141.22
485.33	14421.80
485.54	14479.14
485.75	14651.17
485.95	14878.49
486.16	14722.85
486.37	14769.95
486.57	14788.38
486.78	14788.38
486.98	15015.71
487.19	15245.08
487.40	15038.23
487.60	15193.88
487.81	15273.75
488.02	15288.09
488.22	15339.29
488.43	15349.53
488.64	15415.06
488.84	15806.22
489.05	15662.86
489.25	15638.29
489.46	15998.73
489.67	15902.48
489.87	15959.82
490.08	16105.23
490.29	16092.94
490.49	16307.98
490.70	16482.05
490.90	16330.50
491.11	16410.37
491.32	16615.17
491.52	16920.32
491.73	16809.73
491.94	16852.73
492.14	16686.85
492.35	17020.67
492.55	17213.18
492.76	17225.47
492.97	17110.78
493.17	17247.99
493.38	17360.63
493.58	17352.44
493.79	17772.27
494.00	17141.50
494.20	17702.64
494.41	17641.20
494.61	17794.80
494.82	17731.31
495.02	17782.51
495.23	17792.75
495.44	18083.56
495.64	18282.22
495.85	18251.50
496.05	18300.65
496.26	18534.12
496.47	18648.80
496.67	18497.25
496.88	18374.38
497.08	18335.46
497.29	18671.33
497.49	18669.28
497.70	19039.97
497.91	19001.05
498.11	19031.77
498.32	19072.73
498.52	19218.14
498.73	19134.17
498.93	19263.19
499.14	19244.76
499.34	19427.03
499.55	19564.25
499.76	19482.33
499.96	19844.82
500.17	19412.70
500.37	19529.43
500.58	19795.67
500.78	19760.85
500.99	19791.57
501.19	20094.67
501.40	20086.48
501.60	19885.78
501.81	20010.70
502.02	20129.48
502.22	19971.79
502.43	20227.79
502.63	20403.91
502.84	20696.77
503.04	20371.15
503.25	20672.20
503.45	20491.98
503.66	20537.03
503.86	20674.24
504.07	20723.40
504.27	20829.89
504.48	20983.49
504.68	20764.36
504.89	20664.00
505.09	21069.50
505.30	20928.19
505.50	21110.46
505.71	21206.72
505.91	21176.00
506.12	21176.00
506.32	21231.29
506.53	21444.28
506.73	21356.22
506.94	21640.89
507.14	21460.66
507.35	21632.69
507.55	21542.58
507.76	21692.08
507.96	21640.89
508.17	21655.22
508.37	21733.04
508.58	21931.70
508.78	21831.35
508.99	22154.93
509.19	22085.30
509.40	22091.44
509.60	22165.17
509.81	22179.50
510.01	22349.48
510.22	22294.19
510.42	22316.72
510.63	22382.25
510.83	22341.29
511.04	22458.03
511.24	22722.21
511.44	22836.90
511.65	22849.19
511.85	22738.60
512.06	22523.56
512.26	22761.12
512.47	22820.52
512.67	22654.63
512.88	22754.98
513.08	22705.83
513.29	23189.15
513.49	23072.42
513.69	23131.81
513.90	22961.83
514.10	23080.61
514.31	23176.86
514.51	23375.52
514.72	23266.97
514.92	22943.39
515.13	23295.64
515.33	23408.28
515.53	23545.50
515.74	23635.61
515.94	23852.69
516.15	23584.41
516.35	23408.28
516.56	24129.17
516.76	23692.95
516.96	23623.32
517.17	23785.11
517.37	23764.63
517.58	24010.39
517.78	24305.29
517.99	23987.86
518.19	23920.28
518.39	24409.74
518.60	24276.62
518.80	24153.74
519.01	24567.43
519.21	24448.65
519.41	24475.27
519.62	24514.19
519.82	24829.57
520.03	24784.52
520.23	24798.85
520.43	24745.61
520.64	24997.51
520.84	24931.97
521.05	24874.63
521.25	25067.14
521.45	24925.83
521.66	25265.79
521.86	25017.99
522.07	25276.03
522.27	24897.16
522.47	25304.70
522.68	25581.18
522.88	25273.98
523.08	25427.58
523.29	25947.76
523.49	25609.85
523.70	25734.78
523.90	25656.95
524.10	25822.84
524.31	25980.53
524.51	25769.59
524.71	26349.17
524.92	26027.63
525.12	26300.01
525.33	26140.27
525.53	26392.17
525.73	26386.03
525.94	26476.14
526.14	26812.01
526.34	26629.74
526.55	26793.58
526.75	26625.64
526.95	26818.15
527.16	26752.62
527.36	26728.04
527.56	27133.54
527.77	27147.87
527.97	27027.04
528.17	27340.38
528.38	27381.34
528.58	27536.99
528.78	27524.70
528.99	27367.01
529.19	27526.75
529.39	27381.34
529.60	27704.92
529.80	27782.74
530.00	27729.50
530.21	27815.51
530.41	28038.74
530.61	27864.66
530.82	28012.12
531.02	28200.53
531.22	28464.72
531.43	28143.19
531.63	28264.02
531.83	28522.06
532.04	29111.88
532.24	28583.50
532.44	28667.47
532.64	28735.05
532.85	29216.32
533.05	29075.01
533.25	28952.13
533.46	29009.48
533.66	29460.03
533.86	29208.13
534.07	29636.16
534.27	29249.09
534.47	29662.78
534.67	29664.83
534.88	29324.86
535.08	29580.86
535.28	29929.02
535.49	29867.58
535.69	30211.64
535.89	30109.24
536.09	29955.64
536.30	30498.35
536.50	30113.33
536.70	30592.56
536.91	30441.01
537.11	30316.08
537.31	30336.56
537.51	30588.46
537.72	30801.45
537.92	30907.94
538.12	30969.38
538.32	31102.50
538.53	31227.43
538.73	31186.47
538.93	31039.01
539.13	31295.01
539.34	31512.10
539.54	30985.77
539.74	31315.49
539.94	31256.10
540.15	31409.70
540.35	31712.80
540.55	31362.59
540.75	31587.87
540.96	31569.44
541.16	31665.69
541.36	31671.84
541.56	31796.76
541.77	32122.39
541.97	31987.22
542.17	32085.53
542.37	31944.22
542.58	32056.85
542.78	31995.42
542.98	32126.49
543.18	32476.69
543.38	32519.70
543.59	32417.30
543.79	32597.52
543.99	32495.12
544.19	32697.87
544.40	32558.61
544.60	32722.44
544.80	32816.65
545.00	33052.17
545.20	32761.36
545.41	33175.05
545.61	32777.74
545.81	33043.98
546.01	32984.58
546.21	32894.47
546.42	33043.98
546.62	33302.02
546.82	33031.69
547.02	33531.39
547.22	33422.85
547.43	33066.50
547.63	33166.85
547.83	33412.61
548.03	33287.68
548.23	33773.05
548.44	33445.38
548.64	33740.29
548.84	33766.91
549.04	33793.53
549.24	34061.82
549.45	34000.38
549.65	33611.26
549.85	33654.27
550.05	34065.91
550.25	34074.10
550.45	34493.94
550.66	33943.03
550.86	33926.65
551.06	34334.20
551.26	34321.91
551.46	34584.05
551.66	34256.37
551.87	34258.42
552.07	34493.94
552.27	34328.05
552.47	34592.24
552.67	34743.79
552.87	34536.94
553.07	34631.15
553.28	34610.67
553.48	34928.11
553.68	34762.22
553.88	34993.64
554.08	34764.27
554.28	34872.81
554.48	34674.16
554.69	35087.85
554.89	34874.86
555.09	34782.70
555.29	34690.54
555.49	34627.06
555.69	34964.97
555.89	34962.92
556.10	35263.97
556.30	34784.75
556.50	35370.47
556.70	34962.92
556.90	35407.33
557.10	35259.88
557.30	34962.92
557.50	35554.79
557.70	35282.41
557.91	35417.57
558.11	35632.61
558.31	35818.97
558.51	35675.62
558.71	35579.36
558.91	35270.12
559.11	35311.08
559.31	35741.15
559.51	35499.49
559.72	35460.58
559.92	36042.20
560.12	35534.31
560.32	35880.41
560.52	35841.50
560.72	35771.87
560.92	35851.74
561.12	35528.16
561.32	36169.18
561.52	35718.62
561.72	36083.16
561.93	35907.04
562.13	36093.40
562.33	35917.28
562.53	36396.50
562.73	36117.98
562.93	35816.93
563.13	36048.35
563.33	36122.07
563.53	36322.77
563.73	35710.43
563.93	36095.45
564.13	36591.06
564.33	36326.87
564.53	36367.83
564.74	36189.66
564.94	36259.29
565.14	36361.69
565.34	36316.63
565.54	36249.05
565.74	36290.01
565.94	37008.84
566.14	36349.40
566.34	36056.54
566.54	36347.35
566.74	36345.30
566.94	36922.83
567.14	36589.01
567.34	36404.69
567.54	36670.93
567.74	36441.56
567.94	36257.24
568.14	36730.32
568.34	37287.37
568.54	36859.34
568.74	36869.58
568.94	36564.43
569.14	37041.61
569.34	37150.15
569.54	36965.84
569.75	36615.63
569.95	36636.11
570.15	37152.20
570.35	37103.05
570.55	36816.33
570.75	36619.73
570.95	37117.39
571.15	36959.69
571.35	36992.46
571.55	37350.85
571.75	37074.38
571.95	37180.87
572.15	37387.72
572.35	37422.53
572.55	37238.22
572.75	37428.68
572.95	37309.89
573.15	37438.92
573.35	37537.22
573.55	37203.40
573.75	37291.46
573.95	37645.76
574.15	37709.25
574.35	37277.13
574.55	37449.16
574.75	37303.75
574.95	37912.00
575.15	37596.61
575.34	37447.11
575.54	37637.57
575.74	37830.08
575.94	37635.52
576.14	37719.49
576.34	38077.88
576.54	38036.92
576.74	37967.29
576.94	37813.70
577.14	37774.78
577.34	38258.10
577.54	37912.00
577.74	38069.69
577.94	38249.91
578.14	37828.03
578.34	38411.70
578.54	37813.70
578.74	37858.75
578.94	38225.34
579.14	38217.14
579.34	38391.22
579.54	38075.84
579.74	38536.63
579.94	38430.13
580.13	38387.13
580.33	38493.62
580.53	38495.67
580.73	38423.99
580.93	38591.92
581.13	38573.49
581.33	38911.41
581.53	38614.45
581.73	38739.38
581.93	38890.93
582.13	39028.14
582.33	39101.87
582.53	38858.16
582.73	39167.40
582.92	39085.48
583.12	38917.55
583.32	38899.12
583.52	39017.90
583.72	39531.94
583.92	38972.85
584.12	39480.74
584.32	39478.69
584.52	39167.40
584.72	39351.72
584.92	39531.94
585.11	39302.57
585.31	39368.10
585.51	39042.48
585.71	39337.38
585.91	39574.95
586.11	39611.81
586.31	39112.11
586.51	39316.90
586.71	39810.46
586.91	39775.65
587.10	39425.45
587.30	39796.13
587.50	39798.18
587.70	40293.79
587.90	39779.74
588.10	40041.88
588.30	39511.46
588.50	39728.55
588.69	39902.62
588.89	39816.61
