SpectraSuite Data File
++++++++++++++++++++++++++++++++++++
Date: Tue Jun 13 11:58:31 CEST 2017
User: INFO_000
Dark Spectrum Present: No
Reference Spectrum Present: No
Number of Sampled Component Spectra: 1
Spectrometers: USB4H00879
Integration Time (usec): 30000 (USB4H00879)
Spectra Averaged: 1 (USB4H00879)
Boxcar Smoothing: 0 (USB4H00879)
Correct for Electrical Dark: No (USB4H00879)
Strobe/Lamp Enabled: No (USB4H00879)
Correct for Detector Non-linearity: No (USB4H00879)
Correct for Stray Light: No (USB4H00879)
Number of Pixels in Processed Spectrum: 3648
>>>>>Begin Processed Spectral Data<<<<<
345.13	1372.14
345.34	1372.14
345.56	1372.14
345.78	1310.70
345.99	1363.95
346.21	1544.17
346.42	1478.63
346.64	1490.92
346.86	1572.84
347.07	1570.79
347.29	1578.98
347.50	1513.45
347.72	1529.83
347.94	1480.68
348.15	1447.91
348.37	1486.83
348.59	1554.41
348.80	1478.63
349.02	1562.60
349.23	1544.17
349.45	1578.98
349.67	1673.19
349.88	1624.04
350.10	1695.72
350.31	1650.66
350.53	1589.22
350.75	1722.34
350.96	1566.70
351.18	1636.33
351.39	1615.85
351.61	1624.04
351.82	1624.04
352.04	1660.90
352.26	1687.53
352.47	1638.38
352.69	1675.24
352.90	1597.42
353.12	1599.46
353.34	1652.71
353.55	1630.18
353.77	1593.32
353.98	1605.61
354.20	1529.83
354.41	1710.05
354.63	1570.79
354.85	1675.24
355.06	1626.09
355.28	1558.50
355.49	1619.94
355.71	1669.09
355.92	1597.42
356.14	1615.85
356.35	1591.27
356.57	1638.38
356.79	1652.71
357.00	1650.66
357.22	1650.66
357.43	1632.23
357.65	1578.98
357.86	1615.85
358.08	1636.33
358.29	1751.01
358.51	1671.14
358.72	1605.61
358.94	1675.24
359.16	1636.33
359.37	1712.10
359.59	1689.57
359.80	1630.18
360.02	1710.05
360.23	1634.28
360.45	1701.86
360.66	1697.77
360.88	1609.70
361.09	1609.70
361.31	1693.67
361.52	1687.53
361.74	1769.44
361.95	1732.58
362.17	1656.81
362.38	1714.15
362.60	1763.30
362.81	1652.71
363.03	1652.71
363.24	1689.57
363.46	1757.16
363.67	1755.11
363.89	1746.92
364.10	1691.62
364.32	1617.90
364.53	1791.97
364.75	1597.42
364.96	1705.96
365.18	1746.92
365.39	1777.64
365.61	1634.28
365.82	1822.69
366.04	1726.44
366.25	1646.57
366.47	1728.49
366.68	1734.63
366.90	1726.44
367.11	1720.29
367.33	1751.01
367.54	1751.01
367.76	1685.48
367.97	1804.26
368.19	1753.06
368.40	1771.49
368.62	1742.82
368.83	1689.57
369.05	1720.29
369.26	1761.25
369.48	1759.21
369.69	1701.86
369.91	1781.73
370.12	1726.44
370.33	1791.97
370.55	1724.39
370.76	1736.68
370.98	1796.07
371.19	1798.12
371.41	1802.21
371.62	1785.83
371.84	1798.12
372.05	1839.08
372.27	1755.11
372.48	1839.08
372.69	1798.12
372.91	1769.44
373.12	1849.32
373.34	1839.08
373.55	1865.70
373.77	1882.08
373.98	1853.41
374.20	1873.89
374.41	1824.74
374.62	1775.59
374.84	1871.84
375.05	1841.12
375.27	1845.22
375.48	1857.51
375.70	1877.99
375.91	1880.04
376.12	1863.65
376.34	1896.42
376.55	1894.37
376.77	1804.26
376.98	1818.60
377.19	1970.15
377.41	1939.43
377.62	1902.56
377.84	1886.18
378.05	1837.03
378.27	1935.33
378.48	1912.80
378.69	1916.90
378.91	1961.95
379.12	1857.51
379.34	1968.10
379.55	1996.77
379.76	1986.53
379.98	1937.38
380.19	1949.67
380.41	1916.90
380.62	1943.52
380.83	2004.96
381.05	1884.13
381.26	2064.35
381.47	1916.90
381.69	1998.82
381.90	2070.50
382.12	1925.09
382.33	1953.76
382.54	1961.95
382.76	1953.76
382.97	1968.10
383.19	2025.44
383.40	2060.26
383.61	1994.72
383.83	2011.11
384.04	1957.86
384.25	2013.15
384.47	2074.59
384.68	2088.93
384.89	1988.58
385.11	1961.95
385.32	1988.58
385.54	2007.01
385.75	1994.72
385.96	2062.30
386.18	2066.40
386.39	2123.74
386.60	2027.49
386.82	1970.15
387.03	2115.55
387.24	2086.88
387.46	2095.07
387.67	2156.51
387.88	2215.90
388.10	2187.23
388.31	2189.28
388.52	2213.85
388.74	2136.03
388.95	2123.74
389.16	2187.23
389.38	2148.32
389.59	2228.19
389.80	2224.09
390.02	2199.52
390.23	2252.77
390.44	2191.33
390.66	2197.47
390.87	2154.46
391.08	2250.72
391.30	2271.20
391.51	2267.10
391.72	2265.05
391.94	2269.15
392.15	2279.39
392.36	2269.15
392.58	2228.19
392.79	2287.58
393.00	2379.74
393.22	2269.15
393.43	2330.59
393.64	2373.60
393.85	2318.30
394.07	2412.51
394.28	2406.36
394.49	2400.22
394.71	2355.16
394.92	2473.95
395.13	2410.46
395.35	2402.27
395.56	2314.20
395.77	2461.66
395.98	2428.89
396.20	2496.47
396.41	2418.65
396.62	2519.00
396.84	2328.54
397.05	2432.99
397.26	2475.99
397.47	2531.29
397.69	2396.12
397.90	2559.96
398.11	2475.99
398.32	2514.91
398.54	2457.56
398.75	2496.47
398.96	2525.15
399.18	2574.30
399.39	2504.67
399.60	2594.78
399.81	2531.29
400.03	2553.82
400.24	2721.75
400.45	2574.30
400.66	2600.92
400.88	2613.21
401.09	2590.68
401.30	2645.98
401.51	2754.52
401.73	2691.03
401.94	2701.27
402.15	2797.53
402.36	2695.13
402.58	2654.17
402.79	2772.95
403.00	2686.94
403.21	2709.46
403.43	2768.85
403.64	2721.75
403.85	2748.37
404.06	2809.81
404.27	2688.98
404.49	2738.13
404.70	2727.89
404.91	2746.33
405.12	2918.36
405.34	2793.43
405.55	2852.82
405.76	2787.29
405.97	2809.81
406.19	2881.49
406.40	2891.73
406.61	2820.05
406.82	2949.08
407.03	2779.09
407.25	2856.92
407.46	2875.35
407.67	3008.47
407.88	2953.17
408.09	2893.78
408.31	2908.12
408.52	3012.56
408.73	2938.84
408.94	2891.73
409.15	2891.73
409.37	2918.36
409.58	3039.19
409.79	3022.80
410.00	3057.62
410.21	2987.99
410.43	2987.99
410.64	2891.73
410.85	3039.19
411.06	3057.62
411.27	3000.27
411.48	3059.67
411.70	3043.28
411.91	3094.48
412.12	3121.10
412.33	2955.22
412.54	3121.10
412.76	3182.54
412.97	3121.10
413.18	3084.24
413.39	3155.92
413.60	3182.54
413.81	3170.26
414.03	3186.64
414.24	3209.17
414.45	3278.80
414.66	3176.40
414.87	3284.94
415.08	3229.65
415.30	3297.23
415.51	3246.03
415.72	3264.46
415.93	3215.31
416.14	3254.22
416.35	3168.21
416.56	3241.93
416.78	3411.92
416.99	3291.09
417.20	3280.85
417.41	3409.87
417.62	3330.00
417.83	3430.35
418.04	3303.37
418.26	3381.20
418.47	3370.96
418.68	3463.12
418.89	3401.68
419.10	3581.90
419.31	3518.41
419.52	3598.28
419.73	3508.17
419.95	3598.28
420.16	3504.07
420.37	3475.40
420.58	3561.42
420.79	3493.83
421.00	3618.76
421.21	3524.55
421.42	3510.22
421.63	3629.00
421.85	3643.34
422.06	3629.00
422.27	3590.09
422.48	3596.23
422.69	3819.46
422.90	3729.35
423.11	3772.36
423.32	3723.21
423.53	3831.75
423.75	3829.70
423.96	3885.00
424.17	3774.41
424.38	3880.90
424.59	3901.38
424.80	4022.21
425.01	3891.14
425.22	3940.29
425.43	3774.41
425.64	4106.18
425.85	4014.02
426.06	4054.98
426.28	3964.87
426.49	4046.79
426.70	3919.81
426.91	4114.37
427.12	4069.31
427.33	4071.36
427.54	4095.94
427.75	4097.99
427.96	4267.97
428.17	4218.82
428.38	4286.40
428.59	4249.54
428.80	4220.86
429.01	4304.83
429.23	4208.58
429.44	4390.84
429.65	4382.65
429.86	4358.08
430.07	4313.02
430.28	4181.95
430.49	4497.34
430.70	4442.04
430.91	4333.50
431.12	4376.51
431.33	4470.72
431.54	4546.49
431.75	4523.96
431.96	4376.51
432.17	4399.04
432.38	4550.59
432.59	4655.03
432.80	4536.25
433.01	4708.28
433.22	4671.42
433.43	4587.45
433.64	4585.40
433.85	4581.31
434.06	4663.22
434.27	4644.79
434.49	4796.34
434.70	4804.53
434.91	4851.64
435.12	4884.41
435.33	4935.60
435.54	4945.84
435.75	4827.06
435.96	4749.24
436.17	4751.29
436.38	4960.18
436.59	5048.24
436.80	4829.11
437.01	5074.87
437.22	4982.71
437.43	4970.42
437.64	4814.77
437.85	5083.06
438.06	5101.49
438.27	4921.27
438.48	5072.82
438.69	5160.88
438.90	5160.88
439.11	5007.28
439.32	5175.22
439.53	5164.98
439.74	5283.76
439.95	5119.92
440.16	5203.89
440.37	5181.36
440.57	5236.66
440.78	5312.43
440.99	5306.29
441.20	5326.77
441.41	5298.10
441.62	5343.15
441.83	5210.03
442.04	5435.31
442.25	5316.53
442.46	5439.40
442.67	5597.10
442.88	5685.16
443.09	5408.69
443.30	5423.02
443.51	5443.50
443.72	5785.51
443.93	5529.52
444.14	5717.93
444.35	5545.90
444.56	5617.58
444.77	5601.19
444.98	5746.60
445.19	5756.84
445.40	5697.45
445.61	5642.15
445.81	5894.05
446.02	5687.21
446.23	5617.58
446.44	5552.04
446.65	5709.74
446.86	5816.23
447.07	5984.16
447.28	5996.45
447.49	5894.05
447.70	5840.81
447.91	5861.29
448.12	5914.53
448.33	5996.45
448.54	6002.60
448.74	5889.96
448.95	5988.26
449.16	5910.44
449.37	6274.98
449.58	5859.24
449.79	6250.40
450.00	6098.85
450.21	6293.41
450.42	6305.70
450.63	6346.66
450.84	6266.78
451.05	6193.06
451.25	6332.32
451.46	6162.34
451.67	6399.90
451.88	6389.66
452.09	6494.11
452.30	6414.24
452.51	6479.77
452.72	6475.68
452.93	6686.62
453.13	6508.44
453.34	6412.19
453.55	6399.90
453.76	6623.13
453.97	6735.77
454.18	6659.99
454.39	6877.08
454.60	6803.35
454.81	6709.15
455.01	6805.40
455.22	6678.43
455.43	6850.46
455.64	6995.86
455.85	6977.43
456.06	7106.45
456.27	7090.07
456.48	6799.26
456.68	7040.92
456.89	7042.96
457.10	7174.03
457.31	7270.29
457.52	7208.85
457.73	7153.55
457.94	7468.94
458.14	7229.33
458.35	7378.83
458.56	7368.59
458.77	7339.92
458.98	7456.65
459.19	7481.23
459.39	7395.22
459.60	7698.31
459.81	7491.47
460.02	7724.94
460.23	7542.67
460.44	7911.30
460.65	7913.35
460.85	7761.80
461.06	7853.96
461.27	7665.55
461.48	8134.53
461.69	8105.86
461.89	7780.23
462.10	8118.15
462.31	7995.27
462.52	7925.64
462.73	7972.74
462.94	8091.52
463.14	8255.36
463.35	8132.48
463.56	8472.45
463.77	8411.01
463.98	8224.64
464.18	8361.86
464.39	8501.12
464.60	8554.37
464.81	8624.00
465.02	8683.39
465.23	8763.26
465.43	8626.04
465.64	8976.25
465.85	8679.29
466.06	8755.07
466.27	9062.26
466.47	8970.10
466.68	8982.39
466.89	9043.83
467.10	9095.03
467.30	9004.92
467.51	9148.28
467.72	9250.67
467.93	9199.48
468.14	9275.25
468.34	9365.36
468.55	9361.27
468.76	9305.97
468.97	9527.15
469.17	9627.50
469.38	9625.45
469.59	9920.36
469.80	9668.46
470.01	9719.66
470.21	9842.54
470.42	10000.23
470.63	9992.04
470.84	9879.40
471.04	10112.87
471.25	10073.96
471.46	10209.12
471.67	10391.39
471.87	10207.08
472.08	10299.23
472.29	10676.06
472.50	10293.09
472.70	10243.94
472.91	10717.02
473.12	10770.27
473.33	10665.82
473.53	10874.71
473.74	10776.41
473.95	11063.13
474.16	11194.20
474.36	11181.91
474.57	11251.54
474.78	11423.57
474.99	11276.12
475.19	11353.94
475.40	11464.53
475.61	11679.57
475.81	11757.39
476.02	11712.33
476.23	11614.03
476.44	11935.56
476.64	12183.37
476.85	12107.59
477.06	11984.71
477.27	12476.23
477.47	12304.20
477.68	12209.99
477.89	12502.85
478.09	12496.71
478.30	12371.78
478.51	12435.27
478.71	12898.11
478.92	12904.25
479.13	12873.53
479.34	12904.25
479.54	13076.28
479.75	13070.14
479.96	13303.60
480.16	13266.74
480.37	13319.99
480.58	13379.38
480.78	13485.87
480.99	13449.01
481.20	13680.43
481.41	13764.40
481.61	13799.21
481.82	13715.25
482.03	14090.02
482.23	13936.43
482.44	14311.21
482.65	14343.97
482.85	14223.14
483.06	14323.49
483.27	14219.05
483.47	14450.47
483.68	14612.26
483.89	14786.33
484.09	14790.43
484.30	14868.25
484.51	14882.59
484.71	15077.15
484.92	15071.00
485.13	15118.11
485.33	15202.07
485.54	15355.67
485.75	15503.12
485.95	15529.75
486.16	15509.27
486.37	15714.06
486.57	15867.66
486.78	15812.37
486.98	15681.30
487.19	16156.43
487.40	16004.88
487.60	16144.14
487.81	16029.45
488.02	16299.78
488.22	16365.32
488.43	16717.57
488.64	16545.54
488.84	16649.99
489.05	16699.14
489.25	16520.96
489.46	17104.64
489.67	16801.54
489.87	17243.90
490.08	16944.89
490.29	16981.76
490.49	17430.26
490.70	17264.38
490.90	17397.49
491.11	17415.93
491.32	17555.19
491.52	17727.22
491.73	17741.55
491.94	17643.25
492.14	17792.75
492.35	17919.73
492.55	17809.14
492.76	18136.81
492.97	18106.09
493.17	18005.74
493.38	18435.81
493.58	18401.00
493.79	18493.16
494.00	18570.98
494.20	18851.55
494.41	18710.24
494.61	18855.65
494.82	18839.26
495.02	18929.38
495.23	18933.47
495.44	19044.06
495.64	19257.05
495.85	19207.90
496.05	19523.29
496.26	19410.65
496.47	19574.49
496.67	19437.27
496.88	19496.66
497.08	19666.64
497.29	19650.26
497.49	19758.80
497.70	19828.43
497.91	20092.62
498.11	19926.74
498.32	19908.30
498.52	20098.77
498.73	20309.71
498.93	20229.84
499.14	20278.99
499.34	20356.81
499.55	20217.55
499.76	20373.19
499.96	20651.72
500.17	20537.03
500.37	20651.72
500.58	20537.03
500.78	20715.20
500.99	20815.55
501.19	21071.55
501.40	20600.52
501.60	20872.90
501.81	21083.84
502.02	20969.15
502.22	20963.01
502.43	21325.50
502.63	21542.58
502.84	21530.30
503.04	21270.20
503.25	21237.44
503.45	21614.26
503.66	21567.16
503.86	21538.49
504.07	21692.08
504.27	21735.09
504.48	22062.77
504.68	21644.98
504.89	22245.04
505.09	22009.52
505.30	21880.50
505.50	22214.32
505.71	21958.32
505.91	22202.03
506.12	22210.22
506.32	22294.19
506.53	22343.34
506.73	22210.22
506.94	22570.66
507.14	22515.37
507.35	22539.94
507.55	22466.22
507.76	22759.08
507.96	22455.98
508.17	22593.19
508.37	22841.00
508.58	22562.47
508.78	22709.93
508.99	22861.48
509.19	22771.36
509.40	23023.26
509.60	22906.53
509.81	23230.11
510.01	22929.06
510.22	23105.18
510.42	23174.81
510.63	23271.07
510.83	23072.42
511.04	23484.06
511.24	23269.02
511.44	23312.03
511.65	23219.87
511.85	23498.39
512.06	23404.19
512.26	23482.01
512.47	23606.94
512.67	23731.86
512.88	23629.46
513.08	23451.29
513.29	23754.39
513.49	23738.01
513.69	23848.60
513.90	23969.43
514.10	24053.39
514.31	23971.47
514.51	24096.40
514.72	23922.32
514.92	23994.00
515.13	24084.11
515.33	24200.85
515.53	24256.14
515.74	24223.37
515.94	24639.11
516.15	24321.68
516.35	24387.21
516.56	24188.56
516.76	24315.53
516.96	24250.00
517.17	24536.71
517.37	24618.63
517.58	24952.45
517.78	24825.48
517.99	24456.84
518.19	24782.47
518.39	24884.87
518.60	25124.48
518.80	24661.64
519.01	25220.74
519.21	24682.12
519.41	25030.27
519.62	25042.56
519.82	25120.38
520.03	25316.99
520.23	25155.20
520.43	25304.70
520.64	25634.42
520.84	25503.35
521.05	25669.24
521.25	25898.61
521.45	25679.48
521.66	25839.22
521.86	25749.11
522.07	25783.93
522.27	25878.13
522.47	26070.64
522.68	26146.42
522.88	26066.55
523.08	26076.79
523.29	26211.95
523.49	26488.43
523.70	26545.77
523.90	26259.06
524.10	26431.08
524.31	26543.72
524.51	26285.68
524.71	26572.39
524.92	26723.94
525.12	26885.73
525.33	26740.33
525.53	27108.96
525.73	27127.39
525.94	26867.30
526.14	26965.60
526.34	27113.06
526.55	27240.03
526.75	27053.67
526.95	27403.87
527.16	27332.19
527.36	27418.21
527.56	27354.72
527.77	27833.94
527.97	27651.67
528.17	27602.52
528.38	27543.13
528.58	27930.20
528.78	27958.87
528.99	27909.72
529.19	28282.45
529.39	28075.60
529.60	28188.24
529.80	28341.84
530.00	27856.47
530.21	28380.75
530.41	28550.73
530.61	28304.98
530.82	28610.12
531.02	28313.17
531.22	28753.48
531.43	28503.63
531.63	28558.92
531.83	28954.18
532.04	29101.64
532.24	28968.52
532.44	29259.33
532.64	28970.57
532.85	29605.44
533.05	29185.60
533.25	29386.30
533.46	29314.62
533.66	29595.20
533.86	29158.98
534.07	29795.90
534.27	29871.67
534.47	30047.80
534.67	30137.91
534.88	29845.05
535.08	29691.45
535.28	30117.43
535.49	30316.08
535.69	30445.10
535.89	30211.64
536.09	30490.16
536.30	30643.76
536.50	30451.25
536.70	30338.61
536.91	30826.03
537.11	30688.81
537.31	30842.41
537.51	30823.98
537.72	31348.26
537.92	31278.63
538.12	31395.36
538.32	30764.59
538.53	31475.23
538.73	31254.05
538.93	31276.58
539.13	31303.20
539.34	31551.01
539.54	31278.63
539.74	31852.06
539.94	31682.08
540.15	31356.45
540.35	31755.80
540.55	31346.21
540.75	31628.83
540.96	31757.85
541.16	32067.09
541.36	31809.05
541.56	31776.28
541.77	32288.28
541.97	32179.73
542.17	32345.62
542.37	32366.10
542.58	32019.99
542.78	32149.01
542.98	32618.00
543.18	32372.24
543.38	32732.68
543.59	32683.53
543.79	32269.84
543.99	32804.36
544.19	32595.47
544.40	32517.65
544.60	32744.97
544.80	33031.69
545.00	32699.92
545.20	33203.72
545.41	33166.85
545.61	33340.93
545.81	33166.85
546.01	33224.20
546.21	33101.32
546.42	33072.65
546.62	33353.22
546.82	33031.69
547.02	33369.60
547.22	33465.86
547.43	33394.18
547.63	33580.54
547.83	33150.47
548.03	33107.46
548.23	33633.79
548.44	33895.93
548.64	33639.93
548.84	33625.60
549.04	34053.62
549.24	34045.43
549.45	33904.12
549.65	33814.01
549.85	33732.09
550.05	33979.90
550.25	33990.14
550.45	34405.88
550.66	34311.67
550.86	34024.95
551.06	34403.83
551.26	34199.03
551.46	34010.62
551.66	34252.28
551.87	34395.64
552.07	34577.90
552.27	34297.33
552.47	34403.83
552.67	34143.74
552.87	34326.00
553.07	34477.55
553.28	34547.18
553.48	34457.07
553.68	34383.35
553.88	34926.06
554.08	34760.17
554.28	34035.19
554.48	34461.17
554.69	34821.61
554.89	34928.11
555.09	34887.15
555.29	34616.82
555.49	35225.06
555.69	34854.38
555.89	34590.19
556.10	35171.82
556.30	35057.13
556.50	34956.78
556.70	34756.08
556.90	34987.50
557.10	34838.00
557.30	34969.07
557.50	35100.14
557.70	35055.08
557.91	35104.23
558.11	35614.18
558.31	35550.69
558.51	35306.98
558.71	35061.22
558.91	35169.77
559.11	35343.84
559.31	35335.65
559.51	35069.42
559.72	35098.09
559.92	35368.42
560.12	35558.88
560.32	35018.22
560.52	35098.09
560.72	35364.32
560.92	35481.06
561.12	35149.29
561.32	35640.80
561.52	35259.88
561.72	35603.94
561.93	35476.96
562.13	35409.38
562.33	35141.10
562.53	35866.08
562.73	35603.94
562.93	35648.99
563.13	35976.67
563.33	35720.67
563.53	35614.18
563.73	35773.92
563.93	35393.00
564.13	35800.54
564.33	35898.84
564.53	35802.59
564.74	35966.43
564.94	35470.82
565.14	35984.86
565.34	35597.79
565.54	35900.89
565.74	36120.02
565.94	36376.02
566.14	36179.42
566.34	35913.18
566.54	36447.70
566.74	35710.43
566.94	35845.60
567.14	36068.83
567.34	36046.30
567.54	35958.24
567.74	36087.26
567.94	35861.98
568.14	36251.09
568.34	36193.75
568.54	36158.94
568.74	36527.57
568.94	36259.29
569.14	36648.40
569.34	36580.82
569.54	36509.14
569.75	35857.88
569.95	36199.90
570.15	36691.41
570.35	36249.05
570.55	36453.84
570.75	36355.54
570.95	36439.51
571.15	36566.48
571.35	36406.74
571.55	36603.35
571.75	36867.53
571.95	36718.03
572.15	36466.13
572.35	36738.51
572.55	36464.08
572.75	36697.55
572.95	36834.77
573.15	36873.68
573.35	36533.71
573.55	36263.38
573.75	36627.92
573.95	36586.96
574.15	36361.69
574.35	36902.35
574.55	36396.50
574.75	36861.39
574.95	37057.99
575.15	36384.21
575.34	37166.54
575.54	36998.60
575.74	37066.19
575.94	37105.10
576.14	36949.45
576.34	36947.40
576.54	37129.67
576.74	36980.17
576.94	36818.38
577.14	37377.48
577.34	37500.36
577.54	36906.44
577.74	37078.47
577.94	37477.83
578.14	37420.48
578.34	37219.78
578.54	37270.98
578.74	37148.11
578.94	37727.68
579.14	36914.64
579.34	37393.86
579.54	37201.35
579.74	37375.43
579.94	37262.79
580.13	37680.58
580.33	37688.77
580.53	37488.07
580.73	37371.33
580.93	37514.69
581.13	37576.13
581.33	37961.15
581.53	38018.49
581.73	37959.10
581.93	38139.32
582.13	37567.94
582.33	37770.69
582.53	37991.87
582.73	37965.24
582.92	38239.67
583.12	38143.42
583.32	38069.69
583.52	37606.85
583.72	38022.59
583.92	37901.76
584.12	38069.69
584.32	38516.15
584.52	38184.38
584.72	37914.05
584.92	38458.81
585.11	38313.40
585.31	38028.73
585.51	38587.83
585.71	37922.24
585.91	38409.65
586.11	38483.38
586.31	38360.50
586.51	38469.04
586.71	38032.83
586.91	38550.96
587.10	38757.81
587.30	38423.99
587.50	38442.42
587.70	39040.43
587.90	38639.03
588.10	38704.56
588.30	38919.60
588.50	38690.23
588.69	38778.29
