SpectraSuite Data File
++++++++++++++++++++++++++++++++++++
Date: Tue Jun 13 12:02:25 CEST 2017
User: INFO_000
Dark Spectrum Present: No
Reference Spectrum Present: No
Number of Sampled Component Spectra: 1
Spectrometers: USB4H00879
Integration Time (usec): 30000 (USB4H00879)
Spectra Averaged: 1 (USB4H00879)
Boxcar Smoothing: 0 (USB4H00879)
Correct for Electrical Dark: No (USB4H00879)
Strobe/Lamp Enabled: No (USB4H00879)
Correct for Detector Non-linearity: No (USB4H00879)
Correct for Stray Light: No (USB4H00879)
Number of Pixels in Processed Spectrum: 3648
>>>>>Begin Processed Spectral Data<<<<<
345.13	1341.42
345.34	1341.42
345.56	1341.42
345.78	1363.95
345.99	1355.76
346.21	1558.50
346.42	1462.25
346.64	1529.83
346.86	1581.03
347.07	1445.87
347.29	1525.74
347.50	1495.02
347.72	1544.17
347.94	1519.59
348.15	1482.73
348.37	1540.07
348.59	1542.12
348.80	1566.70
349.02	1607.66
349.23	1562.60
349.45	1630.18
349.67	1652.71
349.88	1619.94
350.10	1681.38
350.31	1626.09
350.53	1671.14
350.75	1640.42
350.96	1546.22
351.18	1601.51
351.39	1558.50
351.61	1603.56
351.82	1611.75
352.04	1640.42
352.26	1566.70
352.47	1617.90
352.69	1665.00
352.90	1533.93
353.12	1677.29
353.34	1548.26
353.55	1619.94
353.77	1628.14
353.98	1626.09
354.20	1589.22
354.41	1615.85
354.63	1683.43
354.85	1705.96
355.06	1628.14
355.28	1560.55
355.49	1679.33
355.71	1593.32
355.92	1607.66
356.14	1589.22
356.35	1636.33
356.57	1611.75
356.79	1617.90
357.00	1568.74
357.22	1689.57
357.43	1593.32
357.65	1703.91
357.86	1578.98
358.08	1632.23
358.29	1656.81
358.51	1687.53
358.72	1611.75
358.94	1652.71
359.16	1583.08
359.37	1667.05
359.59	1681.38
359.80	1662.95
360.02	1681.38
360.23	1636.33
360.45	1669.09
360.66	1667.05
360.88	1583.08
361.09	1648.61
361.31	1642.47
361.52	1642.47
361.74	1710.05
361.95	1697.77
362.17	1599.46
362.38	1705.96
362.60	1732.58
362.81	1673.19
363.03	1708.01
363.24	1681.38
363.46	1699.81
363.67	1726.44
363.89	1724.39
364.10	1761.25
364.32	1632.23
364.53	1742.82
364.75	1662.95
364.96	1736.68
365.18	1699.81
365.39	1720.29
365.61	1613.80
365.82	1730.53
366.04	1671.14
366.25	1562.60
366.47	1783.78
366.68	1675.24
366.90	1734.63
367.11	1783.78
367.33	1720.29
367.54	1716.20
367.76	1699.81
367.97	1732.58
368.19	1720.29
368.40	1699.81
368.62	1716.20
368.83	1718.25
369.05	1761.25
369.26	1697.77
369.48	1628.14
369.69	1683.43
369.91	1718.25
370.12	1755.11
370.33	1791.97
370.55	1695.72
370.76	1767.40
370.98	1855.46
371.19	1689.57
371.41	1763.30
371.62	1716.20
371.84	1771.49
372.05	1785.83
372.27	1697.77
372.48	1761.25
372.69	1656.81
372.91	1748.97
373.12	1755.11
373.34	1695.72
373.55	1802.21
373.77	1810.40
373.98	1716.20
374.20	1769.44
374.41	1759.21
374.62	1804.26
374.84	1806.31
375.05	1808.36
375.27	1830.88
375.48	1773.54
375.70	1818.60
375.91	1810.40
376.12	1841.12
376.34	1808.36
376.55	1834.98
376.77	1880.04
376.98	1810.40
377.19	1714.15
377.41	1779.68
377.62	1837.03
377.84	1880.04
378.05	1929.19
378.27	1771.49
378.48	1863.65
378.69	1867.75
378.91	1882.08
379.12	1927.14
379.34	1847.27
379.55	1892.32
379.76	1882.08
379.98	1830.88
380.19	1845.22
380.41	1845.22
380.62	1816.55
380.83	1886.18
381.05	1761.25
381.26	1974.24
381.47	1978.34
381.69	1947.62
381.90	1986.53
382.12	1929.19
382.33	1929.19
382.54	1841.12
382.76	1935.33
382.97	1908.71
383.19	1941.47
383.40	1888.23
383.61	1929.19
383.83	1968.10
384.04	1968.10
384.25	1937.38
384.47	1951.71
384.68	1941.47
384.89	1929.19
385.11	2002.91
385.32	1978.34
385.54	1943.52
385.75	2000.87
385.96	1980.39
386.18	1980.39
386.39	1976.29
386.60	1990.63
386.82	2011.11
387.03	1990.63
387.24	1996.77
387.46	1951.71
387.67	2070.50
387.88	2127.84
388.10	2002.91
388.31	2064.35
388.52	2082.78
388.74	2113.50
388.95	2127.84
389.16	2013.15
389.38	2099.17
389.59	2170.85
389.80	2101.22
390.02	2054.11
390.23	2150.37
390.44	2117.60
390.66	2013.15
390.87	2093.02
391.08	2123.74
391.30	2203.61
391.51	2088.93
391.72	2136.03
391.94	2140.13
392.15	2152.42
392.36	2244.57
392.58	2090.98
392.79	2238.43
393.00	2248.67
393.22	2189.28
393.43	2197.47
393.64	2232.29
393.85	2254.81
394.07	2205.66
394.28	2275.29
394.49	2287.58
394.71	2191.33
394.92	2330.59
395.13	2154.46
395.35	2265.05
395.56	2287.58
395.77	2267.10
395.98	2283.49
396.20	2359.26
396.41	2344.92
396.62	2416.60
396.84	2295.77
397.05	2213.85
397.26	2367.45
397.47	2428.89
397.69	2338.78
397.90	2445.27
398.11	2365.40
398.32	2404.32
398.54	2357.21
398.75	2408.41
398.96	2387.93
399.18	2435.03
399.39	2365.40
399.60	2447.32
399.81	2404.32
400.03	2426.84
400.24	2566.10
400.45	2455.51
400.66	2537.43
400.88	2480.09
401.09	2516.95
401.30	2486.23
401.51	2443.23
401.73	2627.54
401.94	2557.91
402.15	2572.25
402.36	2553.82
402.58	2484.19
402.79	2600.92
403.00	2602.97
403.21	2559.96
403.43	2504.67
403.64	2705.37
403.85	2523.10
404.06	2605.02
404.27	2549.72
404.49	2641.88
404.70	2596.82
404.91	2742.23
405.12	2674.65
405.34	2615.26
405.55	2944.98
405.76	2709.46
405.97	2715.61
406.19	2736.09
406.40	2635.74
406.61	2748.37
406.82	2750.42
407.03	2832.34
407.25	2654.17
407.46	2758.61
407.67	2834.39
407.88	2787.29
408.09	2738.13
408.31	2707.41
408.52	2770.90
408.73	2818.00
408.94	2775.00
409.15	2856.92
409.37	2842.58
409.58	2836.44
409.79	2936.79
410.00	2836.44
410.21	2908.12
410.43	2891.73
410.64	2879.44
410.85	2844.63
411.06	2877.40
411.27	2926.55
411.48	2883.54
411.70	2990.03
411.91	2959.31
412.12	2906.07
412.33	2967.51
412.54	2998.23
412.76	2971.60
412.97	3000.27
413.18	2967.51
413.39	2985.94
413.60	3078.10
413.81	3037.14
414.03	3037.14
414.24	3010.51
414.45	3010.51
414.66	3024.85
414.87	3108.82
415.08	3094.48
415.30	3051.47
415.51	3102.67
415.72	2973.65
415.93	3074.00
416.14	3209.17
416.35	3180.50
416.56	3092.43
416.78	3080.14
416.99	3133.39
417.20	3174.35
417.41	3188.69
417.62	3170.26
417.83	3358.67
418.04	3119.06
418.26	3231.69
418.47	3182.54
418.68	3243.98
418.89	3262.41
419.10	3176.40
419.31	3246.03
419.52	3370.96
419.73	3358.67
419.95	3418.06
420.16	3305.42
420.37	3403.72
420.58	3327.95
420.79	3280.85
421.00	3381.20
421.21	3381.20
421.42	3481.55
421.63	3362.76
421.85	3387.34
422.06	3510.22
422.27	3532.75
422.48	3469.26
422.69	3590.09
422.90	3590.09
423.11	3575.75
423.32	3559.37
423.53	3626.95
423.75	3661.77
423.96	3645.38
424.17	3659.72
424.38	3661.77
424.59	3678.15
424.80	3725.26
425.01	3647.43
425.22	3694.54
425.43	3614.66
425.64	3848.13
425.85	3839.94
426.06	3766.21
426.28	3661.77
426.49	3772.36
426.70	3827.65
426.91	3803.08
427.12	3846.09
427.33	3909.57
427.54	3848.13
427.75	3856.33
427.96	3848.13
428.17	3989.44
428.38	3989.44
428.59	3925.96
428.80	3991.49
429.01	4065.22
429.23	3954.63
429.44	4245.44
429.65	4204.48
429.86	4095.94
430.07	3956.68
430.28	4028.35
430.49	4198.34
430.70	4186.05
430.91	4181.95
431.12	4270.01
431.33	4220.86
431.54	4247.49
431.75	4224.96
431.96	4356.03
432.17	4345.79
432.38	4300.73
432.59	4257.73
432.80	4261.82
433.01	4429.76
433.22	4388.80
433.43	4456.38
433.64	4317.12
433.85	4366.27
434.06	4470.72
434.27	4370.37
434.49	4476.86
434.70	4417.47
434.91	4468.67
435.12	4442.04
435.33	4591.55
435.54	4517.82
435.75	4487.10
435.96	4532.15
436.17	4556.73
436.38	4624.31
436.59	4526.01
436.80	4634.55
437.01	4710.33
437.22	4700.09
437.43	4726.71
437.64	4589.50
437.85	4798.39
438.06	4775.86
438.27	4693.94
438.48	4739.00
438.69	4904.89
438.90	4753.34
439.11	4716.47
439.32	4857.78
439.53	4757.43
439.74	4956.08
439.95	4855.73
440.16	4890.55
440.37	4827.06
440.57	4841.40
440.78	4929.46
440.99	5142.45
441.20	4982.71
441.41	4972.47
441.62	5019.57
441.83	4929.46
442.04	5025.72
442.25	5013.43
442.46	5126.07
442.67	5175.22
442.88	5408.69
443.09	4943.80
443.30	5060.53
443.51	5169.07
443.72	5287.86
443.93	5160.88
444.14	5285.81
444.35	5046.20
444.56	5232.56
444.77	5273.52
444.98	5304.24
445.19	5316.53
445.40	5357.49
445.61	5234.61
445.81	5441.45
446.02	5519.28
446.23	5412.78
446.44	5332.91
446.65	5506.99
446.86	5433.26
447.07	5449.64
447.28	5613.48
447.49	5498.80
447.70	5404.59
447.91	5564.33
448.12	5474.22
448.33	5603.24
448.54	5707.69
448.74	5599.15
448.95	5674.92
449.16	5490.60
449.37	5787.56
449.58	5767.08
449.79	5820.33
450.00	5550.00
450.21	5765.03
450.42	6004.64
450.63	5883.81
450.84	5842.85
451.05	5912.49
451.25	5801.90
451.46	5760.94
451.67	5971.88
451.88	6006.69
452.09	5918.63
452.30	6045.60
452.51	5902.25
452.72	6045.60
452.93	6301.60
453.13	5980.07
453.34	6145.95
453.55	6053.80
453.76	6143.91
453.97	6528.92
454.18	6201.25
454.39	6352.80
454.60	6430.62
454.81	6248.35
455.01	6416.29
455.22	6238.11
455.43	6496.16
455.64	6565.79
455.85	6668.19
456.06	6571.93
456.27	6426.53
456.48	6594.46
456.68	6565.79
456.89	6627.23
457.10	6715.29
457.31	6821.78
457.52	6643.61
457.73	6752.15
457.94	6952.85
458.14	6875.03
458.35	7071.64
458.56	6836.12
458.77	6692.76
458.98	6909.85
459.19	6928.28
459.39	7075.73
459.60	7311.25
459.81	7055.25
460.02	7262.10
460.23	7212.95
460.44	7346.06
460.65	7460.75
460.85	7258.00
461.06	7440.27
461.27	7100.31
461.48	7552.91
461.69	7583.63
461.89	7335.82
462.10	7444.37
462.31	7380.88
462.52	7456.65
462.73	7632.78
462.94	7747.47
463.14	7630.73
463.35	7618.44
463.56	7972.74
463.77	7962.50
463.98	7698.31
464.18	7878.54
464.39	7903.11
464.60	8003.46
464.81	8048.52
465.02	7929.74
465.23	8294.27
465.43	8056.71
465.64	8294.27
465.85	8337.28
466.06	8107.91
466.27	8494.97
466.47	8427.39
466.68	8327.04
466.89	8331.14
467.10	8482.69
467.30	8345.47
467.51	8679.29
467.72	8730.49
467.93	8578.94
468.14	8820.60
468.34	8906.62
468.55	8914.81
468.76	8865.66
468.97	8787.83
469.17	8871.80
469.38	8914.81
469.59	9207.67
469.80	9127.80
470.01	9287.54
470.21	9000.82
470.42	9420.66
470.63	9455.47
470.84	9119.60
471.04	9434.99
471.25	9643.88
471.46	9523.05
471.67	9652.08
471.87	9721.71
472.08	9834.35
472.29	9858.92
472.50	9537.39
472.70	9846.63
472.91	9998.18
473.12	10162.02
473.33	10106.73
473.53	10254.18
473.74	10192.74
473.95	10319.71
474.16	10399.59
474.36	10368.87
474.57	10585.95
474.78	10813.28
474.99	10434.40
475.19	10508.13
475.40	10858.33
475.61	10706.78
475.81	11007.83
476.02	10868.57
476.23	10786.65
476.44	11339.60
476.64	11358.03
476.85	11331.41
477.06	11288.40
477.27	11462.48
477.47	11530.06
477.68	11640.65
477.89	11663.18
478.09	11591.50
478.30	11818.83
478.51	11687.76
478.71	11921.23
478.92	12179.27
479.13	12074.82
479.34	12336.96
479.54	12246.85
479.75	12246.85
479.96	12382.02
480.16	12363.59
480.37	12535.62
480.58	12574.53
480.78	12695.36
480.99	12728.13
481.20	12975.93
481.41	12687.17
481.61	13172.54
481.82	13221.69
482.03	13037.37
482.23	13416.24
482.44	13248.31
482.65	13469.49
482.85	13416.24
483.06	13561.65
483.27	13465.39
483.47	13659.95
483.68	13739.82
483.89	13715.25
484.09	13928.24
484.30	13883.18
484.51	14194.47
484.71	14118.70
484.92	14171.94
485.13	14292.77
485.33	14419.75
485.54	14262.05
485.75	14477.09
485.95	14692.13
486.16	14714.66
486.37	15159.06
486.57	14640.93
486.78	14919.45
486.98	15044.38
487.19	15202.07
487.40	15011.61
487.60	15077.15
487.81	15476.50
488.02	15570.71
488.22	15132.44
488.43	15447.83
488.64	15587.09
488.84	15640.34
489.05	15769.36
489.25	15628.05
489.46	16074.51
489.67	15785.74
489.87	16078.60
490.08	16191.24
490.29	16154.38
490.49	16629.51
490.70	16336.65
490.90	16531.20
491.11	16545.54
491.32	16621.31
491.52	16629.51
491.73	16754.43
491.94	16725.76
492.14	16750.34
492.35	17002.24
492.55	16963.33
492.76	17190.65
492.97	17291.00
493.17	17071.87
493.38	17319.67
493.58	17590.00
493.79	17676.02
494.00	17370.87
494.20	17747.70
494.41	17893.10
494.61	17991.41
494.82	17694.45
495.02	17772.27
495.23	17903.34
495.44	17856.24
495.64	18355.94
495.85	18138.86
496.05	18265.83
496.26	18394.86
496.47	18603.75
496.67	18247.40
496.88	18788.07
497.08	18407.14
497.29	18826.98
497.49	18657.00
497.70	18759.39
497.91	18878.18
498.11	18960.09
498.32	19105.50
498.52	19099.36
498.73	19300.06
498.93	19171.04
499.14	19361.50
499.34	19306.20
499.55	19517.14
499.76	19263.19
499.96	19355.35
500.17	19490.52
500.37	19814.10
500.58	19631.83
500.78	20098.77
500.99	19758.80
501.19	19799.76
501.40	19842.77
501.60	20074.19
501.81	20010.70
502.02	20010.70
502.22	20125.39
502.43	20311.75
502.63	20332.23
502.84	20393.67
503.04	20276.94
503.25	20283.08
503.45	20643.52
503.66	20768.45
503.86	20680.39
504.07	20940.48
504.27	20668.10
504.48	20930.24
504.68	20725.44
504.89	20866.75
505.09	21272.25
505.30	21001.92
505.50	21083.84
505.71	21282.49
505.91	21339.83
506.12	21448.38
506.32	21245.63
506.53	21585.59
506.73	21216.96
506.94	21563.06
507.14	21497.53
507.35	21814.96
507.55	21624.50
507.76	21790.39
507.96	21667.51
508.17	21788.34
508.37	21679.80
508.58	21673.65
508.78	21780.15
508.99	22064.82
509.19	21970.61
509.40	22369.96
509.60	22093.49
509.81	22159.02
510.01	22398.63
510.22	22339.24
510.42	22591.14
510.63	22458.03
510.83	22290.09
511.04	22433.45
511.24	22603.43
511.44	22539.94
511.65	22714.02
511.85	22709.93
512.06	22890.15
512.26	22726.31
512.47	22859.43
512.67	22953.63
512.88	23056.03
513.08	22716.07
513.29	22988.45
513.49	23160.48
513.69	22957.73
513.90	23260.83
514.10	23185.05
514.31	23201.44
514.51	23408.28
514.72	23396.00
514.92	23316.12
515.13	23414.43
515.33	23338.65
515.53	23469.72
515.74	23586.46
515.94	23678.61
516.15	23594.65
516.35	23465.63
516.56	23735.96
516.76	23563.93
516.96	23891.60
517.17	24049.30
517.37	23910.04
517.58	23809.68
517.78	23891.60
517.99	23869.08
518.19	24114.83
518.39	24108.69
518.60	24321.68
518.80	24282.77
519.01	24452.75
519.21	24510.09
519.41	24833.67
519.62	24229.52
519.82	24680.07
520.03	24761.99
520.23	24735.37
520.43	24587.91
520.64	24921.73
520.84	25069.19
521.05	24972.93
521.25	25126.53
521.45	25108.10
521.66	25169.54
521.86	25073.28
522.07	25202.30
522.27	25124.48
522.47	25091.71
522.68	25706.10
522.88	25261.69
523.08	25550.46
523.29	25693.82
523.49	25511.55
523.70	25753.21
523.90	25785.97
524.10	25871.99
524.31	26242.67
524.51	25775.73
524.71	26109.55
524.92	25863.80
525.12	26304.11
525.33	26064.50
525.53	26383.98
525.73	26611.31
525.94	26463.85
526.14	26400.37
526.34	26646.12
526.55	26650.22
526.75	26949.22
526.95	26529.39
527.16	26787.43
527.36	26725.99
527.56	26818.15
527.77	27063.91
527.97	27065.96
528.17	27270.75
528.38	27258.46
528.58	27194.98
528.78	27098.72
528.99	27248.22
529.19	27575.90
529.39	27432.54
529.60	27641.43
529.80	27653.72
530.00	27903.57
530.21	27780.70
530.41	27801.18
530.61	27774.55
530.82	28159.57
531.02	28165.71
531.22	28208.72
531.43	28206.67
531.63	28333.65
531.83	28294.74
532.04	28898.89
532.24	28474.96
532.44	28776.01
532.64	28864.07
532.85	28909.13
533.05	28810.82
533.25	29142.60
533.46	28819.02
533.66	29034.05
533.86	29216.32
534.07	29396.54
534.27	29257.28
534.47	29361.73
534.67	29666.88
534.88	29371.97
535.08	29642.30
535.28	29730.36
535.49	29828.66
535.69	29924.92
535.89	30203.44
536.09	30004.79
536.30	30297.65
536.50	30209.59
536.70	30455.34
536.91	30207.54
537.11	30379.57
537.31	30565.93
537.51	30563.89
537.72	30936.62
537.92	30987.82
538.12	31178.28
538.32	31049.25
538.53	30991.91
538.73	30860.84
538.93	30780.97
539.13	30893.61
539.34	31219.24
539.54	30989.86
539.74	31614.49
539.94	31254.05
540.15	31288.87
540.35	31739.42
540.55	31782.43
540.75	31630.88
540.96	31165.99
541.16	31364.64
541.36	31749.66
541.56	31587.87
541.77	31800.86
541.97	31743.52
542.17	32169.49
542.37	32173.59
542.58	31911.45
542.78	32032.28
542.98	32128.53
543.18	32206.36
543.38	32523.79
543.59	32355.86
543.79	32048.66
543.99	32579.09
544.19	32775.69
544.40	32464.40
544.60	32867.85
544.80	32691.73
545.00	32734.73
545.20	32484.88
545.41	32763.40
545.61	32859.66
545.81	33066.50
546.01	33013.26
546.21	33199.62
546.42	32998.92
546.62	33168.90
546.82	33228.29
547.02	33334.79
547.22	33351.17
547.43	33084.94
547.63	33629.69
547.83	33752.57
548.03	33168.90
548.23	33342.98
548.44	33615.36
548.64	33441.28
548.84	33641.98
549.04	33625.60
549.24	34063.86
549.45	34070.01
549.65	33603.07
549.85	34065.91
550.05	33908.22
550.25	34039.29
550.45	34326.00
550.66	34377.20
550.86	34123.26
551.06	34153.97
551.26	34321.91
551.46	34403.83
551.66	34145.78
551.87	34137.59
552.07	34418.16
552.27	34373.11
552.47	34428.40
552.67	34582.00
552.87	34633.20
553.07	34577.90
553.28	34461.17
553.48	34838.00
553.68	34526.71
553.88	34637.30
554.08	34743.79
554.28	34930.16
554.48	34723.31
554.69	35007.98
554.89	35012.07
555.09	35098.09
555.29	34604.53
555.49	34686.45
555.69	34846.19
555.89	35044.84
556.10	35460.58
556.30	35151.34
556.50	35208.68
556.70	35257.83
556.90	35091.94
557.10	35317.22
557.30	34461.17
557.50	35128.81
557.70	35542.50
557.91	35165.67
558.11	35544.55
558.31	35317.22
558.51	35519.97
558.71	35558.88
558.91	35722.72
559.11	35407.33
559.31	35655.14
559.51	35515.87
559.72	35728.86
559.92	35792.35
560.12	35341.80
560.32	35833.31
560.52	35448.29
560.72	35679.71
560.92	35900.89
561.12	35440.10
561.32	35915.23
561.52	35628.51
561.72	35843.55
561.93	35626.46
562.13	36005.34
562.33	35624.42
562.53	36244.95
562.73	35759.58
562.93	35849.69
563.13	35810.78
563.33	35593.70
563.53	36345.30
563.73	35855.84
563.93	36208.09
564.13	36148.70
564.33	36034.01
564.53	36412.88
564.74	35986.91
564.94	36341.21
565.14	35927.52
565.34	36122.07
565.54	36263.38
565.74	36386.26
565.94	36527.57
566.14	36474.32
566.34	36333.01
566.54	36775.37
566.74	36373.97
566.94	36572.63
567.14	36554.19
567.34	36154.84
567.54	36699.60
567.74	36464.08
567.94	36419.03
568.14	37270.98
568.34	37070.28
568.54	36722.13
568.74	36627.92
568.94	36738.51
569.14	36758.99
569.34	36834.77
569.54	36871.63
569.75	36931.02
569.95	37109.19
570.15	37105.10
570.35	37297.61
570.55	36922.83
570.75	36951.50
570.95	37090.76
571.15	37019.08
571.35	36840.91
571.55	37531.08
571.75	36971.98
571.95	37678.53
572.15	37242.31
572.35	37379.53
572.55	37662.15
572.75	37285.32
572.95	37342.66
573.15	37541.32
573.35	37285.32
573.55	37352.90
573.75	37334.47
573.95	37357.00
574.15	37457.35
574.35	37674.43
574.55	37658.05
574.75	37637.57
574.95	37582.27
575.15	37762.50
575.34	37723.58
575.54	37561.79
575.74	38133.18
575.94	37926.33
576.14	37701.06
576.34	37989.82
576.54	37928.38
576.74	38055.36
576.94	37914.05
577.14	37705.15
577.34	38256.06
577.54	37819.84
577.74	37883.33
577.94	37852.61
578.14	37944.76
578.34	38475.19
578.54	37125.58
578.74	38120.89
578.94	38602.16
579.14	38294.97
579.34	38141.37
579.54	38315.45
579.74	38477.24
579.94	38626.74
580.13	38487.48
580.33	38518.20
580.53	38403.51
580.73	38559.16
580.93	38598.07
581.13	38604.21
581.33	38477.24
581.53	38935.98
581.73	38669.75
581.93	39155.11
582.13	39062.96
582.33	38839.73
582.53	39112.11
582.73	38956.46
582.92	38985.13
583.12	39185.83
583.32	39286.18
583.52	38804.91
583.72	39427.49
583.92	39142.83
584.12	39376.30
584.32	39685.54
584.52	39269.80
584.72	39579.04
584.92	39263.66
585.11	39525.80
585.31	39579.04
585.51	39460.26
585.71	39140.78
585.91	39718.31
586.11	39585.19
586.31	39366.06
586.51	39296.42
586.71	39683.49
586.91	39579.04
587.10	39882.14
587.30	39835.04
587.50	39714.21
587.70	39552.42
587.90	39814.56
588.10	40164.76
588.30	39720.35
588.50	40222.11
588.69	40095.13
588.89	39863.71
