SpectraSuite Data File
++++++++++++++++++++++++++++++++++++
Date: Tue Jun 13 11:53:15 CEST 2017
User: INFO_000
Dark Spectrum Present: No
Reference Spectrum Present: No
Number of Sampled Component Spectra: 1
Spectrometers: USB4H00879
Integration Time (usec): 30000 (USB4H00879)
Spectra Averaged: 1 (USB4H00879)
Boxcar Smoothing: 0 (USB4H00879)
Correct for Electrical Dark: No (USB4H00879)
Strobe/Lamp Enabled: No (USB4H00879)
Correct for Detector Non-linearity: No (USB4H00879)
Correct for Stray Light: No (USB4H00879)
Number of Pixels in Processed Spectrum: 3648
>>>>>Begin Processed Spectral Data<<<<<
345.13	1314.80
345.34	1314.80
345.56	1314.80
345.78	1288.17
345.99	1325.04
346.21	1509.35
346.42	1550.31
346.64	1499.11
346.86	1523.69
347.07	1480.68
347.29	1607.66
347.50	1470.44
347.72	1527.78
347.94	1548.26
348.15	1490.92
348.37	1484.78
348.59	1458.15
348.80	1492.97
349.02	1538.02
349.23	1640.42
349.45	1613.80
349.67	1628.14
349.88	1581.03
350.10	1695.72
350.31	1548.26
350.53	1601.51
350.75	1615.85
350.96	1611.75
351.18	1662.95
351.39	1587.18
351.61	1570.79
351.82	1597.42
352.04	1689.57
352.26	1515.50
352.47	1615.85
352.69	1675.24
352.90	1544.17
353.12	1591.27
353.34	1636.33
353.55	1679.33
353.77	1626.09
353.98	1611.75
354.20	1568.74
354.41	1681.38
354.63	1619.94
354.85	1593.32
355.06	1660.90
355.28	1632.23
355.49	1691.62
355.71	1689.57
355.92	1615.85
356.14	1656.81
356.35	1632.23
356.57	1628.14
356.79	1685.48
357.00	1597.42
357.22	1716.20
357.43	1595.37
357.65	1677.29
357.86	1540.07
358.08	1660.90
358.29	1656.81
358.51	1669.09
358.72	1671.14
358.94	1683.43
359.16	1628.14
359.37	1669.09
359.59	1675.24
359.80	1728.49
360.02	1746.92
360.23	1697.77
360.45	1660.90
360.66	1632.23
360.88	1679.33
361.09	1660.90
361.31	1679.33
361.52	1667.05
361.74	1755.11
361.95	1798.12
362.17	1722.34
362.38	1718.25
362.60	1679.33
362.81	1658.85
363.03	1654.76
363.24	1740.77
363.46	1767.40
363.67	1710.05
363.89	1691.62
364.10	1738.73
364.32	1691.62
364.53	1791.97
364.75	1726.44
364.96	1714.15
365.18	1644.52
365.39	1779.68
365.61	1662.95
365.82	1791.97
366.04	1726.44
366.25	1767.40
366.47	1761.25
366.68	1746.92
366.90	1748.97
367.11	1726.44
367.33	1781.73
367.54	1746.92
367.76	1777.64
367.97	1759.21
368.19	1720.29
368.40	1779.68
368.62	1734.63
368.83	1699.81
369.05	1806.31
369.26	1703.91
369.48	1837.03
369.69	1697.77
369.91	1734.63
370.12	1761.25
370.33	1787.88
370.55	1794.02
370.76	1800.16
370.98	1757.16
371.19	1785.83
371.41	1748.97
371.62	1800.16
371.84	1802.21
372.05	1769.44
372.27	1839.08
372.48	1781.73
372.69	1828.84
372.91	1910.75
373.12	1845.22
373.34	1810.40
373.55	1808.36
373.77	1834.98
373.98	1857.51
374.20	1867.75
374.41	1931.23
374.62	1812.45
374.84	1896.42
375.05	1863.65
375.27	1822.69
375.48	1877.99
375.70	1834.98
375.91	1929.19
376.12	1980.39
376.34	1896.42
376.55	1863.65
376.77	1851.36
376.98	1843.17
377.19	1861.60
377.41	1955.81
377.62	1904.61
377.84	1953.76
378.05	1968.10
378.27	1966.05
378.48	1966.05
378.69	2011.11
378.91	2015.20
379.12	1927.14
379.34	1994.72
379.55	1927.14
379.76	1920.99
379.98	2011.11
380.19	1994.72
380.41	1943.52
380.62	1978.34
380.83	1974.24
381.05	1880.04
381.26	2023.39
381.47	1961.95
381.69	1908.71
381.90	1974.24
382.12	1943.52
382.33	1966.05
382.54	2017.25
382.76	1982.43
382.97	2058.21
383.19	2068.45
383.40	2045.92
383.61	2074.59
383.83	2031.58
384.04	2058.21
384.25	2054.11
384.47	2066.40
384.68	2109.41
384.89	2119.65
385.11	2093.02
385.32	2093.02
385.54	2088.93
385.75	2121.70
385.96	2033.63
386.18	2113.50
386.39	2152.42
386.60	2109.41
386.82	2142.18
387.03	2140.13
387.24	2113.50
387.46	2224.09
387.67	2164.70
387.88	2176.99
388.10	2111.46
388.31	2181.09
388.52	2244.57
388.74	2181.09
388.95	2260.96
389.16	2183.13
389.38	2220.00
389.59	2279.39
389.80	2265.05
390.02	2193.37
390.23	2281.44
390.44	2289.63
390.66	2291.68
390.87	2306.01
391.08	2324.44
391.30	2353.12
391.51	2324.44
391.72	2299.87
391.94	2324.44
392.15	2385.88
392.36	2301.92
392.58	2297.82
392.79	2220.00
393.00	2414.56
393.22	2342.88
393.43	2379.74
393.64	2453.47
393.85	2396.12
394.07	2389.98
394.28	2439.13
394.49	2467.80
394.71	2412.51
394.92	2439.13
395.13	2299.87
395.35	2371.55
395.56	2424.80
395.77	2478.04
395.98	2426.84
396.20	2475.99
396.41	2596.82
396.62	2582.49
396.84	2553.82
397.05	2566.10
397.26	2529.24
397.47	2582.49
397.69	2453.47
397.90	2543.58
398.11	2541.53
398.32	2574.30
398.54	2551.77
398.75	2637.78
398.96	2582.49
399.18	2758.61
399.39	2617.30
399.60	2740.18
399.81	2615.26
400.03	2648.02
400.24	2809.81
400.45	2693.08
400.66	2731.99
400.88	2621.40
401.09	2760.66
401.30	2791.38
401.51	2699.22
401.73	2770.90
401.94	2779.09
402.15	2725.85
402.36	2789.33
402.58	2813.91
402.79	2750.42
403.00	2797.53
403.21	2783.19
403.43	2818.00
403.64	2910.16
403.85	2734.04
404.06	2826.20
404.27	2856.92
404.49	2713.56
404.70	2801.62
404.91	2944.98
405.12	2811.86
405.34	2981.84
405.55	2987.99
405.76	2820.05
405.97	2904.02
406.19	2938.84
406.40	2951.12
406.61	2867.16
406.82	2998.23
407.03	2899.92
407.25	2967.51
407.46	3065.81
407.67	3026.90
407.88	2992.08
408.09	2934.74
408.31	3008.47
408.52	3094.48
408.73	3053.52
408.94	3045.33
409.15	3008.47
409.37	3055.57
409.58	3024.85
409.79	3121.10
410.00	3096.53
410.21	3092.43
410.43	3084.24
410.64	3117.01
410.85	3018.71
411.06	3137.49
411.27	3209.17
411.48	3168.21
411.70	3092.43
411.91	3215.31
412.12	3246.03
412.33	3192.78
412.54	3299.28
412.76	3291.09
412.97	3194.83
413.18	3162.06
413.39	3157.97
413.60	3176.40
413.81	3209.17
414.03	3172.30
414.24	3299.28
414.45	3397.58
414.66	3172.30
414.87	3409.87
415.08	3393.48
415.30	3332.05
415.51	3385.29
415.72	3321.81
415.93	3411.92
416.14	3467.21
416.35	3440.59
416.56	3391.44
416.78	3485.64
416.99	3362.76
417.20	3487.69
417.41	3510.22
417.62	3413.96
417.83	3485.64
418.04	3483.59
418.26	3524.55
418.47	3432.40
418.68	3590.09
418.89	3493.83
419.10	3555.27
419.31	3571.66
419.52	3665.86
419.73	3733.45
419.95	3641.29
420.16	3551.18
420.37	3610.57
420.58	3616.71
420.79	3569.61
421.00	3694.54
421.21	3821.51
421.42	3801.03
421.63	3774.41
421.85	3760.07
422.06	3831.75
422.27	3872.71
422.48	3794.89
422.69	3774.41
422.90	3821.51
423.11	3874.76
423.32	3864.52
423.53	3872.71
423.75	3868.61
423.96	4083.65
424.17	3911.62
424.38	4118.47
424.59	4073.41
424.80	4192.19
425.01	4032.45
425.22	3919.81
425.43	3844.04
425.64	4071.36
425.85	3938.24
426.06	4161.47
426.28	4169.66
426.49	4028.35
426.70	4194.24
426.91	4157.38
427.12	4388.80
427.33	4278.21
427.54	4227.01
427.75	4210.62
427.96	4343.74
428.17	4229.06
428.38	4319.17
428.59	4321.21
428.80	4331.45
429.01	4517.82
429.23	4399.04
429.44	4569.02
429.65	4523.96
429.86	4675.51
430.07	4472.76
430.28	4483.00
430.49	4562.87
430.70	4562.87
430.91	4671.42
431.12	4583.35
431.33	4663.22
431.54	4775.86
431.75	4609.98
431.96	4706.23
432.17	4616.12
432.38	4642.75
432.59	5005.24
432.80	4751.29
433.01	4827.06
433.22	5007.28
433.43	4779.96
433.64	4741.05
433.85	4757.43
434.06	4925.36
434.27	4919.22
434.49	4890.55
434.70	4970.42
434.91	4868.02
435.12	5060.53
435.33	5095.35
435.54	5056.43
435.75	4841.40
435.96	4960.18
436.17	5011.38
436.38	5121.97
436.59	5124.02
436.80	5109.68
437.01	5271.47
437.22	5328.81
437.43	5218.22
437.64	5056.43
437.85	5201.84
438.06	5175.22
438.27	5119.92
438.48	5306.29
438.69	5195.70
438.90	5253.04
439.11	5181.36
439.32	5435.31
439.53	5304.24
439.74	5416.88
439.95	5560.24
440.16	5437.36
440.37	5451.69
440.57	5353.39
440.78	5463.98
440.99	5494.70
441.20	5593.00
441.41	5470.12
441.62	5357.49
441.83	5476.27
442.04	5543.85
442.25	5611.43
442.46	5771.18
442.67	5642.15
442.88	6039.46
443.09	5509.04
443.30	5488.56
443.51	5805.99
443.72	5969.83
443.93	5578.67
444.14	5945.25
444.35	5603.24
444.56	5818.28
444.77	5883.81
444.98	5840.81
445.19	5855.14
445.40	5887.91
445.61	5943.21
445.81	6061.99
446.02	6057.89
446.23	5951.40
446.44	5914.53
446.65	6023.08
446.86	5912.49
447.07	6023.08
447.28	6111.14
447.49	6170.53
447.70	5978.02
447.91	6231.97
448.12	6021.03
448.33	6234.02
448.54	6260.64
448.74	6123.43
448.95	6268.83
449.16	6195.11
449.37	6356.90
449.58	6172.58
449.79	6373.28
450.00	6174.63
450.21	6522.78
450.42	6385.57
450.63	6557.60
450.84	6494.11
451.05	6516.64
451.25	6553.50
451.46	6502.30
451.67	6606.75
451.88	6666.14
452.09	6537.12
452.30	6621.08
452.51	6541.21
452.72	6836.12
452.93	6875.03
453.13	6662.04
453.34	6690.71
453.55	6571.93
453.76	6739.87
453.97	7131.03
454.18	6866.84
454.39	7026.58
454.60	6866.84
454.81	7028.63
455.01	7018.39
455.22	6827.93
455.43	7131.03
455.64	7262.10
455.85	7194.51
456.06	7327.63
456.27	7104.40
456.48	7147.41
456.68	7341.97
456.89	7335.82
457.10	7417.74
457.31	7368.59
457.52	7309.20
457.73	7378.83
457.94	7649.16
458.14	7497.61
458.35	7915.40
458.56	7630.73
458.77	7520.14
458.98	7614.35
459.19	7679.88
459.39	7884.68
459.60	7843.72
459.81	7663.50
460.02	7827.34
460.23	7927.69
460.44	8107.91
460.65	7886.73
460.85	7915.40
461.06	8175.49
461.27	7894.92
461.48	8159.11
461.69	8511.36
461.89	8077.19
462.10	8361.86
462.31	8228.74
462.52	8251.27
462.73	8279.94
462.94	8523.65
463.14	8390.53
463.35	8386.43
463.56	8750.97
463.77	8759.16
463.98	8554.37
464.18	8560.51
464.39	8834.94
464.60	8851.32
464.81	8929.14
465.02	8865.66
465.23	9076.60
465.43	8994.68
465.64	9267.06
465.85	9056.12
466.06	8943.48
466.27	9377.65
466.47	9422.70
466.68	9277.30
466.89	9252.72
467.10	9551.73
467.30	9254.77
467.51	9492.34
467.72	9570.16
467.93	9428.85
468.14	9594.73
468.34	9572.21
468.55	9781.10
468.76	9719.66
468.97	9660.27
469.17	9891.69
469.38	10088.29
469.59	9930.60
469.80	9920.36
470.01	9981.80
470.21	9971.56
470.42	10260.32
470.63	10327.91
470.84	10112.87
471.04	10325.86
471.25	10383.20
471.46	10528.61
471.67	10678.11
471.87	10614.62
472.08	10676.06
472.29	10981.21
472.50	10399.59
472.70	10786.65
472.91	10925.91
473.12	11040.60
473.33	11036.50
473.53	11167.57
473.74	11247.44
473.95	11126.61
474.16	11536.21
474.36	11192.15
474.57	11554.64
474.78	11638.61
474.99	11272.02
475.19	11458.39
475.40	11945.80
475.61	11839.31
475.81	12015.43
476.02	12138.31
476.23	12144.45
476.44	11994.95
476.64	12324.68
476.85	12195.65
477.06	12328.77
477.27	12511.04
477.47	12664.64
477.68	12556.10
477.89	12748.61
478.09	12764.99
478.30	12965.69
478.51	12949.31
478.71	13068.09
478.92	13053.75
479.13	13068.09
479.34	13395.76
479.54	13352.76
479.75	13383.48
479.96	13524.79
480.16	13676.34
480.37	13453.11
480.58	13721.39
480.78	14071.59
480.99	13817.65
481.20	13905.71
481.41	14182.18
481.61	14458.66
481.82	14425.89
482.03	14448.42
482.23	14346.02
482.44	14462.76
482.65	14651.17
482.85	14655.26
483.06	14663.46
483.27	14941.98
483.47	14655.26
483.68	14911.26
483.89	15077.15
484.09	15089.43
484.30	15257.37
484.51	15314.71
484.71	15605.52
484.92	15609.62
485.13	15535.89
485.33	15920.91
485.54	15675.15
485.75	15658.77
485.95	15826.70
486.16	16058.12
486.37	16285.45
486.57	16201.48
486.78	16056.08
486.98	16129.80
487.19	16348.93
487.40	16369.41
487.60	16289.54
487.81	16535.30
488.02	16437.00
488.22	16768.77
488.43	16850.69
488.64	16635.65
488.84	16772.86
489.05	16951.04
489.25	16940.80
489.46	17592.05
489.67	17241.85
489.87	17694.45
490.08	17338.10
490.29	17327.86
490.49	17725.17
490.70	17723.12
490.90	18005.74
491.11	17798.90
491.32	18210.54
491.52	17938.16
491.73	18145.00
491.94	18087.66
492.14	18165.48
492.35	18063.08
492.55	18247.40
492.76	18421.48
492.97	18271.98
493.17	18421.48
493.38	18618.08
493.58	18802.40
493.79	18613.99
494.00	18734.82
494.20	18994.91
494.41	18968.29
494.61	19128.03
494.82	19343.06
495.02	19150.56
495.23	19222.23
495.44	19238.62
495.64	19429.08
495.85	19617.49
496.05	19740.37
496.26	19441.37
496.47	19936.98
496.67	19861.20
496.88	20109.01
497.08	19791.57
497.29	20066.00
497.49	19783.38
497.70	20127.44
497.91	20362.95
498.11	20199.12
498.32	20328.14
498.52	20166.35
498.73	20399.82
498.93	20547.27
499.14	20420.30
499.34	20565.70
499.55	20643.52
499.76	20842.18
499.96	20897.47
500.17	20631.24
500.37	20944.58
500.58	20870.85
500.78	21032.64
500.99	20993.73
501.19	21341.88
501.40	21302.97
501.60	21190.33
501.81	21057.21
502.02	21345.98
502.22	21370.55
502.43	21632.69
502.63	21563.06
502.84	21548.73
503.04	21708.47
503.25	21386.94
503.45	21724.85
503.66	21806.77
503.86	21911.22
504.07	22234.80
504.27	21753.52
504.48	22011.57
504.68	22113.97
504.89	22191.79
505.09	22242.99
505.30	22304.43
505.50	22318.76
505.71	22589.10
505.91	22728.36
506.12	22433.45
506.32	22406.83
506.53	22394.54
506.73	22580.90
506.94	22886.05
507.14	22566.57
507.35	22572.71
507.55	22781.60
507.76	22947.49
507.96	22814.37
508.17	22988.45
508.37	22836.90
508.58	23010.98
508.78	22980.26
508.99	23172.77
509.19	23160.48
509.40	23391.90
509.60	23047.84
509.81	23410.33
510.01	23430.81
510.22	23391.90
510.42	23467.67
510.63	23305.88
510.83	23498.39
511.04	23221.92
511.24	23570.07
511.44	23439.00
511.65	23639.70
511.85	23430.81
512.06	23819.92
512.26	23824.02
512.47	23838.36
512.67	23727.77
512.88	24045.20
513.08	23819.92
513.29	24299.15
513.49	24096.40
513.69	24155.79
513.90	23969.43
514.10	24057.49
514.31	24442.51
514.51	24295.05
514.72	24211.09
514.92	24051.34
515.13	24073.87
515.33	24309.39
515.53	24532.62
515.74	24333.96
515.94	24305.29
516.15	24213.13
516.35	24389.26
516.56	24712.84
516.76	24319.63
516.96	24594.06
517.17	24700.55
517.37	24700.55
517.58	24712.84
517.78	24987.27
517.99	24792.71
518.19	24802.95
518.39	24981.12
518.60	25124.48
518.80	25134.72
519.01	25235.07
519.21	24882.82
519.41	25214.59
519.62	24837.76
519.82	25210.50
520.03	25288.32
520.23	25282.17
520.43	25155.20
520.64	25499.26
520.84	25636.47
521.05	25740.92
521.25	25632.38
521.45	25532.03
521.66	25710.20
521.86	25669.24
522.07	25343.61
522.27	25628.28
522.47	25841.27
522.68	25611.90
522.88	26078.83
523.08	26222.19
523.29	26175.09
523.49	26189.42
523.70	26293.87
523.90	26175.09
524.10	26461.80
524.31	26545.77
524.51	26525.29
524.71	26252.91
524.92	26840.68
525.12	26678.89
525.33	26891.88
525.53	27119.20
525.73	27000.42
525.94	26832.49
526.14	26560.11
526.34	27065.96
526.55	27139.68
526.75	27162.21
526.95	27254.37
527.16	27231.84
527.36	27049.57
527.56	27410.01
527.77	27383.39
527.97	27512.41
528.17	27219.55
528.38	27223.65
528.58	27743.83
528.78	27842.14
528.99	27598.43
529.19	27510.36
529.39	27358.81
529.60	28173.91
529.80	27965.01
530.00	27790.94
530.21	28251.73
530.41	28591.69
530.61	28139.09
530.82	28329.55
531.02	27799.13
531.22	28259.92
531.43	28274.26
531.63	28397.13
531.83	28487.25
532.04	28788.30
532.24	28503.63
532.44	29077.06
532.64	28980.81
532.85	28950.09
533.05	29040.20
533.25	29087.30
533.46	28989.00
533.66	29374.02
533.86	29062.72
534.07	29558.33
534.27	29234.75
534.47	29564.48
534.67	29376.06
534.88	29414.98
535.08	29441.60
535.28	29716.03
535.49	29804.09
535.69	29949.50
535.89	30090.80
536.09	29980.21
536.30	30133.81
536.50	29904.44
536.70	30324.27
536.91	29906.49
537.11	30150.20
537.31	30191.16
537.51	30215.73
537.72	30879.27
537.92	30445.10
538.12	30752.30
538.32	30496.30
538.53	30750.25
538.73	30805.55
538.93	30854.70
539.13	30854.70
539.34	30694.96
539.54	30709.29
539.74	31190.56
539.94	30996.01
540.15	30531.12
540.35	31139.36
540.55	31059.49
540.75	31374.88
540.96	31090.21
541.16	31557.15
541.36	30957.10
541.56	31192.61
541.77	31383.07
541.97	31516.19
542.17	31389.22
542.37	31319.59
542.58	31528.48
542.78	31491.62
542.98	31817.24
543.18	31458.85
543.38	31655.45
543.59	31800.86
543.79	31796.76
543.99	31819.29
544.19	32081.43
544.40	31882.78
544.60	32136.73
544.80	32179.73
545.00	32204.31
545.20	32132.63
545.41	32011.80
545.61	32392.72
545.81	32144.92
546.01	32450.06
546.21	32173.59
546.42	31997.46
546.62	32812.56
546.82	32339.47
547.02	32273.94
547.22	32493.07
547.43	32476.69
547.63	32685.58
547.83	33097.22
548.03	32275.99
548.23	32796.17
548.44	32443.92
548.64	32917.00
548.84	32552.46
549.04	32847.37
549.24	32632.33
549.45	32935.43
549.65	32806.41
549.85	32695.82
550.05	32751.12
550.25	32878.09
550.45	33099.27
550.66	32978.44
550.86	33043.98
551.06	33152.52
551.26	32984.58
551.46	33084.94
551.66	33330.69
551.87	32955.91
552.07	33195.53
552.27	33211.91
552.47	33269.25
552.67	33568.26
552.87	32914.95
553.07	33404.42
553.28	33334.79
553.48	33259.01
553.68	33433.09
553.88	33555.97
554.08	33371.65
554.28	33519.10
554.48	32953.87
554.69	33492.48
554.89	33232.39
555.09	33379.84
555.29	33193.48
555.49	33412.61
555.69	33406.47
555.89	33779.20
556.10	33695.23
556.30	33457.67
556.50	33625.60
556.70	33080.84
556.90	33836.54
557.10	33711.61
557.30	33535.49
557.50	33752.57
557.70	33854.97
557.91	33900.03
558.11	33934.84
558.31	33979.90
558.51	33906.17
558.71	33482.24
558.91	34158.07
559.11	33914.36
559.31	33916.41
559.51	33949.18
559.72	33644.03
559.92	33988.09
560.12	33867.26
560.32	34178.55
560.52	33928.70
560.72	33994.23
560.92	33558.02
561.12	34065.91
561.32	34145.78
561.52	33648.13
561.72	33981.95
561.93	33701.37
562.13	33945.08
562.33	33670.65
562.53	34321.91
562.73	33867.26
562.93	33879.55
563.13	34174.45
563.33	34049.53
563.53	34401.78
563.73	33967.61
563.93	34092.54
564.13	34344.44
564.33	34280.95
564.53	33945.08
564.74	34291.19
564.94	34389.49
565.14	34160.12
565.34	33748.48
565.54	34188.79
565.74	34291.19
565.94	34293.24
566.14	34223.61
566.34	34489.84
566.54	34522.61
566.74	34014.71
566.94	34450.93
567.14	34498.03
567.34	33914.36
567.54	34029.05
567.74	34176.50
567.94	34364.92
568.14	34489.84
568.34	34166.26
568.54	34373.11
568.74	34616.82
568.94	34268.66
569.14	34555.38
569.34	34604.53
569.54	34268.66
569.75	34113.02
569.95	34491.89
570.15	34471.41
570.35	34577.90
570.55	34491.89
570.75	34530.80
570.95	34567.66
571.15	34416.11
571.35	34598.38
571.55	34979.31
571.75	34561.52
571.95	34874.86
572.15	34899.44
572.35	34958.83
572.55	34569.71
572.75	34389.49
572.95	34561.52
573.15	34749.93
573.35	34272.76
573.55	34631.15
573.75	34395.64
573.95	34833.90
574.15	35087.85
574.35	34762.22
574.55	34993.64
574.75	34954.73
574.95	34764.27
575.15	34506.23
575.34	34571.76
575.54	35130.86
575.74	34964.97
575.94	35044.84
576.14	34528.75
576.34	35370.47
576.54	35278.31
576.74	35196.39
576.94	34971.11
577.14	35112.42
577.34	35251.69
577.54	35059.18
577.74	35114.47
577.94	35333.60
578.14	35259.88
578.34	35223.01
578.54	34852.33
578.74	35100.14
578.94	35507.68
579.14	35073.51
579.34	34962.92
579.54	35075.56
579.74	35460.58
579.94	35366.37
580.13	35775.97
580.33	35470.82
580.53	35235.30
580.73	35190.25
580.93	35378.66
581.13	35538.40
581.33	35829.21
581.53	35419.62
581.73	35583.46
581.93	35778.01
582.13	35470.82
582.33	35825.12
582.53	35681.76
582.73	35939.80
582.92	36097.50
583.12	35968.48
583.32	35931.61
583.52	35702.24
583.72	35966.43
583.92	35433.96
584.12	35900.89
584.32	36308.44
584.52	36066.78
584.72	36058.59
584.92	35732.96
585.11	36294.10
585.31	35823.07
585.51	36122.07
585.71	35839.45
585.91	36148.70
586.11	35683.81
586.31	35837.41
586.51	36038.11
586.71	35878.36
586.91	36181.46
587.10	36330.97
587.30	36236.76
587.50	36236.76
587.70	36304.34
587.90	36509.14
588.10	36201.94
588.30	35993.05
588.50	36251.09
588.69	36433.36
