SpectraSuite Data File
++++++++++++++++++++++++++++++++++++
Date: Tue Jun 13 11:50:59 CEST 2017
User: INFO_000
Dark Spectrum Present: No
Reference Spectrum Present: No
Number of Sampled Component Spectra: 1
Spectrometers: USB4H00879
Integration Time (usec): 30000 (USB4H00879)
Spectra Averaged: 1 (USB4H00879)
Boxcar Smoothing: 0 (USB4H00879)
Correct for Electrical Dark: No (USB4H00879)
Strobe/Lamp Enabled: No (USB4H00879)
Correct for Detector Non-linearity: No (USB4H00879)
Correct for Stray Light: No (USB4H00879)
Number of Pixels in Processed Spectrum: 3648
>>>>>Begin Processed Spectral Data<<<<<
345.13	1296.36
345.34	1296.36
345.56	1296.36
345.78	1282.03
345.99	1347.56
346.21	1464.30
346.42	1458.15
346.64	1470.44
346.86	1560.55
347.07	1517.54
347.29	1458.15
347.50	1427.43
347.72	1488.87
347.94	1519.59
348.15	1519.59
348.37	1452.01
348.59	1505.26
348.80	1462.25
349.02	1617.90
349.23	1626.09
349.45	1544.17
349.67	1636.33
349.88	1617.90
350.10	1658.85
350.31	1605.61
350.53	1591.27
350.75	1708.01
350.96	1597.42
351.18	1689.57
351.39	1615.85
351.61	1632.23
351.82	1607.66
352.04	1671.14
352.26	1636.33
352.47	1667.05
352.69	1683.43
352.90	1605.61
353.12	1611.75
353.34	1619.94
353.55	1724.39
353.77	1662.95
353.98	1628.14
354.20	1634.28
354.41	1642.47
354.63	1710.05
354.85	1675.24
355.06	1660.90
355.28	1636.33
355.49	1667.05
355.71	1660.90
355.92	1667.05
356.14	1673.19
356.35	1662.95
356.57	1644.52
356.79	1714.15
357.00	1630.18
357.22	1703.91
357.43	1644.52
357.65	1634.28
357.86	1699.81
358.08	1658.85
358.29	1755.11
358.51	1691.62
358.72	1751.01
358.94	1724.39
359.16	1677.29
359.37	1746.92
359.59	1652.71
359.80	1734.63
360.02	1677.29
360.23	1740.77
360.45	1722.34
360.66	1720.29
360.88	1687.53
361.09	1701.86
361.31	1695.72
361.52	1744.87
361.74	1712.10
361.95	1771.49
362.17	1681.38
362.38	1759.21
362.60	1755.11
362.81	1763.30
363.03	1675.24
363.24	1802.21
363.46	1771.49
363.67	1755.11
363.89	1775.59
364.10	1726.44
364.32	1720.29
364.53	1806.31
364.75	1802.21
364.96	1765.35
365.18	1816.55
365.39	1775.59
365.61	1767.40
365.82	1886.18
366.04	1841.12
366.25	1691.62
366.47	1859.56
366.68	1734.63
366.90	1759.21
367.11	1847.27
367.33	1822.69
367.54	1787.88
367.76	1802.21
367.97	1798.12
368.19	1914.85
368.40	1822.69
368.62	1742.82
368.83	1806.31
369.05	1841.12
369.26	1853.41
369.48	1853.41
369.69	1808.36
369.91	1867.75
370.12	1871.84
370.33	1847.27
370.55	1775.59
370.76	1857.51
370.98	1871.84
371.19	1865.70
371.41	1822.69
371.62	1933.28
371.84	1857.51
372.05	1892.32
372.27	1886.18
372.48	1871.84
372.69	1968.10
372.91	1925.09
373.12	1908.71
373.34	1882.08
373.55	1988.58
373.77	1955.81
373.98	1964.00
374.20	1908.71
374.41	2060.26
374.62	1933.28
374.84	1943.52
375.05	2021.35
375.27	1994.72
375.48	2041.82
375.70	1968.10
375.91	2086.88
376.12	2086.88
376.34	1976.29
376.55	1966.05
376.77	1953.76
376.98	2011.11
377.19	1949.67
377.41	2066.40
377.62	2095.07
377.84	2017.25
378.05	2148.32
378.27	2107.36
378.48	2074.59
378.69	2109.41
378.91	2166.75
379.12	1996.77
379.34	2060.26
379.55	2131.94
379.76	2117.60
379.98	2011.11
380.19	2111.46
380.41	2062.30
380.62	2099.17
380.83	2058.21
381.05	2117.60
381.26	2193.37
381.47	2187.23
381.69	2224.09
381.90	2236.38
382.12	2129.89
382.33	2154.46
382.54	2148.32
382.76	2121.70
382.97	2144.22
383.19	2121.70
383.40	2209.76
383.61	2207.71
383.83	2111.46
384.04	2140.13
384.25	2228.19
384.47	2181.09
384.68	2193.37
384.89	2207.71
385.11	2213.85
385.32	2222.05
385.54	2336.73
385.75	2189.28
385.96	2207.71
386.18	2285.53
386.39	2271.20
386.60	2234.33
386.82	2334.68
387.03	2281.44
387.24	2310.11
387.46	2312.16
387.67	2340.83
387.88	2344.92
388.10	2432.99
388.31	2355.16
388.52	2418.65
388.74	2379.74
388.95	2445.27
389.16	2441.18
389.38	2441.18
389.59	2465.75
389.80	2514.91
390.02	2496.47
390.23	2478.04
390.44	2420.70
390.66	2402.27
390.87	2533.34
391.08	2471.90
391.30	2539.48
391.51	2531.29
391.72	2572.25
391.94	2531.29
392.15	2510.81
392.36	2584.54
392.58	2570.20
392.79	2594.78
393.00	2635.74
393.22	2627.54
393.43	2623.45
393.64	2664.41
393.85	2715.61
394.07	2635.74
394.28	2648.02
394.49	2809.81
394.71	2670.55
394.92	2758.61
395.13	2641.88
395.35	2684.89
395.56	2691.03
395.77	2772.95
395.98	2758.61
396.20	2768.85
396.41	2768.85
396.62	2842.58
396.84	2854.87
397.05	2799.57
397.26	2842.58
397.47	2906.07
397.69	2840.53
397.90	2734.04
398.11	2944.98
398.32	2818.00
398.54	2811.86
398.75	2856.92
398.96	2942.93
399.18	3000.27
399.39	2879.44
399.60	2926.55
399.81	2953.17
400.03	3012.56
400.24	3223.50
400.45	2955.22
400.66	3098.58
400.88	2967.51
401.09	3026.90
401.30	3123.15
401.51	3135.44
401.73	3086.29
401.94	3123.15
402.15	3125.20
402.36	3143.63
402.58	3145.68
402.79	3221.45
403.00	3250.13
403.21	3200.98
403.43	3196.88
403.64	3268.56
403.85	3192.78
404.06	3215.31
404.27	3176.40
404.49	3258.32
404.70	3119.06
404.91	3317.71
405.12	3295.18
405.34	3200.98
405.55	3364.81
405.76	3147.73
405.97	3323.85
406.19	3268.56
406.40	3395.53
406.61	3286.99
406.82	3373.00
407.03	3428.30
407.25	3297.23
407.46	3456.97
407.67	3557.32
407.88	3459.02
408.09	3389.39
408.31	3561.42
408.52	3432.40
408.73	3379.15
408.94	3432.40
409.15	3561.42
409.37	3645.38
409.58	3440.59
409.79	3575.75
410.00	3540.94
410.21	3442.64
410.43	3487.69
410.64	3629.00
410.85	3551.18
411.06	3663.82
411.27	3712.97
411.48	3657.67
411.70	3616.71
411.91	3672.01
412.12	3770.31
412.33	3614.66
412.54	3674.06
412.76	3825.61
412.97	3721.16
413.18	3749.83
413.39	3700.68
413.60	3715.02
413.81	3774.41
414.03	3872.71
414.24	3860.42
414.45	3862.47
414.66	3639.24
414.87	3784.65
415.08	3801.03
415.30	3858.37
415.51	3893.19
415.72	3921.86
415.93	3915.72
416.14	3950.53
416.35	3882.95
416.56	3944.39
416.78	3956.68
416.99	4093.89
417.20	3952.58
417.41	3983.30
417.62	3950.53
417.83	4059.07
418.04	4081.60
418.26	4077.51
418.47	4134.85
418.68	4184.00
418.89	4202.43
419.10	4210.62
419.31	4169.66
419.52	4157.38
419.73	4222.91
419.95	4302.78
420.16	4177.86
420.37	4067.27
420.58	4184.00
420.79	4300.73
421.00	4356.03
421.21	4476.86
421.42	4224.96
421.63	4501.44
421.85	4396.99
422.06	4542.39
422.27	4384.70
422.48	4478.91
422.69	4589.50
422.90	4622.27
423.11	4646.84
423.32	4454.33
423.53	4583.35
423.75	4638.65
423.96	4802.49
424.17	4710.33
424.38	4665.27
424.59	4700.09
424.80	4968.37
425.01	4771.77
425.22	4726.71
425.43	4849.59
425.64	4792.25
425.85	4884.41
426.06	4888.50
426.28	4857.78
426.49	4949.94
426.70	5009.33
426.91	4927.41
427.12	5101.49
427.33	5089.20
427.54	5046.20
427.75	5195.70
427.96	5207.98
428.17	5113.78
428.38	5210.03
428.59	5361.58
428.80	5191.60
429.01	5359.53
429.23	5265.33
429.44	5511.08
429.65	5468.08
429.86	5476.27
430.07	5277.62
430.28	5345.20
430.49	5550.00
430.70	5574.57
430.91	5529.52
431.12	5341.10
431.33	5703.59
431.54	5572.52
431.75	5584.81
431.96	5654.44
432.17	5642.15
432.38	5687.21
432.59	5865.38
432.80	5697.45
433.01	5791.66
433.22	5982.12
433.43	5881.77
433.64	5769.13
433.85	5709.74
434.06	5896.10
434.27	5869.48
434.49	6041.51
434.70	6150.05
434.91	5967.78
435.12	5928.87
435.33	5978.02
435.54	6107.04
435.75	6014.88
435.96	6061.99
436.17	5892.01
436.38	6285.22
436.59	6225.82
436.80	6215.59
437.01	6234.02
437.22	6367.13
437.43	6315.94
437.64	6244.26
437.85	6291.36
438.06	6438.81
438.27	6203.30
438.48	6274.98
438.69	6332.32
438.90	6481.82
439.11	6494.11
439.32	6535.07
439.53	6506.40
439.74	6522.78
439.95	6782.87
440.16	6514.59
440.37	6547.36
440.57	6514.59
440.78	6610.84
440.99	6768.54
441.20	6754.20
441.41	6594.46
441.62	6641.56
441.83	6625.18
442.04	6823.83
442.25	6885.27
442.46	6801.30
442.67	7096.21
442.88	7380.88
443.09	6922.13
443.30	6963.09
443.51	7165.84
443.72	7270.29
443.93	7061.40
444.14	7264.15
444.35	6872.98
444.56	7212.95
444.77	7217.04
444.98	7092.12
445.19	7370.64
445.40	7253.91
445.61	7192.47
445.81	7374.74
446.02	7370.64
446.23	7303.06
446.44	7198.61
446.65	7354.26
446.86	7366.54
447.07	7399.31
447.28	7694.22
447.49	7643.02
447.70	7460.75
447.91	7581.58
448.12	7470.99
448.33	7731.08
448.54	7655.31
448.74	7524.24
448.95	7790.47
449.16	7585.68
449.37	8007.56
449.58	7690.12
449.79	7933.83
450.00	7694.22
450.21	7903.11
450.42	7886.73
450.63	8071.04
450.84	7882.63
451.05	7937.93
451.25	8148.87
451.46	7937.93
451.67	8318.85
451.88	8368.00
452.09	8152.96
452.30	8212.35
452.51	8124.29
452.72	8173.44
452.93	8564.61
453.13	8304.51
453.34	8308.61
453.55	8580.99
453.76	8349.57
453.97	8863.61
454.18	8748.92
454.39	8695.68
454.60	8507.26
454.81	8554.37
455.01	8855.42
455.22	8490.88
455.43	8759.16
455.64	9006.97
455.85	9232.24
456.06	9226.10
456.27	8849.27
456.48	8988.53
456.68	9252.72
456.89	9058.17
457.10	9211.76
457.31	8986.49
457.52	9244.53
457.73	9301.87
457.94	9555.82
458.14	9445.23
458.35	9633.64
458.56	9568.11
458.77	9369.46
458.98	9615.21
459.19	9742.19
459.39	9523.05
459.60	9971.56
459.81	9510.77
460.02	9977.70
460.23	9879.40
460.44	10401.63
460.65	10168.16
460.85	10239.84
461.06	10092.39
461.27	10024.81
461.48	10354.53
461.69	10442.59
461.89	10053.48
462.10	10190.69
462.31	10106.73
462.52	10159.97
462.73	10270.56
462.94	10610.53
463.14	10755.93
463.35	10575.71
463.56	10901.34
463.77	10923.87
463.98	10700.64
464.18	10807.13
464.39	11040.60
464.60	11075.42
464.81	11161.43
465.02	11183.96
465.23	11298.64
465.43	11028.31
465.64	11487.06
465.85	11626.32
466.06	11319.12
466.27	11863.88
466.47	11738.96
466.68	11665.23
466.89	12033.86
467.10	11943.75
467.30	11822.92
467.51	11896.65
467.72	12382.02
467.93	11966.28
468.14	12080.97
468.34	12214.09
468.55	12369.73
468.76	12373.83
468.97	12277.57
469.17	12568.38
469.38	12642.11
469.59	12758.85
469.80	12558.14
470.01	12515.14
470.21	12863.29
470.42	13176.63
470.63	13176.63
470.84	12885.82
471.04	13041.46
471.25	13432.63
471.46	13238.07
471.67	13520.69
471.87	13467.44
472.08	13795.12
472.29	13922.09
472.50	13483.83
472.70	13573.94
472.91	13811.50
473.12	14341.93
473.33	14090.02
473.53	14276.39
473.74	14260.01
473.95	14448.42
474.16	14679.84
474.36	14440.23
474.57	14747.42
474.78	14829.34
474.99	14653.22
475.19	14925.60
475.40	15269.66
475.61	15214.36
475.81	15621.91
476.02	15662.86
476.23	15232.79
476.44	15789.84
476.64	16168.71
476.85	16054.03
477.06	15838.99
477.27	16209.67
477.47	16510.72
477.68	16140.04
477.89	16615.17
478.09	16584.45
478.30	16658.18
478.51	16604.93
478.71	16643.84
478.92	17012.48
479.13	16920.32
479.34	17354.49
479.54	17182.46
479.75	17135.35
479.96	17370.87
480.16	17483.51
480.37	17643.25
480.58	17948.40
480.78	18183.91
480.99	17983.21
481.20	18314.98
481.41	17972.97
481.61	18376.42
481.82	18517.73
482.03	18462.44
482.23	18714.34
482.44	18783.97
482.65	18857.70
482.85	18800.35
483.06	19009.25
483.27	19216.09
483.47	19263.19
483.68	19482.33
483.89	19453.66
484.09	19472.09
484.30	19662.55
484.51	19783.38
484.71	20180.68
484.92	20010.70
485.13	20141.77
485.33	20700.87
485.54	20219.60
485.75	20823.75
485.95	20723.40
486.16	20604.61
486.37	20786.88
486.57	20836.03
486.78	21135.04
486.98	21046.97
487.19	21642.93
487.40	21624.50
487.60	21413.56
487.81	21710.52
488.02	21610.17
488.22	21468.86
488.43	22138.54
488.64	22197.93
488.84	22111.92
489.05	22382.25
489.25	22408.87
489.46	22554.28
489.67	22634.15
489.87	22478.50
490.08	22691.49
490.29	23084.70
490.49	22931.11
490.70	23172.77
490.90	23565.98
491.11	23215.77
491.32	23213.73
491.52	23707.29
491.73	23527.06
491.94	24157.84
492.14	23713.43
492.35	24065.68
492.55	23961.23
492.76	24080.02
492.97	24481.42
493.17	24168.08
493.38	24725.13
493.58	24966.79
493.79	25044.61
494.00	24669.83
494.20	24934.02
494.41	24805.00
494.61	25042.56
494.82	25278.08
495.02	24954.50
495.23	25339.52
495.44	25540.22
495.64	25769.59
495.85	25681.53
496.05	25859.70
496.26	25816.69
496.47	26304.11
496.67	25847.41
496.88	26504.81
497.08	26048.11
497.29	26490.48
497.49	26349.17
497.70	26705.51
497.91	26812.01
498.11	26746.47
498.32	26844.77
498.52	26949.22
498.73	27305.57
498.93	27197.02
499.14	27455.07
499.34	27369.05
499.55	27244.13
499.76	27405.92
499.96	27399.77
500.17	27414.11
500.37	27661.91
500.58	27598.43
500.78	27817.56
500.99	27903.57
501.19	28495.44
501.40	27915.86
501.60	28169.81
501.81	28071.51
502.02	28139.09
502.22	28440.14
502.43	28474.96
502.63	28446.29
502.84	28831.30
503.04	28743.24
503.25	28933.70
503.45	29042.24
503.66	29331.01
503.86	29003.33
504.07	29345.34
504.27	29394.50
504.48	29445.69
504.68	29511.23
504.89	29326.91
505.09	29427.26
505.30	29607.48
505.50	29888.06
505.71	30066.23
505.91	29898.30
506.12	29900.34
506.32	29834.81
506.53	29883.96
506.73	30303.79
506.94	30162.48
507.14	30334.51
507.35	30021.17
507.55	30520.88
507.76	30391.86
507.96	30473.78
508.17	30672.43
508.37	30740.01
508.58	30901.80
508.78	30436.91
508.99	30930.47
509.19	30760.49
509.40	31290.91
509.60	30946.86
509.81	31243.81
510.01	31055.40
510.22	31229.48
510.42	31405.60
510.63	31497.76
510.83	31348.26
511.04	31471.14
511.24	31311.39
511.44	31987.22
511.65	31845.91
511.85	31809.05
512.06	31716.89
512.26	31798.81
512.47	32030.23
512.67	32013.85
512.88	32306.71
513.08	31825.43
513.29	32243.22
513.49	32255.51
513.69	32247.32
513.90	32632.33
514.10	32093.72
514.31	32769.55
514.51	32749.07
514.72	32464.40
514.92	32613.90
515.13	32380.43
515.33	32853.51
515.53	33076.74
515.74	32931.34
515.94	32976.39
516.15	32988.68
516.35	32994.82
516.56	33246.72
516.76	33390.08
516.96	33084.94
517.17	33480.19
517.37	33248.77
517.58	33564.16
517.78	33795.58
517.99	33664.51
518.19	33611.26
518.39	33871.36
518.60	34346.48
518.80	33910.27
519.01	34162.17
519.21	34004.47
519.41	34178.55
519.62	34403.83
519.82	34035.19
520.03	34446.83
520.23	34381.30
520.43	34582.00
520.64	34668.02
520.84	35044.84
521.05	34479.60
521.25	35063.27
521.45	35235.30
521.66	35044.84
521.86	35200.49
522.07	35292.65
522.27	35341.80
522.47	35149.29
522.68	35792.35
522.88	35329.51
523.08	35769.82
523.29	35855.84
523.49	35669.47
523.70	35792.35
523.90	36087.26
524.10	36034.01
524.31	36197.85
524.51	36115.93
524.71	36265.43
524.92	36154.84
525.12	36605.39
525.33	36353.49
525.53	36529.62
525.73	36812.24
525.94	36541.91
526.14	36777.42
526.34	36998.60
526.55	36892.11
526.75	37187.02
526.95	37354.95
527.16	37354.95
527.36	37047.75
527.56	37592.51
527.77	37684.67
527.97	37408.20
528.17	37742.02
528.38	37846.46
528.58	37891.52
528.78	37928.38
528.99	37987.77
529.19	38706.61
529.39	37805.50
529.60	38448.57
529.80	38499.76
530.00	38190.52
530.21	38876.59
530.41	39181.74
530.61	38706.61
530.82	38737.33
531.02	38817.20
531.22	38837.68
531.43	39173.55
531.63	39466.41
531.83	39738.79
532.04	39634.34
532.24	39599.52
532.44	40156.57
532.64	39884.19
532.85	40082.84
533.05	39988.64
533.25	39972.25
533.46	40265.11
533.66	40398.23
533.86	40242.59
534.07	40410.52
534.27	40506.77
534.47	40945.04
534.67	41133.45
534.88	40951.18
535.08	40867.22
535.28	41297.29
535.49	41364.87
535.69	41639.30
535.89	41459.08
536.09	41471.37
536.30	42274.17
536.50	41850.24
536.70	41993.60
536.91	41973.12
537.11	42022.27
537.31	42114.43
537.51	42296.70
537.72	42567.03
537.92	42712.44
538.12	42802.55
538.32	42550.65
538.53	42841.46
538.73	42683.76
538.93	42802.55
539.13	42855.79
539.34	42894.71
539.54	42694.00
539.74	43322.73
539.94	43195.76
540.15	43218.28
540.35	43797.86
540.55	43152.75
540.75	43427.18
540.96	43711.84
541.16	43654.50
541.36	43767.14
541.56	43728.23
541.77	43894.11
541.97	44115.29
542.17	44404.06
542.37	44430.68
542.58	44336.48
542.78	44119.39
542.98	44559.70
543.18	44199.26
543.38	44954.96
543.59	44731.73
543.79	44672.34
543.99	44838.23
544.19	44680.53
544.40	44631.38
544.60	45450.57
544.80	44930.39
545.00	45520.20
545.20	45061.46
545.41	45450.57
545.61	45215.05
545.81	45393.23
546.01	45798.73
546.21	45509.96
546.42	45440.33
546.62	46167.36
546.82	45436.23
547.02	45505.87
547.22	46042.43
547.43	45493.58
547.63	45872.45
547.83	45909.32
548.03	45827.40
548.23	46019.91
548.44	45935.94
548.64	45935.94
548.84	45985.09
549.04	46351.68
549.24	46660.92
549.45	46476.60
549.65	46179.65
549.85	46443.84
550.05	46552.38
550.25	46531.90
550.45	47150.38
550.66	46638.39
550.86	46366.01
551.06	47119.66
551.26	47248.69
551.46	47510.83
551.66	46964.02
551.87	46880.05
552.07	47197.49
552.27	47199.54
552.47	46882.10
552.67	47183.15
552.87	46984.50
553.07	47572.27
553.28	47643.94
553.48	47764.78
553.68	47578.41
553.88	47828.26
554.08	47648.04
554.28	47793.45
554.48	47320.37
554.69	47512.88
554.89	47619.37
555.09	47850.79
555.29	47420.72
555.49	47846.69
555.69	47840.55
555.89	47605.03
556.10	48209.18
556.30	47762.73
556.50	48067.87
556.70	47957.28
556.90	48119.07
557.10	48123.17
557.30	48004.39
557.50	48448.80
557.70	48495.90
557.91	48571.67
558.11	48540.96
558.31	48327.97
558.51	48774.42
558.71	48143.65
558.91	48428.32
559.11	48588.06
559.31	48792.86
559.51	48520.48
559.72	48336.16
559.92	49014.04
560.12	48360.73
560.32	48907.54
560.52	48842.01
560.72	49368.33
560.92	48899.35
561.12	48745.75
561.32	49401.10
561.52	48719.13
561.72	49145.11
561.93	48866.58
562.13	49116.43
562.33	48911.64
562.53	49784.07
562.73	49108.24
562.93	49380.62
563.13	49507.60
563.33	48981.27
563.53	48995.60
563.73	48747.80
563.93	49200.40
564.13	49911.05
564.33	48958.74
564.53	49468.69
564.74	49648.91
564.94	49386.77
565.14	49386.77
565.34	49212.69
565.54	49634.57
565.74	49480.97
565.94	50257.15
566.14	49605.90
566.34	49751.30
566.54	50205.95
566.74	49603.85
566.94	49849.61
567.14	50021.64
567.34	49648.91
567.54	49980.68
567.74	49796.36
567.94	49708.30
568.14	49931.53
568.34	50099.46
568.54	49753.35
568.74	50105.60
568.94	50242.82
569.14	50154.75
569.34	50242.82
569.54	50070.79
569.75	49792.26
569.95	50142.47
570.15	50601.21
570.35	50287.87
570.55	50619.64
570.75	50216.19
570.95	50081.03
571.15	50388.22
571.35	50627.84
571.55	50857.21
571.75	50767.10
571.95	50851.06
572.15	50382.08
572.35	50711.80
572.55	50867.45
572.75	50750.71
572.95	50603.26
573.15	51004.66
573.35	50754.81
573.55	50828.54
573.75	50791.67
573.95	51199.22
574.15	50916.60
574.35	51082.48
574.55	51352.82
574.75	50955.51
574.95	51139.83
575.15	50644.22
575.34	51055.86
575.54	51033.33
575.74	51221.75
575.94	51332.34
576.14	51821.80
576.34	51664.11
576.54	51928.30
576.74	51772.65
576.94	51373.30
577.14	51397.87
577.34	51760.36
577.54	51504.37
577.74	51756.27
577.94	51965.16
578.14	51600.62
578.34	51809.51
578.54	51469.55
578.74	51848.42
578.94	52370.66
579.14	51703.02
579.34	51825.90
579.54	51786.99
579.74	52432.10
579.94	51743.98
580.13	52438.24
580.33	52548.83
580.53	52319.46
580.73	52042.98
580.93	52167.91
581.13	52364.51
581.33	52690.14
581.53	52608.22
581.73	52460.77
581.93	52767.96
582.13	52688.09
582.33	52651.23
582.53	52557.02
582.73	52925.66
582.92	52733.15
583.12	52864.22
583.32	52411.62
583.52	52819.16
583.72	52966.62
583.92	52802.78
584.12	53451.98
584.32	53746.89
584.52	53486.80
584.72	53253.33
584.92	53300.43
585.11	53912.78
585.31	53437.65
585.51	53849.29
585.71	53406.93
585.91	53808.33
586.11	53116.12
586.31	53519.57
586.51	53249.24
586.71	53595.34
586.91	53830.86
587.10	53361.87
587.30	54097.09
587.50	53720.27
587.70	54187.21
587.90	53955.78
588.10	53947.59
