SpectraSuite Data File
++++++++++++++++++++++++++++++++++++
Date: Tue Jun 13 12:03:49 CEST 2017
User: INFO_000
Dark Spectrum Present: No
Reference Spectrum Present: No
Number of Sampled Component Spectra: 1
Spectrometers: USB4H00879
Integration Time (usec): 30000 (USB4H00879)
Spectra Averaged: 1 (USB4H00879)
Boxcar Smoothing: 0 (USB4H00879)
Correct for Electrical Dark: No (USB4H00879)
Strobe/Lamp Enabled: No (USB4H00879)
Correct for Detector Non-linearity: No (USB4H00879)
Correct for Stray Light: No (USB4H00879)
Number of Pixels in Processed Spectrum: 3648
>>>>>Begin Processed Spectral Data<<<<<
345.13	1390.57
345.34	1390.57
345.56	1390.57
345.78	1351.66
345.99	1339.37
346.21	1472.49
346.42	1570.79
346.64	1538.02
346.86	1607.66
347.07	1576.94
347.29	1531.88
347.50	1525.74
347.72	1492.97
347.94	1542.12
348.15	1533.93
348.37	1519.59
348.59	1535.98
348.80	1466.35
349.02	1558.50
349.23	1636.33
349.45	1593.32
349.67	1621.99
349.88	1642.47
350.10	1685.48
350.31	1652.71
350.53	1556.46
350.75	1652.71
350.96	1648.61
351.18	1685.48
351.39	1640.42
351.61	1556.46
351.82	1638.38
352.04	1660.90
352.26	1632.23
352.47	1636.33
352.69	1681.38
352.90	1646.57
353.12	1585.13
353.34	1632.23
353.55	1681.38
353.77	1599.46
353.98	1646.57
354.20	1644.52
354.41	1650.66
354.63	1673.19
354.85	1689.57
355.06	1634.28
355.28	1648.61
355.49	1693.67
355.71	1648.61
355.92	1683.43
356.14	1640.42
356.35	1693.67
356.57	1570.79
356.79	1652.71
357.00	1718.25
357.22	1648.61
357.43	1693.67
357.65	1746.92
357.86	1660.90
358.08	1626.09
358.29	1650.66
358.51	1634.28
358.72	1675.24
358.94	1712.10
359.16	1685.48
359.37	1699.81
359.59	1726.44
359.80	1695.72
360.02	1730.53
360.23	1693.67
360.45	1720.29
360.66	1671.14
360.88	1693.67
361.09	1648.61
361.31	1783.78
361.52	1697.77
361.74	1804.26
361.95	1775.59
362.17	1681.38
362.38	1712.10
362.60	1712.10
362.81	1740.77
363.03	1677.29
363.24	1720.29
363.46	1734.63
363.67	1738.73
363.89	1679.33
364.10	1738.73
364.32	1640.42
364.53	1695.72
364.75	1613.80
364.96	1748.97
365.18	1740.77
365.39	1726.44
365.61	1683.43
365.82	1720.29
366.04	1748.97
366.25	1638.38
366.47	1730.53
366.68	1787.88
366.90	1652.71
367.11	1695.72
367.33	1783.78
367.54	1746.92
367.76	1748.97
367.97	1787.88
368.19	1734.63
368.40	1804.26
368.62	1724.39
368.83	1757.16
369.05	1744.87
369.26	1726.44
369.48	1755.11
369.69	1728.49
369.91	1705.96
370.12	1703.91
370.33	1738.73
370.55	1771.49
370.76	1785.83
370.98	1845.22
371.19	1804.26
371.41	1818.60
371.62	1843.17
371.84	1738.73
372.05	1865.70
372.27	1806.31
372.48	1820.64
372.69	1769.44
372.91	1865.70
373.12	1886.18
373.34	1837.03
373.55	1843.17
373.77	1820.64
373.98	1896.42
374.20	1896.42
374.41	1859.56
374.62	1796.07
374.84	1826.79
375.05	1898.47
375.27	1849.32
375.48	1853.41
375.70	1904.61
375.91	1900.52
376.12	1951.71
376.34	1832.93
376.55	1920.99
376.77	1923.04
376.98	1810.40
377.19	1820.64
377.41	1863.65
377.62	1875.94
377.84	1964.00
378.05	1974.24
378.27	1910.75
378.48	1947.62
378.69	1996.77
378.91	1871.84
379.12	1966.05
379.34	1994.72
379.55	1974.24
379.76	1935.33
379.98	1904.61
380.19	1974.24
380.41	1990.63
380.62	1918.95
380.83	1937.38
381.05	1898.47
381.26	2035.68
381.47	1978.34
381.69	1933.28
381.90	2142.18
382.12	1996.77
382.33	1978.34
382.54	1927.14
382.76	2013.15
382.97	1933.28
383.19	1953.76
383.40	2105.31
383.61	2021.35
383.83	1978.34
384.04	1982.43
384.25	2033.63
384.47	1996.77
384.68	2090.98
384.89	1984.48
385.11	1996.77
385.32	1980.39
385.54	2146.27
385.75	2039.78
385.96	2033.63
386.18	2181.09
386.39	2111.46
386.60	2037.73
386.82	2084.83
387.03	2170.85
387.24	2101.22
387.46	2176.99
387.67	2176.99
387.88	2117.60
388.10	2066.40
388.31	2193.37
388.52	2211.81
388.74	2170.85
388.95	2125.79
389.16	2197.47
389.38	2211.81
389.59	2162.66
389.80	2244.57
390.02	2181.09
390.23	2220.00
390.44	2156.51
390.66	2295.77
390.87	2222.05
391.08	2258.91
391.30	2281.44
391.51	2293.72
391.72	2324.44
391.94	2353.12
392.15	2320.35
392.36	2230.24
392.58	2256.86
392.79	2273.25
393.00	2306.01
393.22	2277.34
393.43	2412.51
393.64	2346.97
393.85	2420.70
394.07	2349.02
394.28	2291.68
394.49	2484.19
394.71	2451.42
394.92	2471.90
395.13	2297.82
395.35	2324.44
395.56	2355.16
395.77	2441.18
395.98	2367.45
396.20	2486.23
396.41	2478.04
396.62	2461.66
396.84	2412.51
397.05	2394.08
397.26	2473.95
397.47	2564.06
397.69	2371.55
397.90	2551.77
398.11	2500.57
398.32	2510.81
398.54	2529.24
398.75	2494.43
398.96	2598.87
399.18	2648.02
399.39	2641.88
399.60	2605.02
399.81	2582.49
400.03	2504.67
400.24	2768.85
400.45	2592.73
400.66	2639.83
400.88	2637.78
401.09	2729.94
401.30	2670.55
401.51	2643.93
401.73	2717.65
401.94	2686.94
402.15	2818.00
402.36	2709.46
402.58	2768.85
402.79	2701.27
403.00	2725.85
403.21	2752.47
403.43	2793.43
403.64	2770.90
403.85	2744.28
404.06	2781.14
404.27	2779.09
404.49	2803.67
404.70	2869.20
404.91	2811.86
405.12	2848.72
405.34	2768.85
405.55	2893.78
405.76	2783.19
405.97	2783.19
406.19	2865.11
406.40	2764.76
406.61	2832.34
406.82	2938.84
407.03	2932.69
407.25	2873.30
407.46	2947.03
407.67	2963.41
407.88	2953.17
408.09	2930.64
408.31	2887.64
408.52	3010.51
408.73	2963.41
408.94	2942.93
409.15	2998.23
409.37	3033.04
409.58	2987.99
409.79	3106.77
410.00	3018.71
410.21	3074.00
410.43	3069.91
410.64	3006.42
410.85	3125.20
411.06	3092.43
411.27	3129.30
411.48	3188.69
411.70	3061.71
411.91	3002.32
412.12	3162.06
412.33	3104.72
412.54	3078.10
412.76	3299.28
412.97	3123.15
413.18	3065.81
413.39	3129.30
413.60	3094.48
413.81	3180.50
414.03	3217.36
414.24	3198.93
414.45	3291.09
414.66	3229.65
414.87	3237.84
415.08	3311.57
415.30	3346.38
415.51	3344.33
415.72	3149.78
415.93	3293.13
416.14	3241.93
416.35	3350.48
416.56	3248.08
416.78	3452.88
416.99	3360.72
417.20	3321.81
417.41	3319.76
417.62	3403.72
417.83	3446.73
418.04	3377.10
418.26	3418.06
418.47	3342.28
418.68	3411.92
418.89	3479.50
419.10	3471.31
419.31	3549.13
419.52	3549.13
419.73	3581.90
419.95	3598.28
420.16	3534.79
420.37	3485.64
420.58	3569.61
420.79	3471.31
421.00	3639.24
421.21	3624.90
421.42	3545.03
421.63	3674.06
421.85	3690.44
422.06	3694.54
422.27	3649.48
422.48	3784.65
422.69	3729.35
422.90	3659.72
423.11	3735.50
423.32	3643.34
423.53	3782.60
423.75	3704.78
423.96	3895.24
424.17	3895.24
424.38	3948.48
424.59	3997.64
424.80	4020.16
425.01	3874.76
425.22	3864.52
425.43	3878.85
425.64	4128.70
425.85	4065.22
426.06	3985.35
426.28	4022.21
426.49	3977.16
426.70	4028.35
426.91	4114.37
427.12	4169.66
427.33	4161.47
427.54	4007.87
427.75	4149.18
427.96	4243.39
428.17	4206.53
428.38	4235.20
428.59	4179.90
428.80	4151.23
429.01	4206.53
429.23	4210.62
429.44	4431.80
429.65	4380.61
429.86	4323.26
430.07	4270.01
430.28	4333.50
430.49	4417.47
430.70	4528.06
430.91	4284.35
431.12	4460.48
431.33	4499.39
431.54	4548.54
431.75	4540.35
431.96	4376.51
432.17	4528.06
432.38	4530.11
432.59	4632.51
432.80	4569.02
433.01	4593.59
433.22	4628.41
433.43	4665.27
433.64	4734.90
433.85	4636.60
434.06	4751.29
434.27	4706.23
434.49	4845.49
434.70	4925.36
434.91	4773.82
435.12	4851.64
435.33	4759.48
435.54	4863.93
435.75	4741.05
435.96	4911.03
436.17	4765.62
436.38	4835.25
436.59	5060.53
436.80	4771.77
437.01	5210.03
437.22	5087.15
437.43	5081.01
437.64	4958.13
437.85	5115.83
438.06	5197.74
438.27	5089.20
438.48	5085.11
438.69	5007.28
438.90	5183.41
439.11	5152.69
439.32	5265.33
439.53	5279.66
439.74	5287.86
439.95	5199.79
440.16	5283.76
440.37	5255.09
440.57	5197.74
440.78	5279.66
440.99	5310.38
441.20	5343.15
441.41	5240.75
441.62	5388.21
441.83	5375.92
442.04	5408.69
442.25	5423.02
442.46	5494.70
442.67	5443.50
442.88	5826.47
443.09	5367.73
443.30	5511.08
443.51	5486.51
443.72	5640.11
443.93	5570.48
444.14	5711.78
444.35	5556.14
444.56	5527.47
444.77	5697.45
444.98	5482.41
445.19	5734.31
445.40	5777.32
445.61	5787.56
445.81	5840.81
446.02	5771.18
446.23	5789.61
446.44	5674.92
446.65	5599.15
446.86	5775.27
447.07	5674.92
447.28	5965.73
447.49	5965.73
447.70	5769.13
447.91	5965.73
448.12	6037.41
448.33	6033.32
448.54	5973.92
448.74	6051.75
448.95	6023.08
449.16	5980.07
449.37	6234.02
449.58	5984.16
449.79	6121.38
450.00	6104.99
450.21	6225.82
450.42	6244.26
450.63	6328.22
450.84	6248.35
451.05	6197.15
451.25	6258.59
451.46	6328.22
451.67	6465.44
451.88	6479.77
452.09	6432.67
452.30	6410.14
452.51	6444.96
452.72	6530.97
452.93	6498.20
453.13	6461.34
453.34	6578.08
453.55	6541.21
453.76	6401.95
453.97	6827.93
454.18	6680.47
454.39	6772.63
454.60	6801.30
454.81	6799.26
455.01	6944.66
455.22	6520.73
455.43	6733.72
455.64	7024.53
455.85	7055.25
456.06	6991.77
456.27	7090.07
456.48	7047.06
456.68	6979.48
456.89	7018.39
457.10	7184.27
457.31	7190.42
457.52	7133.08
457.73	7444.37
457.94	7364.50
458.14	7198.61
458.35	7393.17
458.56	7374.74
458.77	7448.46
458.98	7591.82
459.19	7548.81
459.39	7475.09
459.60	7587.72
459.81	7434.13
460.02	7657.36
460.23	7557.00
460.44	7733.13
460.65	7757.71
460.85	7839.62
461.06	7872.39
461.27	7602.06
461.48	8001.41
461.69	8058.76
461.89	7962.50
462.10	7751.56
462.31	7819.14
462.52	7696.27
462.73	8124.29
462.94	8163.20
463.14	8136.58
463.35	7997.32
463.56	8515.45
463.77	8462.21
463.98	8286.08
464.18	8357.76
464.39	8437.63
464.60	8587.13
464.81	8738.68
465.02	8451.97
465.23	8902.52
465.43	8546.17
465.64	9031.54
465.85	8742.78
466.06	8478.59
466.27	8990.58
466.47	8935.29
466.68	8859.51
466.89	8986.49
467.10	9369.46
467.30	9070.45
467.51	9117.56
467.72	9183.09
467.93	9262.96
468.14	9363.31
468.34	9348.98
468.55	9377.65
468.76	9457.52
468.97	9328.50
469.17	9686.89
469.38	9744.24
469.59	9783.15
469.80	9635.69
470.01	9492.34
470.21	9725.80
470.42	9969.51
470.63	9922.41
470.84	9781.10
471.04	10102.63
471.25	10151.78
471.46	10082.15
471.67	10354.53
471.87	10323.81
472.08	10458.98
472.29	10698.59
472.50	10153.83
472.70	10395.49
472.91	10534.75
473.12	10737.50
473.33	10790.75
473.53	10843.99
473.74	10782.56
473.95	10973.02
474.16	11167.57
474.36	11020.12
474.57	11284.31
474.78	11315.03
474.99	11241.30
475.19	10979.16
475.40	11431.76
475.61	11513.68
475.81	11749.20
476.02	11716.43
476.23	11777.87
476.44	11792.20
476.64	12105.54
476.85	12017.48
477.06	12066.63
477.27	12369.73
477.47	12212.04
477.68	12314.44
477.89	12541.76
478.09	12437.31
478.30	12429.12
478.51	12578.62
478.71	12724.03
478.92	12996.41
479.13	12947.26
479.34	13008.70
479.54	13035.32
479.75	13045.56
479.96	13023.03
480.16	12988.22
480.37	13303.60
480.58	13324.08
480.78	13645.62
480.99	13594.42
481.20	13666.10
481.41	13803.31
481.61	13741.87
481.82	13868.84
482.03	13819.69
482.23	13874.99
482.44	14173.99
482.65	14229.29
482.85	14147.37
483.06	14470.95
483.27	14511.91
483.47	14147.37
483.68	14651.17
483.89	14706.46
484.09	14665.50
484.30	14806.81
484.51	14755.61
484.71	14984.99
484.92	14982.94
485.13	15146.78
485.33	15204.12
485.54	15261.46
485.75	15247.13
485.95	15443.73
486.16	15619.86
486.37	15648.53
486.57	15652.63
486.78	15572.75
486.98	15783.70
487.19	16086.79
487.40	15947.53
487.60	15959.82
487.81	16152.33
488.02	16115.47
488.22	16029.45
488.43	16375.56
488.64	16420.61
488.84	16713.47
489.05	16643.84
489.25	16762.62
489.46	16885.50
489.67	16637.70
489.87	17010.43
490.08	16908.03
490.29	17035.00
490.49	16996.09
490.70	17311.48
490.90	17547.00
491.11	17407.73
491.32	17649.39
491.52	17288.95
491.73	17606.39
491.94	17499.89
492.14	17714.93
492.35	17827.57
492.55	17807.09
492.76	18118.38
492.97	17891.06
493.17	17983.21
493.38	18171.63
493.58	18239.21
493.79	18398.95
494.00	18476.77
494.20	18548.45
494.41	18566.88
494.61	18589.41
494.82	18497.25
495.02	18878.18
495.23	18876.13
495.44	18697.95
495.64	18857.70
495.85	19093.21
496.05	19287.77
496.26	19064.54
496.47	19150.56
496.67	19152.60
496.88	19422.94
497.08	19396.31
497.29	19556.05
497.49	19461.85
497.70	19640.02
497.91	19889.87
498.11	19797.71
498.32	19947.22
498.52	19635.92
498.73	20262.60
498.93	19924.69
499.14	19918.54
499.34	20133.58
499.55	20678.34
499.76	19963.60
499.96	20184.78
500.17	20643.52
500.37	20551.37
500.58	20559.56
500.78	20801.22
500.99	20401.86
501.19	20842.18
501.40	20956.86
501.60	20682.44
501.81	20823.75
502.02	20979.39
502.22	20842.18
502.43	21309.11
502.63	20887.23
502.84	21284.54
503.04	21067.45
503.25	21270.20
503.45	21321.40
503.66	21821.11
503.86	21491.38
504.07	21767.86
504.27	21511.86
504.48	21683.89
504.68	21667.51
504.89	21663.41
505.09	21757.62
505.30	21964.46
505.50	21757.62
505.71	21913.27
505.91	22089.39
506.12	22038.19
506.32	21931.70
506.53	22271.66
506.73	22365.87
506.94	22398.63
507.14	22124.21
507.35	22388.39
507.55	22613.67
507.76	22572.71
507.96	22421.16
508.17	22503.08
508.37	22570.66
508.58	22668.97
508.78	22650.53
508.99	22830.76
509.19	22828.71
509.40	22986.40
509.60	22738.60
509.81	22933.15
510.01	22914.72
510.22	22822.56
510.42	22937.25
510.63	23232.16
510.83	22943.39
511.04	23088.80
511.24	23070.37
511.44	23260.83
511.65	23174.81
511.85	23248.54
512.06	23506.59
512.26	23643.80
512.47	23463.58
512.67	23690.90
512.88	23922.32
513.08	23234.21
513.29	23516.83
513.49	23639.70
513.69	23783.06
513.90	23957.14
514.10	23856.79
514.31	23989.91
514.51	24338.06
514.72	23778.97
514.92	23817.88
515.13	23910.04
515.33	24053.39
515.53	24155.79
515.74	23950.99
515.94	24114.83
516.15	24424.08
516.35	24223.37
516.56	24471.18
516.76	24358.54
516.96	24614.54
517.17	24516.23
517.37	24729.22
517.58	24534.67
517.78	24712.84
517.99	24505.99
518.19	24948.36
518.39	24936.07
518.60	24850.05
518.80	24977.03
519.01	25097.86
519.21	24827.53
519.41	25185.92
519.62	24944.26
519.82	24954.50
520.03	25120.38
520.23	25486.97
520.43	25329.28
520.64	25691.77
520.84	25407.10
521.05	25407.10
521.25	25294.46
521.45	25431.68
521.66	25906.80
521.86	25341.57
522.07	25521.79
522.27	25861.75
522.47	25587.32
522.68	25910.90
522.88	26152.56
523.08	26027.63
523.29	26158.70
523.49	25906.80
523.70	26314.35
523.90	26322.54
524.10	26654.31
524.31	26582.63
524.51	26297.97
524.71	26662.51
524.92	26672.74
525.12	26875.49
525.33	26553.96
525.53	26760.81
525.73	27025.00
525.94	26771.05
526.14	26934.88
526.34	27063.91
526.55	26803.82
526.75	27041.38
526.95	27242.08
527.16	27100.77
527.36	27350.62
527.56	27242.08
527.77	27967.06
527.97	27704.92
528.17	27489.88
528.38	27801.18
528.58	27835.99
528.78	27715.16
528.99	27946.58
529.19	28014.16
529.39	27881.05
529.60	28110.42
529.80	28235.35
530.00	27727.45
530.21	28239.44
530.41	28468.81
530.61	28210.77
530.82	28362.32
531.02	28472.91
531.22	28773.96
531.43	28477.01
531.63	28718.67
531.83	28866.12
532.04	29083.20
532.24	28620.36
532.44	29021.77
532.64	28950.09
532.85	29470.27
533.05	29564.48
533.25	29318.72
533.46	29144.64
533.66	29466.17
533.86	29558.33
534.07	29896.25
534.27	29550.14
534.47	29881.91
534.67	29654.59
534.88	29771.32
535.08	30000.69
535.28	29799.99
535.49	30479.92
535.69	30404.14
535.89	30418.48
536.09	30311.99
536.30	30707.24
536.50	30258.74
536.70	30748.20
536.91	30277.17
537.11	30672.43
537.31	30885.42
537.51	30932.52
537.72	31108.65
537.92	30871.08
538.12	31297.06
538.32	30864.94
538.53	31260.20
538.73	31270.43
538.93	31356.45
539.13	31497.76
539.34	31206.95
539.54	30961.19
539.74	31680.03
539.94	31741.47
540.15	31573.53
540.35	31718.94
540.55	31739.42
540.75	31718.94
540.96	31976.98
541.16	31938.07
541.36	31966.74
541.56	32060.95
541.77	32355.86
541.97	32163.35
542.17	32149.01
542.37	32550.42
542.58	32155.16
542.78	32169.49
542.98	32296.47
543.18	32255.51
543.38	32390.67
543.59	32628.24
543.79	32708.11
543.99	32417.30
544.19	32384.53
544.40	32843.27
544.60	32904.71
544.80	32726.54
545.00	32943.63
545.20	32947.72
545.41	32511.50
545.61	32900.62
545.81	33052.17
546.01	33017.35
546.21	32994.82
546.42	33025.54
546.62	33299.97
546.82	33275.40
547.02	33058.31
547.22	33324.55
547.43	33297.92
547.63	33334.79
547.83	33402.37
548.03	33508.86
548.23	33621.50
548.44	33420.80
548.64	33506.82
548.84	33566.21
549.04	33531.39
549.24	33762.81
549.45	33885.69
549.65	33644.03
549.85	33734.14
550.05	34147.83
550.25	33689.09
550.45	34084.34
550.66	34080.25
550.86	33914.36
551.06	34004.47
551.26	34190.84
551.46	34352.63
551.66	33926.65
551.87	34012.66
552.07	34207.22
552.27	34184.69
552.47	34094.58
552.67	34383.35
552.87	34371.06
553.07	34369.01
553.28	34287.09
553.48	34694.64
553.68	34082.30
553.88	34993.64
554.08	34579.95
554.28	34450.93
554.48	34223.61
554.69	35032.55
554.89	34457.07
555.09	34559.47
555.29	34969.07
555.49	34768.37
555.69	34606.58
555.89	34735.60
556.10	34647.54
556.30	34332.15
556.50	34797.04
556.70	34661.87
556.90	34803.18
557.10	34719.21
557.30	34616.82
557.50	35040.75
557.70	35063.27
557.91	35108.33
558.11	34989.55
558.31	35171.82
558.51	35067.37
558.71	34760.17
558.91	35665.38
559.11	35378.66
559.31	35239.40
559.51	35036.65
559.72	35067.37
559.92	35349.99
560.12	35050.99
560.32	35233.25
560.52	35044.84
560.72	35366.37
560.92	35190.25
561.12	35034.60
561.32	35524.07
561.52	35339.75
561.72	35507.68
561.93	35562.98
562.13	35810.78
562.33	35532.26
562.53	35880.41
562.73	35429.86
562.93	35513.83
563.13	35657.18
563.33	35169.77
563.53	35837.41
563.73	35618.27
563.93	35618.27
564.13	35980.76
564.33	35542.50
564.53	35497.44
564.74	35661.28
564.94	35648.99
565.14	35984.86
565.34	35456.48
565.54	36103.64
565.74	35823.07
565.94	36048.35
566.14	35679.71
566.34	35958.24
566.54	36437.46
566.74	35429.86
566.94	36320.73
567.14	36140.50
567.34	36031.96
567.54	35911.13
567.74	35980.76
567.94	35808.73
568.14	36083.16
568.34	36259.29
568.54	36185.56
568.74	36482.52
568.94	36224.47
569.14	36224.47
569.34	36382.16
569.54	36503.00
569.75	36335.06
569.95	36296.15
570.15	36482.52
570.35	36527.57
570.55	36521.43
570.75	36443.60
570.95	36605.39
571.15	36482.52
571.35	36662.74
571.55	36652.50
571.75	36324.82
571.95	36634.06
572.15	36404.69
572.35	36730.32
572.55	36652.50
572.75	36767.18
572.95	36609.49
573.15	36478.42
573.35	36597.20
573.55	36683.22
573.75	36621.78
573.95	36754.90
574.15	36646.35
574.35	37062.09
574.55	36765.14
574.75	36949.45
574.95	37080.52
575.15	36832.72
575.34	36761.04
575.54	36752.85
575.74	37080.52
575.94	37199.30
576.14	36644.30
576.34	37144.01
576.54	37033.42
576.74	37377.48
576.94	37207.50
577.14	37313.99
577.34	37275.08
577.54	37215.69
577.74	37623.23
577.94	37502.40
578.14	37453.25
578.34	37488.07
578.54	37150.15
578.74	37404.10
578.94	37656.00
579.14	37393.86
579.34	37250.50
579.54	37232.07
579.74	37369.29
579.94	37434.82
580.13	37639.62
580.33	37391.81
580.53	37615.04
580.73	37930.43
580.93	37443.01
581.13	37539.27
581.33	38145.47
581.53	38127.03
581.73	37680.58
581.93	37817.79
582.13	38045.12
582.33	38321.59
582.53	37737.92
582.73	37946.81
582.92	38075.84
583.12	37905.85
583.32	38141.37
583.52	38215.10
583.72	38456.76
583.92	37883.33
584.12	38127.03
584.32	38757.81
584.52	38245.82
584.72	38221.24
584.92	38274.49
585.11	39028.14
585.31	38358.45
585.51	38579.64
585.71	38360.50
585.91	38657.46
586.11	38559.16
586.31	38419.89
586.51	38548.92
586.71	38591.92
586.91	38512.05
587.10	38987.18
587.30	38555.06
587.50	38684.08
587.70	39038.38
587.90	38641.07
588.10	38847.92
588.30	39042.48
588.50	38811.06
588.69	38843.82
