SpectraSuite Data File
++++++++++++++++++++++++++++++++++++
Date: Tue Jun 13 11:56:49 CEST 2017
User: INFO_000
Dark Spectrum Present: No
Reference Spectrum Present: No
Number of Sampled Component Spectra: 1
Spectrometers: USB4H00879
Integration Time (usec): 30000 (USB4H00879)
Spectra Averaged: 1 (USB4H00879)
Boxcar Smoothing: 0 (USB4H00879)
Correct for Electrical Dark: No (USB4H00879)
Strobe/Lamp Enabled: No (USB4H00879)
Correct for Detector Non-linearity: No (USB4H00879)
Correct for Stray Light: No (USB4H00879)
Number of Pixels in Processed Spectrum: 3648
>>>>>Begin Processed Spectral Data<<<<<
345.13	1325.04
345.34	1325.04
345.56	1325.04
345.78	1370.09
345.99	1357.80
346.21	1468.39
346.42	1513.45
346.64	1535.98
346.86	1601.51
347.07	1544.17
347.29	1527.78
347.50	1492.97
347.72	1562.60
347.94	1517.54
348.15	1441.77
348.37	1435.63
348.59	1525.74
348.80	1558.50
349.02	1615.85
349.23	1667.05
349.45	1583.08
349.67	1589.22
349.88	1566.70
350.10	1689.57
350.31	1607.66
350.53	1538.02
350.75	1656.81
350.96	1570.79
351.18	1574.89
351.39	1597.42
351.61	1591.27
351.82	1619.94
352.04	1624.04
352.26	1572.84
352.47	1712.10
352.69	1634.28
352.90	1611.75
353.12	1667.05
353.34	1589.22
353.55	1581.03
353.77	1638.38
353.98	1650.66
354.20	1599.46
354.41	1605.61
354.63	1640.42
354.85	1691.62
355.06	1740.77
355.28	1548.26
355.49	1630.18
355.71	1597.42
355.92	1572.84
356.14	1597.42
356.35	1568.74
356.57	1593.32
356.79	1658.85
357.00	1665.00
357.22	1660.90
357.43	1581.03
357.65	1617.90
357.86	1624.04
358.08	1646.57
358.29	1656.81
358.51	1632.23
358.72	1626.09
358.94	1708.01
359.16	1638.38
359.37	1628.14
359.59	1650.66
359.80	1720.29
360.02	1693.67
360.23	1644.52
360.45	1746.92
360.66	1613.80
360.88	1630.18
361.09	1613.80
361.31	1650.66
361.52	1763.30
361.74	1728.49
361.95	1757.16
362.17	1665.00
362.38	1732.58
362.60	1755.11
362.81	1654.76
363.03	1675.24
363.24	1695.72
363.46	1732.58
363.67	1634.28
363.89	1765.35
364.10	1720.29
364.32	1708.01
364.53	1673.19
364.75	1755.11
364.96	1716.20
365.18	1710.05
365.39	1759.21
365.61	1621.99
365.82	1773.54
366.04	1642.47
366.25	1751.01
366.47	1806.31
366.68	1740.77
366.90	1701.86
367.11	1804.26
367.33	1810.40
367.54	1722.34
367.76	1765.35
367.97	1718.25
368.19	1769.44
368.40	1712.10
368.62	1671.14
368.83	1732.58
369.05	1744.87
369.26	1755.11
369.48	1724.39
369.69	1720.29
369.91	1726.44
370.12	1703.91
370.33	1761.25
370.55	1677.29
370.76	1708.01
370.98	1757.16
371.19	1822.69
371.41	1775.59
371.62	1794.02
371.84	1783.78
372.05	1802.21
372.27	1761.25
372.48	1769.44
372.69	1759.21
372.91	1783.78
373.12	1785.83
373.34	1781.73
373.55	1920.99
373.77	1791.97
373.98	1824.74
374.20	1849.32
374.41	1867.75
374.62	1867.75
374.84	1783.78
375.05	1904.61
375.27	1832.93
375.48	1912.80
375.70	1785.83
375.91	1863.65
376.12	1935.33
376.34	1839.08
376.55	1890.28
376.77	1877.99
376.98	1789.92
377.19	1837.03
377.41	1857.51
377.62	1906.66
377.84	1871.84
378.05	1931.23
378.27	1814.50
378.48	1863.65
378.69	1947.62
378.91	1908.71
379.12	1900.52
379.34	1886.18
379.55	1957.86
379.76	1961.95
379.98	1974.24
380.19	1898.47
380.41	1966.05
380.62	1933.28
380.83	1949.67
381.05	1849.32
381.26	1941.47
381.47	1986.53
381.69	1910.75
381.90	2002.91
382.12	1945.57
382.33	1941.47
382.54	1937.38
382.76	2037.73
382.97	1966.05
383.19	1941.47
383.40	2000.87
383.61	1949.67
383.83	2007.01
384.04	1882.08
384.25	1880.04
384.47	1998.82
384.68	2062.30
384.89	1996.77
385.11	2025.44
385.32	2101.22
385.54	2029.54
385.75	1933.28
385.96	1980.39
386.18	2103.26
386.39	2041.82
386.60	2009.06
386.82	2119.65
387.03	2060.26
387.24	2101.22
387.46	2058.21
387.67	2133.98
387.88	2123.74
388.10	2105.31
388.31	2131.94
388.52	2072.54
388.74	2068.45
388.95	2045.92
389.16	2107.36
389.38	2050.02
389.59	2160.61
389.80	2172.89
390.02	2158.56
390.23	2191.33
390.44	2256.86
390.66	2146.27
390.87	2099.17
391.08	2215.90
391.30	2322.40
391.51	2256.86
391.72	2238.43
391.94	2246.62
392.15	2207.71
392.36	2215.90
392.58	2215.90
392.79	2265.05
393.00	2306.01
393.22	2256.86
393.43	2330.59
393.64	2228.19
393.85	2285.53
394.07	2195.42
394.28	2303.96
394.49	2332.64
394.71	2295.77
394.92	2342.88
395.13	2228.19
395.35	2318.30
395.56	2373.60
395.77	2416.60
395.98	2385.88
396.20	2422.75
396.41	2424.80
396.62	2426.84
396.84	2441.18
397.05	2363.36
397.26	2506.71
397.47	2373.60
397.69	2375.64
397.90	2535.39
398.11	2475.99
398.32	2455.51
398.54	2406.36
398.75	2496.47
398.96	2447.32
399.18	2580.44
399.39	2619.35
399.60	2437.08
399.81	2475.99
400.03	2494.43
400.24	2605.02
400.45	2465.75
400.66	2594.78
400.88	2660.31
401.09	2643.93
401.30	2639.83
401.51	2717.65
401.73	2656.22
401.94	2656.22
402.15	2641.88
402.36	2676.70
402.58	2711.51
402.79	2727.89
403.00	2693.08
403.21	2705.37
403.43	2637.78
403.64	2744.28
403.85	2609.11
404.06	2719.70
404.27	2621.40
404.49	2664.41
404.70	2672.60
404.91	2748.37
405.12	2684.89
405.34	2760.66
405.55	2963.41
405.76	2768.85
405.97	2721.75
406.19	2758.61
406.40	2820.05
406.61	2777.05
406.82	2822.10
407.03	2856.92
407.25	2758.61
407.46	2858.96
407.67	2861.01
407.88	2824.15
408.09	2838.48
408.31	2848.72
408.52	2873.30
408.73	2944.98
408.94	2828.24
409.15	2850.77
409.37	3018.71
409.58	2924.50
409.79	3026.90
410.00	2987.99
410.21	2854.87
410.43	2938.84
410.64	3004.37
410.85	3000.27
411.06	2940.88
411.27	3080.14
411.48	3063.76
411.70	3067.86
411.91	3067.86
412.12	3139.54
412.33	3026.90
412.54	3059.67
412.76	3178.45
412.97	3084.24
413.18	3088.34
413.39	3114.96
413.60	3102.67
413.81	3104.72
414.03	3106.77
414.24	3133.39
414.45	3256.27
414.66	3047.38
414.87	3147.73
415.08	3180.50
415.30	3149.78
415.51	3192.78
415.72	3168.21
415.93	3256.27
416.14	3248.08
416.35	3286.99
416.56	3209.17
416.78	3321.81
416.99	3260.37
417.20	3315.66
417.41	3309.52
417.62	3360.72
417.83	3512.27
418.04	3395.53
418.26	3416.01
418.47	3330.00
418.68	3411.92
418.89	3381.20
419.10	3473.36
419.31	3418.06
419.52	3512.27
419.73	3305.42
419.95	3497.93
420.16	3452.88
420.37	3461.07
420.58	3461.07
420.79	3325.90
421.00	3532.75
421.21	3590.09
421.42	3538.89
421.63	3571.66
421.85	3502.03
422.06	3618.76
422.27	3635.14
422.48	3545.03
422.69	3631.05
422.90	3606.47
423.11	3745.73
423.32	3682.25
423.53	3700.68
423.75	3631.05
423.96	3844.04
424.17	3766.21
424.38	3819.46
424.59	3862.47
424.80	3993.54
425.01	3749.83
425.22	3850.18
425.43	3839.94
425.64	3956.68
425.85	3934.15
426.06	3930.05
426.28	4059.07
426.49	4011.97
426.70	3960.77
426.91	4081.60
427.12	4075.46
427.33	3997.64
427.54	4046.79
427.75	4114.37
427.96	4194.24
428.17	4104.13
428.38	4157.38
428.59	4122.56
428.80	4124.61
429.01	4186.05
429.23	4165.57
429.44	4331.45
429.65	4265.92
429.86	4132.80
430.07	4218.82
430.28	4245.44
430.49	4292.54
430.70	4372.41
430.91	4464.57
431.12	4435.90
431.33	4382.65
431.54	4341.69
431.75	4419.52
431.96	4487.10
432.17	4480.96
432.38	4386.75
432.59	4628.41
432.80	4437.95
433.01	4620.22
433.22	4657.08
433.43	4579.26
433.64	4540.35
433.85	4534.20
434.06	4605.88
434.27	4695.99
434.49	4650.94
434.70	4800.44
434.91	4808.63
435.12	4825.01
435.33	4835.25
435.54	4888.50
435.75	4771.77
435.96	4687.80
436.17	4726.71
436.38	4962.23
436.59	4788.15
436.80	4810.68
437.01	5058.48
437.22	4958.13
437.43	4982.71
437.64	4814.77
437.85	5146.55
438.06	4984.76
438.27	4962.23
438.48	5007.28
438.69	5081.01
438.90	5093.30
439.11	4982.71
439.32	5158.83
439.53	5175.22
439.74	5238.70
439.95	5210.03
440.16	5027.76
440.37	5248.94
440.57	5134.26
440.78	5255.09
440.99	5314.48
441.20	5287.86
441.41	5183.41
441.62	5261.23
441.83	5298.10
442.04	5197.74
442.25	5273.52
442.46	5322.67
442.67	5455.79
442.88	5644.20
443.09	5384.11
443.30	5472.17
443.51	5361.58
443.72	5644.20
443.93	5463.98
444.14	5638.06
444.35	5509.04
444.56	5644.20
444.77	5609.39
444.98	5629.87
445.19	5644.20
445.40	5572.52
445.61	5564.33
445.81	5787.56
446.02	5777.32
446.23	5644.20
446.44	5625.77
446.65	5605.29
446.86	5656.49
447.07	5693.35
447.28	5984.16
447.49	5908.39
447.70	5935.01
447.91	5820.33
448.12	5865.38
448.33	5984.16
448.54	6109.09
448.74	6033.32
448.95	6023.08
449.16	5810.09
449.37	6000.55
449.58	6023.08
449.79	6172.58
450.00	5892.01
450.21	6219.68
450.42	6279.07
450.63	6182.82
450.84	6244.26
451.05	6203.30
451.25	6154.15
451.46	6148.00
451.67	6219.68
451.88	6281.12
452.09	6324.13
452.30	6137.76
452.51	6387.61
452.72	6432.67
452.93	6639.51
453.13	6242.21
453.34	6467.49
453.55	6504.35
453.76	6453.15
453.97	6676.38
454.18	6647.71
454.39	6584.22
454.60	6651.80
454.81	6543.26
455.01	6731.67
455.22	6602.65
455.43	6829.98
455.64	6791.06
455.85	6965.14
456.06	6961.05
456.27	6770.58
456.48	6795.16
456.68	6760.34
456.89	7016.34
457.10	6965.14
457.31	7030.68
457.52	6965.14
457.73	7171.99
457.94	7319.44
458.14	7178.13
458.35	7450.51
458.56	7399.31
458.77	7301.01
458.98	7391.12
459.19	7210.90
459.39	7497.61
459.60	7466.89
459.81	7415.69
460.02	7694.22
460.23	7628.68
460.44	7810.95
460.65	7657.36
460.85	7505.81
461.06	7800.71
461.27	7587.72
461.48	7894.92
461.69	7860.10
461.89	7751.56
462.10	7856.01
462.31	7841.67
462.52	7864.20
462.73	7716.75
462.94	7982.98
463.14	8238.98
463.35	8097.67
463.56	8384.38
463.77	8296.32
463.98	8312.71
464.18	8398.72
464.39	8392.58
464.60	8566.65
464.81	8562.56
465.02	8396.67
465.23	8605.56
465.43	8546.17
465.64	8748.92
465.85	8664.96
466.06	8556.41
466.27	9054.07
466.47	8759.16
466.68	8845.18
466.89	8992.63
467.10	8923.00
467.30	8929.14
467.51	8978.30
467.72	9285.49
467.93	9013.11
468.14	9199.48
468.34	9396.08
468.55	9193.33
468.76	9400.18
468.97	9314.16
469.17	9580.40
469.38	9420.66
469.59	9547.63
469.80	9387.89
470.01	9715.56
470.21	9621.36
470.42	9805.67
470.63	9852.78
470.84	9795.43
471.04	9934.70
471.25	9881.45
471.46	10215.27
471.67	10297.19
471.87	10002.28
472.08	10000.23
472.29	10426.21
472.50	10237.80
472.70	10342.24
472.91	10309.47
473.12	10485.60
473.33	10678.11
473.53	10581.85
473.74	10745.69
473.95	10803.04
474.16	11114.33
474.36	10870.62
474.57	10768.22
474.78	11147.09
474.99	11116.37
475.19	10911.58
475.40	11439.95
475.61	11554.64
475.81	11482.96
476.02	11708.24
476.23	11577.17
476.44	11591.50
476.64	11964.23
476.85	11841.36
477.06	11919.18
477.27	12201.80
477.47	12171.08
477.68	11986.76
477.89	12427.07
478.09	12336.96
478.30	12392.26
478.51	12527.42
478.71	12535.62
478.92	12715.84
479.13	12572.48
479.34	12986.17
479.54	12693.31
479.75	12781.37
479.96	12812.09
480.16	12912.44
480.37	13387.57
480.58	13365.04
480.78	13498.16
480.99	13203.25
481.20	13535.03
481.41	13774.64
481.61	13688.62
481.82	13616.94
482.03	13526.83
482.23	13729.58
482.44	14018.35
482.65	14047.02
482.85	14262.05
483.06	14190.38
483.27	13909.80
483.47	14436.13
483.68	14458.66
483.89	14460.71
484.09	14346.02
484.30	14599.97
484.51	14769.95
484.71	14835.49
484.92	14896.92
485.13	15036.19
485.33	15208.22
485.54	15351.57
485.75	15468.31
485.95	15421.20
486.16	15333.14
486.37	15687.44
486.57	15384.34
486.78	15576.85
486.98	15626.00
487.19	15806.22
487.40	15937.29
487.60	16021.26
487.81	16322.31
488.02	16092.94
488.22	15935.24
488.43	16117.51
488.64	16525.06
488.84	16387.85
489.05	16580.36
489.25	16432.90
489.46	16721.66
489.67	16592.64
489.87	17059.58
490.08	16926.46
490.29	16994.04
490.49	17182.46
490.70	17164.03
490.90	17420.02
491.11	17391.35
491.32	17387.25
491.52	17379.06
491.73	17284.86
491.94	17463.03
492.14	17686.26
492.35	17782.51
492.55	17895.15
492.76	18222.83
492.97	18353.90
493.17	18382.57
493.38	18175.72
493.58	18300.65
493.79	18341.61
494.00	18521.83
494.20	18378.47
494.41	18628.32
494.61	18396.90
494.82	18710.24
495.02	18716.39
495.23	18663.14
495.44	18878.18
495.64	18912.99
495.85	18900.70
496.05	19085.02
496.26	19316.44
496.47	19443.42
496.67	19470.04
496.88	19363.54
497.08	19474.13
497.29	19617.49
497.49	19547.86
497.70	19834.58
497.91	19554.01
498.11	19777.23
498.32	19865.30
498.52	20084.43
498.73	20035.28
498.93	20078.29
499.14	20436.68
499.34	19834.58
499.55	20324.04
499.76	20334.28
499.96	20250.32
500.17	20309.71
500.37	20643.52
500.58	20717.25
500.78	20598.47
500.99	20778.69
501.19	21085.89
501.40	20932.29
501.60	20594.37
501.81	20766.40
502.02	20952.77
502.22	21159.61
502.43	21130.94
502.63	21204.67
502.84	21302.97
503.04	21491.38
503.25	21305.02
503.45	21309.11
503.66	21429.94
503.86	21419.71
504.07	21649.08
504.27	21503.67
504.48	22009.52
504.68	21829.30
504.89	22087.34
505.09	21968.56
505.30	22046.38
505.50	21776.05
505.71	21991.09
505.91	21880.50
506.12	22365.87
506.32	22773.41
506.53	22267.56
506.73	22750.88
506.94	22603.43
507.14	22396.59
507.35	22318.76
507.55	22677.16
507.76	22785.70
507.96	22714.02
508.17	22697.64
508.37	22797.99
508.58	22746.79
508.78	22761.12
508.99	23211.68
509.19	22996.64
509.40	22685.35
509.60	23135.90
509.81	23066.27
510.01	23369.37
510.22	23094.94
510.42	23314.08
510.63	23047.84
510.83	23111.33
511.04	23215.77
511.24	23439.00
511.44	23375.52
511.65	23541.40
511.85	23676.57
512.06	23719.57
512.26	24047.25
512.47	23596.70
512.67	23752.34
512.88	23758.49
513.08	23778.97
513.29	23950.99
513.49	23682.71
513.69	23877.27
513.90	23985.81
514.10	23850.64
514.31	24010.39
514.51	24270.48
514.72	24235.66
514.92	23922.32
515.13	24393.36
515.33	24362.64
515.53	24442.51
515.74	24399.50
515.94	24190.61
516.15	24598.15
516.35	24342.16
516.56	24622.73
516.76	24428.17
516.96	24792.71
517.17	24770.18
517.37	24778.37
517.58	24665.74
517.78	24751.75
517.99	24563.34
518.19	24794.76
518.39	25085.57
518.60	24991.36
518.80	25089.67
519.01	25149.06
519.21	25335.42
519.41	25087.62
519.62	25398.91
519.82	25206.40
520.03	25296.51
520.23	25478.78
520.43	25306.75
520.64	25677.43
520.84	25685.62
521.05	25521.79
521.25	25753.21
521.45	26044.02
521.66	25972.34
521.86	25697.91
522.07	26060.40
522.27	26193.52
522.47	25941.62
522.68	26246.77
522.88	26119.79
523.08	26394.22
523.29	26289.77
523.49	26441.32
523.70	26201.71
523.90	26637.93
524.10	26535.53
524.31	26371.69
524.51	26639.98
524.71	26660.46
524.92	26570.35
525.12	26867.30
525.33	26885.73
525.53	26953.32
525.73	27348.57
525.94	27092.58
526.14	27227.74
526.34	27203.17
526.55	27285.09
526.75	27170.40
526.95	27199.07
527.16	27356.77
527.36	27502.17
527.56	27723.35
527.77	27418.21
527.97	27541.08
528.17	27774.55
528.38	28038.74
528.58	28108.37
528.78	27846.23
528.99	28159.57
529.19	28261.97
529.39	27922.01
529.60	28487.25
529.80	28501.58
530.00	28065.36
530.21	28587.60
530.41	28751.43
530.61	28728.91
530.82	28499.53
531.02	28837.45
531.22	28784.20
531.43	28657.23
531.63	29083.20
531.83	29263.43
532.04	29310.53
532.24	29054.53
532.44	29359.68
532.64	29609.53
532.85	29240.90
533.05	29453.89
533.25	29713.98
533.46	29435.45
533.66	29754.94
533.86	29701.69
534.07	29957.69
534.27	29972.02
534.47	30092.85
534.67	30275.12
534.88	29969.97
535.08	30010.93
535.28	30303.79
535.49	30373.42
535.69	30709.29
535.89	30733.87
536.09	30447.15
536.30	30731.82
536.50	30422.58
536.70	30934.57
536.91	30428.72
537.11	30864.94
537.31	31110.69
537.51	30819.88
537.72	31290.91
537.92	31139.36
538.12	31307.30
538.32	31217.19
538.53	31493.66
538.73	31323.68
538.93	31139.36
539.13	31399.46
539.34	31094.31
539.54	31245.86
539.74	31798.81
539.94	31733.28
540.15	31628.83
540.35	31796.76
540.55	32019.99
540.75	31618.59
540.96	32187.92
541.16	31854.11
541.36	32058.90
541.56	32079.38
541.77	32237.08
541.97	32106.01
542.17	32151.06
542.37	32495.12
542.58	32431.63
542.78	32663.05
542.98	32409.11
543.18	32681.49
543.38	32892.43
543.59	32861.71
543.79	32505.36
543.99	32966.15
544.19	32824.84
544.40	32812.56
544.60	33144.33
544.80	32802.32
545.00	33041.93
545.20	33347.08
545.41	32992.78
545.61	33062.41
545.81	33353.22
546.01	33342.98
546.21	33017.35
546.42	33025.54
546.62	33680.89
546.82	33461.76
547.02	33322.50
547.22	33601.02
547.43	33439.23
547.63	33312.26
547.83	33553.92
548.03	33543.68
548.23	33873.40
548.44	33658.37
548.64	33986.04
548.84	33752.57
549.04	33697.28
549.24	34131.45
549.45	34315.76
549.65	33951.23
549.85	33863.16
550.05	34264.57
550.25	34270.71
550.45	34393.59
550.66	34170.36
550.86	34070.01
551.06	34373.11
551.26	34803.18
551.46	34323.96
551.66	34549.23
551.87	34194.93
552.07	34641.39
552.27	34412.02
552.47	34629.10
552.67	34903.53
552.87	34436.59
553.07	34590.19
553.28	34983.40
553.48	34932.20
553.68	34604.53
553.88	35141.10
554.08	34852.33
554.28	34629.10
554.48	34751.98
554.69	34991.59
554.89	35120.62
555.09	34668.02
555.29	35010.03
555.49	35292.65
555.69	34803.18
555.89	35130.86
556.10	35206.63
556.30	35147.24
556.50	35335.65
556.70	34835.95
556.90	35374.56
557.10	35296.74
557.30	35257.83
557.50	35470.82
557.70	35626.46
557.91	35300.84
558.11	35184.10
558.31	35014.12
558.51	35245.54
558.71	35454.44
558.91	35876.32
559.11	35202.53
559.31	35356.13
559.51	35804.64
559.72	35536.35
559.92	35741.15
560.12	35462.63
560.32	35778.01
560.52	35421.67
560.72	35802.59
560.92	35911.13
561.12	35456.48
561.32	36005.34
561.52	35538.40
561.72	36160.98
561.93	35835.36
562.13	35927.52
562.33	35829.21
562.53	36425.17
562.73	35778.01
562.93	35874.27
563.13	36201.94
563.33	36193.75
563.53	36269.53
563.73	35816.93
563.93	36183.51
564.13	36218.33
564.33	36111.83
564.53	35917.28
564.74	36586.96
564.94	35839.45
565.14	36402.64
565.34	36586.96
565.54	36275.67
565.74	36277.72
565.94	36439.51
566.14	36062.68
566.34	36449.75
566.54	36814.29
566.74	36152.79
566.94	36816.33
567.14	36894.16
567.34	36357.59
567.54	36410.84
567.74	36212.18
567.94	36398.55
568.14	36670.93
568.34	36795.85
568.54	36613.59
568.74	36912.59
568.94	36769.23
569.14	36851.15
569.34	36611.54
569.54	37055.95
569.75	36836.81
569.95	36654.54
570.15	36920.78
570.35	36914.64
570.55	37139.91
570.75	37037.51
570.95	37164.49
571.15	37146.06
571.35	37426.63
571.55	36847.05
571.75	36994.51
571.95	37357.00
572.15	36953.55
572.35	37291.46
572.55	37492.16
572.75	36920.78
572.95	37414.34
573.15	37522.88
573.35	37514.69
573.55	37357.00
573.75	36849.10
573.95	37422.53
574.15	37512.64
574.35	37526.98
574.55	37727.68
574.75	37477.83
574.95	37432.77
575.15	37422.53
575.34	37756.35
575.54	37795.26
575.74	37670.34
575.94	37731.78
576.14	37524.93
576.34	37897.66
576.54	38077.88
576.74	37891.52
576.94	37789.12
577.14	38016.44
577.34	38473.14
577.54	37979.58
577.74	38178.23
577.94	37981.63
578.14	38172.09
578.34	38378.93
578.54	37610.95
578.74	37868.99
578.94	38352.31
579.14	37985.72
579.34	38208.95
579.54	37950.91
579.74	38514.10
579.94	38251.96
580.13	38694.32
580.33	38360.50
580.53	38868.40
580.73	38542.77
580.93	38456.76
581.13	38651.31
581.33	38870.45
581.53	38813.10
581.73	38860.21
581.93	38684.08
582.13	38516.15
582.33	39122.35
582.53	38747.57
582.73	38733.23
582.92	38866.35
583.12	38931.89
583.32	39011.76
583.52	38966.70
583.72	39118.25
583.92	38976.94
584.12	39267.75
584.32	39314.86
584.52	39286.18
584.72	39187.88
584.92	39544.23
585.11	39724.45
585.31	39593.38
585.51	39372.20
585.71	39654.82
585.91	39787.94
586.11	39368.10
586.31	39194.03
586.51	39630.24
586.71	39439.78
586.91	39792.03
587.10	39753.12
587.30	39806.37
587.50	39751.07
587.70	39617.96
587.90	39802.27
588.10	39853.47
588.30	39779.74
588.50	39792.03
588.69	40015.26
588.89	39839.14
