SpectraSuite Data File
++++++++++++++++++++++++++++++++++++
Date: Tue Jun 13 11:53:15 CEST 2017
User: INFO_000
Dark Spectrum Present: No
Reference Spectrum Present: No
Number of Sampled Component Spectra: 1
Spectrometers: USB4H00879
Integration Time (usec): 30000 (USB4H00879)
Spectra Averaged: 1 (USB4H00879)
Boxcar Smoothing: 0 (USB4H00879)
Correct for Electrical Dark: No (USB4H00879)
Strobe/Lamp Enabled: No (USB4H00879)
Correct for Detector Non-linearity: No (USB4H00879)
Correct for Stray Light: No (USB4H00879)
Number of Pixels in Processed Spectrum: 3648
>>>>>Begin Processed Spectral Data<<<<<
345.13	1382.38
345.34	1382.38
345.56	1382.38
345.78	1351.66
345.99	1325.04
346.21	1474.54
346.42	1599.46
346.64	1480.68
346.86	1548.26
347.07	1490.92
347.29	1476.59
347.50	1478.63
347.72	1605.61
347.94	1527.78
348.15	1417.19
348.37	1497.07
348.59	1570.79
348.80	1464.30
349.02	1603.56
349.23	1650.66
349.45	1583.08
349.67	1619.94
349.88	1667.05
350.10	1646.57
350.31	1673.19
350.53	1587.18
350.75	1693.67
350.96	1656.81
351.18	1593.32
351.39	1660.90
351.61	1570.79
351.82	1628.14
352.04	1581.03
352.26	1593.32
352.47	1613.80
352.69	1642.47
352.90	1501.16
353.12	1642.47
353.34	1654.76
353.55	1648.61
353.77	1656.81
353.98	1636.33
354.20	1660.90
354.41	1636.33
354.63	1669.09
354.85	1656.81
355.06	1675.24
355.28	1630.18
355.49	1705.96
355.71	1564.65
355.92	1703.91
356.14	1640.42
356.35	1630.18
356.57	1646.57
356.79	1640.42
357.00	1626.09
357.22	1732.58
357.43	1601.51
357.65	1755.11
357.86	1662.95
358.08	1654.76
358.29	1732.58
358.51	1662.95
358.72	1714.15
358.94	1679.33
359.16	1601.51
359.37	1720.29
359.59	1677.29
359.80	1654.76
360.02	1654.76
360.23	1685.48
360.45	1751.01
360.66	1634.28
360.88	1708.01
361.09	1658.85
361.31	1677.29
361.52	1724.39
361.74	1740.77
361.95	1718.25
362.17	1640.42
362.38	1777.64
362.60	1763.30
362.81	1718.25
363.03	1615.85
363.24	1681.38
363.46	1699.81
363.67	1720.29
363.89	1736.68
364.10	1597.42
364.32	1730.53
364.53	1681.38
364.75	1650.66
364.96	1701.86
365.18	1705.96
365.39	1757.16
365.61	1736.68
365.82	1900.52
366.04	1699.81
366.25	1699.81
366.47	1693.67
366.68	1714.15
366.90	1765.35
367.11	1746.92
367.33	1699.81
367.54	1761.25
367.76	1738.73
367.97	1859.56
368.19	1818.60
368.40	1855.46
368.62	1751.01
368.83	1757.16
369.05	1771.49
369.26	1730.53
369.48	1732.58
369.69	1699.81
369.91	1765.35
370.12	1851.36
370.33	1777.64
370.55	1769.44
370.76	1775.59
370.98	1839.08
371.19	1761.25
371.41	1785.83
371.62	1783.78
371.84	1732.58
372.05	1865.70
372.27	1726.44
372.48	1789.92
372.69	1783.78
372.91	1796.07
373.12	1873.89
373.34	1912.80
373.55	1818.60
373.77	1900.52
373.98	1818.60
374.20	1832.93
374.41	1886.18
374.62	1918.95
374.84	1902.56
375.05	1914.85
375.27	1951.71
375.48	1925.09
375.70	1851.36
375.91	1880.04
376.12	1957.86
376.34	1877.99
376.55	1994.72
376.77	1994.72
376.98	1882.08
377.19	1873.89
377.41	1923.04
377.62	1892.32
377.84	1996.77
378.05	1849.32
378.27	1929.19
378.48	1925.09
378.69	1988.58
378.91	1990.63
379.12	1933.28
379.34	1966.05
379.55	2007.01
379.76	1964.00
379.98	1918.95
380.19	1951.71
380.41	1998.82
380.62	1964.00
380.83	1931.23
381.05	1920.99
381.26	2072.54
381.47	1986.53
381.69	2064.35
381.90	2019.30
382.12	1984.48
382.33	2009.06
382.54	1990.63
382.76	1970.15
382.97	2023.39
383.19	1959.91
383.40	2037.73
383.61	2086.88
383.83	2056.16
384.04	2056.16
384.25	2093.02
384.47	2117.60
384.68	2115.55
384.89	2039.78
385.11	2095.07
385.32	2017.25
385.54	2072.54
385.75	2066.40
385.96	2138.08
386.18	2093.02
386.39	2146.27
386.60	2133.98
386.82	2097.12
387.03	2086.88
387.24	2033.63
387.46	2086.88
387.67	2205.66
387.88	2195.42
388.10	2209.76
388.31	2209.76
388.52	2185.18
388.74	2242.53
388.95	2195.42
389.16	2176.99
389.38	2217.95
389.59	2250.72
389.80	2320.35
390.02	2289.63
390.23	2310.11
390.44	2297.82
390.66	2279.39
390.87	2230.24
391.08	2293.72
391.30	2396.12
391.51	2263.01
391.72	2361.31
391.94	2342.88
392.15	2328.54
392.36	2328.54
392.58	2273.25
392.79	2379.74
393.00	2406.36
393.22	2465.75
393.43	2400.22
393.64	2383.84
393.85	2465.75
394.07	2361.31
394.28	2334.68
394.49	2498.52
394.71	2463.71
394.92	2414.56
395.13	2375.64
395.35	2531.29
395.56	2422.75
395.77	2461.66
395.98	2455.51
396.20	2568.15
396.41	2439.13
396.62	2627.54
396.84	2527.19
397.05	2572.25
397.26	2547.67
397.47	2600.92
397.69	2457.56
397.90	2539.48
398.11	2607.06
398.32	2523.10
398.54	2523.10
398.75	2590.68
398.96	2611.16
399.18	2709.46
399.39	2605.02
399.60	2590.68
399.81	2668.50
400.03	2596.82
400.24	2723.80
400.45	2572.25
400.66	2807.77
400.88	2672.60
401.09	2727.89
401.30	2779.09
401.51	2717.65
401.73	2789.33
401.94	2795.48
402.15	2809.81
402.36	2656.22
402.58	2752.47
402.79	2699.22
403.00	2768.85
403.21	2813.91
403.43	2856.92
403.64	2842.58
403.85	2826.20
404.06	2840.53
404.27	2793.43
404.49	2875.35
404.70	2811.86
404.91	2920.40
405.12	2883.54
405.34	2815.96
405.55	2961.36
405.76	2867.16
405.97	2985.94
406.19	2877.40
406.40	2887.64
406.61	2959.31
406.82	2983.89
407.03	2856.92
407.25	3018.71
407.46	2936.79
407.67	3030.99
407.88	2992.08
408.09	2969.55
408.31	3067.86
408.52	3012.56
408.73	2973.65
408.94	3006.42
409.15	3094.48
409.37	3061.71
409.58	3004.37
409.79	3121.10
410.00	3108.82
410.21	3094.48
410.43	3143.63
410.64	3096.53
410.85	3170.26
411.06	3127.25
411.27	3225.55
411.48	3186.64
411.70	3248.08
411.91	3231.69
412.12	3131.34
412.33	3080.14
412.54	3233.74
412.76	3272.65
412.97	3309.52
413.18	3168.21
413.39	3237.84
413.60	3217.36
413.81	3274.70
414.03	3338.19
414.24	3403.72
414.45	3379.15
414.66	3235.79
414.87	3420.11
415.08	3293.13
415.30	3274.70
415.51	3391.44
415.72	3297.23
415.93	3377.10
416.14	3387.34
416.35	3364.81
416.56	3424.20
416.78	3407.82
416.99	3514.31
417.20	3356.62
417.41	3522.51
417.62	3463.12
417.83	3413.96
418.04	3567.56
418.26	3526.60
418.47	3549.13
418.68	3639.24
418.89	3401.68
419.10	3571.66
419.31	3502.03
419.52	3618.76
419.73	3528.65
419.95	3766.21
420.16	3686.34
420.37	3641.29
420.58	3676.10
420.79	3643.34
421.00	3686.34
421.21	3753.93
421.42	3688.39
421.63	3659.72
421.85	3649.48
422.06	3762.12
422.27	3678.15
422.48	3803.08
422.69	3794.89
422.90	3887.04
423.11	3833.80
423.32	3833.80
423.53	3938.24
423.75	3928.00
423.96	3981.25
424.17	3915.72
424.38	4016.07
424.59	4054.98
424.80	4212.67
425.01	3995.59
425.22	4136.90
425.43	3854.28
425.64	4171.71
425.85	4106.18
426.06	4134.85
426.28	4171.71
426.49	4222.91
426.70	4038.59
426.91	4222.91
427.12	4196.29
427.33	4179.90
427.54	4278.21
427.75	4171.71
427.96	4403.13
428.17	4360.13
428.38	4399.04
428.59	4548.54
428.80	4302.78
429.01	4396.99
429.23	4503.48
429.44	4655.03
429.65	4483.00
429.86	4575.16
430.07	4353.98
430.28	4566.97
430.49	4573.11
430.70	4620.22
430.91	4638.65
431.12	4581.31
431.33	4714.42
431.54	4716.47
431.75	4607.93
431.96	4743.10
432.17	4655.03
432.38	4638.65
432.59	4804.53
432.80	4741.05
433.01	4732.86
433.22	4835.25
433.43	4870.07
433.64	4913.08
433.85	4857.78
434.06	4857.78
434.27	4794.29
434.49	5001.14
434.70	4908.98
434.91	5060.53
435.12	5019.57
435.33	4992.95
435.54	5091.25
435.75	4962.23
435.96	5042.10
436.17	4911.03
436.38	5169.07
436.59	5078.96
436.80	5062.58
437.01	5201.84
437.22	5365.68
437.43	5205.94
437.64	5027.76
437.85	5294.00
438.06	5414.83
438.27	5189.55
438.48	5224.37
438.69	5287.86
438.90	5267.38
439.11	5136.31
439.32	5296.05
439.53	5296.05
439.74	5509.04
439.95	5466.03
440.16	5396.40
440.37	5404.59
440.57	5543.85
440.78	5453.74
440.99	5521.32
441.20	5496.75
441.41	5535.66
441.62	5490.60
441.83	5310.38
442.04	5789.61
442.25	5629.87
442.46	5484.46
442.67	5760.94
442.88	5984.16
443.09	5605.29
443.30	5769.13
443.51	5636.01
443.72	5805.99
443.93	5705.64
444.14	5969.83
444.35	5656.49
444.56	5801.90
444.77	6115.23
444.98	5701.54
445.19	5777.32
445.40	5844.90
445.61	5910.44
445.81	6025.12
446.02	5978.02
446.23	5978.02
446.44	5859.24
446.65	5996.45
446.86	5918.63
447.07	6037.41
447.28	6172.58
447.49	6057.89
447.70	6182.82
447.91	6055.84
448.12	6170.53
448.33	6254.50
448.54	6254.50
448.74	6088.61
448.95	6301.60
449.16	6035.36
449.37	6471.58
449.58	6260.64
449.79	6551.45
450.00	6303.65
450.21	6375.33
450.42	6717.34
450.63	6590.36
450.84	6352.80
451.05	6305.70
451.25	6561.69
451.46	6520.73
451.67	6559.64
451.88	6778.78
452.09	6553.50
452.30	6680.47
452.51	6627.23
452.72	6766.49
452.93	6850.46
453.13	6670.23
453.34	6639.51
453.55	6791.06
453.76	6870.94
453.97	7196.56
454.18	6825.88
454.39	7040.92
454.60	6952.85
454.81	6879.13
455.01	7157.65
455.22	6913.94
455.43	6999.96
455.64	7126.93
455.85	7202.71
456.06	7260.05
456.27	7247.76
456.48	7081.88
456.68	7255.95
456.89	7405.46
457.10	7462.80
457.31	7307.15
457.52	7335.82
457.73	7481.23
457.94	7604.11
458.14	7534.48
458.35	7716.75
458.56	7589.77
458.77	7591.82
458.98	7718.79
459.19	7597.96
459.39	7716.75
459.60	7767.95
459.81	7663.50
460.02	7962.50
460.23	7929.74
460.44	8083.33
460.65	8023.94
460.85	7960.45
461.06	8132.48
461.27	7802.76
461.48	8165.25
461.69	8288.13
461.89	8019.85
462.10	8300.42
462.31	8097.67
462.52	8206.21
462.73	8327.04
462.94	8527.74
463.14	8374.14
463.35	8302.47
463.56	8824.70
463.77	8714.11
463.98	8587.13
464.18	8630.14
464.39	8732.54
464.60	8843.13
464.81	8976.25
465.02	8865.66
465.23	9049.97
465.43	8904.57
465.64	9217.91
465.85	9031.54
466.06	8957.82
466.27	9332.59
466.47	9318.26
466.68	9107.32
466.89	9338.74
467.10	9588.59
467.30	9445.23
467.51	9527.15
467.72	9525.10
467.93	9400.18
468.14	9617.26
468.34	9760.62
468.55	9848.68
468.76	9858.92
468.97	9584.49
469.17	9885.55
469.38	9881.45
469.59	10188.64
469.80	9951.08
470.01	10061.67
470.21	9899.88
470.42	10276.71
470.63	10532.70
470.84	10127.21
471.04	10510.18
471.25	10348.39
471.46	10352.48
471.67	10606.43
471.87	10696.54
472.08	10889.05
472.29	11114.33
472.50	10553.18
472.70	10526.56
472.91	10729.31
473.12	11237.20
473.33	10991.45
473.53	11102.04
473.74	11288.40
473.95	11331.41
474.16	11456.34
474.36	11437.91
474.57	11550.54
474.78	11831.12
474.99	11423.57
475.19	11521.87
475.40	11972.43
475.61	11874.12
475.81	12113.74
476.02	12083.02
476.23	11972.43
476.44	12146.50
476.64	12246.85
476.85	12498.75
477.06	12627.78
477.27	12760.89
477.47	12584.77
477.68	12732.22
477.89	12728.13
478.09	12881.72
478.30	12791.61
478.51	12861.24
478.71	13123.38
478.92	13111.10
479.13	13033.27
479.34	13262.65
479.54	13418.29
479.75	13743.92
479.96	13496.11
480.16	13565.74
480.37	13420.34
480.58	13793.07
480.78	13901.61
480.99	14098.22
481.20	14020.39
481.41	14130.98
481.61	13936.43
481.82	14122.79
482.03	14145.32
482.23	14382.88
482.44	14507.81
482.65	14812.96
482.85	14706.46
483.06	14577.44
483.27	14712.61
483.47	14804.77
483.68	15036.19
483.89	14864.16
484.09	14923.55
484.30	15185.69
484.51	15236.89
484.71	15400.72
484.92	15535.89
485.13	15521.56
485.33	15648.53
485.54	15718.16
485.75	15763.22
485.95	15900.43
486.16	16031.50
486.37	16051.98
486.57	16008.97
486.78	15994.64
486.98	16117.51
487.19	16246.54
487.40	16398.09
487.60	16787.20
487.81	16742.14
488.02	16566.02
488.22	16518.92
488.43	16729.86
488.64	17063.68
488.84	17024.76
489.05	17020.67
489.25	17028.86
489.46	17358.58
489.67	17315.58
489.87	17491.70
490.08	17485.56
490.29	17590.00
490.49	17807.09
490.70	17518.32
490.90	17884.91
491.11	17968.88
491.32	17983.21
491.52	17884.91
491.73	18050.80
491.94	17899.25
492.14	18173.67
492.35	18284.26
492.55	18097.90
492.76	18280.17
492.97	18763.49
493.17	18695.91
493.38	18587.36
493.58	18648.80
493.79	18650.85
494.00	18777.83
494.20	18874.08
494.41	19050.21
494.61	19003.10
494.82	19238.62
495.02	19115.74
495.23	19261.15
495.44	19015.39
495.64	19545.81
495.85	19453.66
496.05	19828.43
496.26	19580.63
496.47	19574.49
496.67	19695.32
496.88	19920.59
497.08	19812.05
497.29	19805.91
497.49	19975.89
497.70	20080.33
497.91	20014.80
498.11	20205.26
498.32	20371.15
498.52	20393.67
498.73	20594.37
498.93	20514.50
499.14	20598.47
499.34	20479.69
499.55	20768.45
499.76	20643.52
499.96	21159.61
500.17	20842.18
500.37	20862.66
500.58	20944.58
500.78	20928.19
500.99	21145.28
501.19	21294.78
501.40	21038.78
501.60	21288.64
501.81	21112.51
502.02	21442.23
502.22	21178.04
502.43	21487.29
502.63	21792.44
502.84	21587.64
503.04	21698.23
503.25	21702.32
503.45	21651.13
503.66	21847.73
503.86	21757.62
504.07	22042.29
504.27	21731.00
504.48	22138.54
504.68	21982.90
504.89	22136.49
505.09	22400.68
505.30	22159.02
505.50	22259.37
505.71	22034.10
505.91	22455.98
506.12	22646.44
506.32	22394.54
506.53	22779.56
506.73	22556.33
506.94	22847.14
507.14	22724.26
507.35	22797.99
507.55	22763.17
507.76	22869.67
507.96	22714.02
508.17	22867.62
508.37	23017.12
508.58	22658.73
508.78	22855.33
508.99	23215.77
509.19	23043.74
509.40	23363.23
509.60	22931.11
509.81	23314.08
510.01	23142.05
510.22	23334.56
510.42	23088.80
510.63	23740.05
510.83	23428.76
511.04	23606.94
511.24	23453.34
511.44	23598.74
511.65	23541.40
511.85	23686.81
512.06	23735.96
512.26	23791.25
512.47	23946.90
512.67	23850.64
512.88	23905.94
513.08	23795.35
513.29	23944.85
513.49	23959.19
513.69	24211.09
513.90	24163.98
514.10	23905.94
514.31	24268.43
514.51	24241.81
514.72	23994.00
514.92	24069.78
515.13	24624.78
515.33	24407.69
515.53	24358.54
515.74	24270.48
515.94	24508.04
516.15	24551.05
516.35	24444.56
516.56	24647.30
516.76	24645.26
516.96	24585.86
517.17	24999.55
517.37	24735.37
517.58	24829.57
517.78	24503.95
517.99	24874.63
518.19	24860.29
518.39	25011.84
518.60	25155.20
518.80	24796.81
519.01	25073.28
519.21	25294.46
519.41	25241.21
519.62	25380.48
519.82	25298.56
520.03	25466.49
520.23	25820.79
520.43	25726.58
520.64	25718.39
520.84	25837.17
521.05	25728.63
521.25	25753.21
521.45	25929.33
521.66	25921.14
521.86	25624.18
522.07	25728.63
522.27	25861.75
522.47	25835.13
522.68	26193.52
522.88	26123.89
523.08	26541.68
523.29	26252.91
523.49	26281.58
523.70	26297.97
523.90	26099.31
524.10	26809.96
524.31	26316.40
524.51	26601.07
524.71	26916.45
524.92	26398.32
525.12	26900.07
525.33	26879.59
525.53	26889.83
525.73	26893.93
525.94	27014.76
526.14	26912.36
526.34	27158.11
526.55	26719.85
526.75	27156.07
526.95	27002.47
527.16	27158.11
527.36	27219.55
527.56	27350.62
527.77	27668.06
527.97	27514.46
528.17	27682.39
528.38	27569.76
528.58	27631.19
528.78	27684.44
528.99	27586.14
529.19	27956.82
529.39	27567.71
529.60	27946.58
529.80	27977.30
530.00	28012.12
530.21	28343.89
530.41	28083.80
530.61	27942.49
530.82	28483.15
531.02	28104.28
531.22	28302.93
531.43	28300.88
531.63	28710.47
531.83	28923.46
532.04	29013.57
532.24	28513.87
532.44	28735.05
532.64	28808.78
532.85	28810.82
533.05	28962.37
533.25	29193.79
533.46	29218.37
533.66	28835.40
533.86	29257.28
534.07	29038.15
534.27	29607.48
534.47	29396.54
534.67	29732.41
534.88	29345.34
535.08	29562.43
535.28	29642.30
535.49	29945.40
535.69	29644.35
535.89	30043.70
536.09	29849.14
536.30	29890.10
536.50	30342.70
536.70	30096.95
536.91	30125.62
537.11	30268.98
537.31	30115.38
537.51	30377.52
537.72	30389.81
537.92	30498.35
538.12	31014.44
538.32	30533.17
538.53	30791.21
538.73	30729.77
538.93	30856.75
539.13	30758.44
539.34	31008.29
539.54	31061.54
539.74	31477.28
539.94	31028.77
540.15	31159.84
540.35	30950.95
540.55	31026.73
540.75	31077.93
540.96	30903.85
541.16	31301.15
541.36	31188.52
541.56	31297.06
541.77	31622.69
541.97	31276.58
542.17	31616.54
542.37	31692.32
542.58	31645.21
542.78	31596.06
542.98	31737.37
543.18	31565.34
543.38	32044.57
543.59	32013.85
543.79	31983.13
543.99	31639.07
544.19	32075.29
544.40	31890.97
544.60	32278.04
544.80	31784.48
545.00	32263.70
545.20	32247.32
545.41	31835.67
545.61	32134.68
545.81	32318.99
546.01	32226.84
546.21	32351.76
546.42	31989.27
546.62	32753.16
546.82	32509.46
547.02	32818.70
547.22	32413.20
547.43	32443.92
547.63	32495.12
547.83	32728.59
548.03	32607.76
548.23	32572.94
548.44	32740.88
548.64	32546.32
548.84	32566.80
549.04	32937.48
549.24	32648.72
549.45	33033.74
549.65	32671.25
549.85	32900.62
550.05	32851.47
550.25	32896.52
550.45	32996.87
550.66	32763.40
550.86	32859.66
551.06	33144.33
551.26	33056.26
551.46	33019.40
551.66	32898.57
551.87	33160.71
552.07	33285.64
552.27	33207.81
552.47	33086.98
552.67	33416.71
552.87	33330.69
553.07	33371.65
553.28	33693.18
553.48	33269.25
553.68	33308.16
553.88	33680.89
554.08	33242.63
554.28	33603.07
554.48	33488.38
554.69	33533.44
554.89	33664.51
555.09	33422.85
555.29	33895.93
555.49	33426.95
555.69	33515.01
555.89	33764.86
556.10	34004.47
556.30	33588.74
556.50	33957.37
556.70	33721.85
556.90	33637.89
557.10	33662.46
557.30	33803.77
557.50	33961.47
557.70	33596.93
557.91	33871.36
558.11	34072.06
558.31	33836.54
558.51	33689.09
558.71	33891.83
558.91	34387.44
559.11	33873.40
559.31	33863.16
559.51	33680.89
559.72	33979.90
559.92	33777.15
560.12	33926.65
560.32	33924.60
560.52	33717.76
560.72	33990.14
560.92	34260.47
561.12	33814.01
561.32	34422.26
561.52	34049.53
561.72	34563.57
561.93	33750.52
562.13	34248.18
562.33	34123.26
562.53	34358.77
562.73	33932.79
562.93	34334.20
563.13	34405.88
563.33	33701.37
563.53	34438.64
563.73	33932.79
563.93	34405.88
564.13	34280.95
564.33	34053.62
564.53	33928.70
564.74	34635.25
564.94	33988.09
565.14	34483.70
565.34	34194.93
565.54	34323.96
565.74	34352.63
565.94	34694.64
566.14	34604.53
566.34	34211.32
566.54	34479.60
566.74	34203.13
566.94	34414.07
567.14	34582.00
567.34	34239.99
567.54	34414.07
567.74	34549.23
567.94	34401.78
568.14	34172.41
568.34	34299.38
568.54	34317.81
568.74	34362.87
568.94	34291.19
569.14	34637.30
569.34	34905.58
569.54	34549.23
569.75	34065.91
569.95	34350.58
570.15	34711.02
570.35	34579.95
570.55	34291.19
570.75	34360.82
570.95	34147.83
571.15	35184.10
571.35	34311.67
571.55	34680.30
571.75	34582.00
571.95	34885.10
572.15	34493.94
572.35	34633.20
572.55	34909.68
572.75	34655.73
572.95	34745.84
573.15	34774.51
573.35	34608.62
573.55	34559.47
573.75	34874.86
573.95	35114.47
574.15	34874.86
574.35	34680.30
574.55	35274.21
574.75	34704.88
574.95	34790.89
575.15	34930.16
575.34	35038.70
575.54	34766.32
575.74	35296.74
575.94	35220.97
576.14	34850.28
576.34	35192.30
576.54	35257.83
576.74	34811.37
576.94	35304.93
577.14	35239.40
577.34	35182.06
577.54	35325.41
577.74	35091.94
577.94	35110.38
578.14	35325.41
578.34	35411.43
578.54	34903.53
578.74	35096.04
578.94	35247.59
579.14	35087.85
579.34	35251.69
579.54	35601.89
579.74	35327.46
579.94	35618.27
580.13	35315.17
580.33	35530.21
580.53	35378.66
580.73	35700.19
580.93	35007.98
581.13	35853.79
581.33	35567.07
581.53	35747.29
581.73	35714.53
581.93	35896.80
582.13	35761.63
582.33	35816.93
582.53	35814.88
582.73	35567.07
582.92	35503.59
583.12	36201.94
583.32	35921.37
583.52	35642.85
583.72	35864.03
583.92	35581.41
584.12	35694.05
584.32	36406.74
584.52	35610.08
584.72	35694.05
584.92	35898.84
585.11	36120.02
585.31	35991.00
585.51	36165.08
585.71	35870.17
585.91	36187.61
586.11	35900.89
586.31	35784.16
586.51	35945.95
586.71	35878.36
586.91	36304.34
587.10	36113.88
587.30	36058.59
587.50	36255.19
587.70	36505.04
587.90	36382.16
588.10	36429.27
588.30	36517.33
588.50	36527.57
588.69	36113.88
