SpectraSuite Data File
++++++++++++++++++++++++++++++++++++
Date: Tue Jun 13 11:52:07 CEST 2017
User: INFO_000
Dark Spectrum Present: No
Reference Spectrum Present: No
Number of Sampled Component Spectra: 1
Spectrometers: USB4H00879
Integration Time (usec): 30000 (USB4H00879)
Spectra Averaged: 1 (USB4H00879)
Boxcar Smoothing: 0 (USB4H00879)
Correct for Electrical Dark: No (USB4H00879)
Strobe/Lamp Enabled: No (USB4H00879)
Correct for Detector Non-linearity: No (USB4H00879)
Correct for Stray Light: No (USB4H00879)
Number of Pixels in Processed Spectrum: 3648
>>>>>Begin Processed Spectral Data<<<<<
345.13	1304.56
345.34	1304.56
345.56	1304.56
345.78	1339.37
345.99	1374.19
346.21	1525.74
346.42	1488.87
346.64	1503.21
346.86	1593.32
347.07	1501.16
347.29	1552.36
347.50	1419.24
347.72	1523.69
347.94	1542.12
348.15	1460.20
348.37	1474.54
348.59	1529.83
348.80	1501.16
349.02	1568.74
349.23	1671.14
349.45	1624.04
349.67	1624.04
349.88	1648.61
350.10	1646.57
350.31	1660.90
350.53	1642.47
350.75	1624.04
350.96	1667.05
351.18	1685.48
351.39	1650.66
351.61	1585.13
351.82	1660.90
352.04	1677.29
352.26	1689.57
352.47	1619.94
352.69	1630.18
352.90	1652.71
353.12	1624.04
353.34	1630.18
353.55	1638.38
353.77	1628.14
353.98	1677.29
354.20	1708.01
354.41	1630.18
354.63	1712.10
354.85	1697.77
355.06	1703.91
355.28	1636.33
355.49	1654.76
355.71	1595.37
355.92	1679.33
356.14	1650.66
356.35	1617.90
356.57	1646.57
356.79	1765.35
357.00	1734.63
357.22	1667.05
357.43	1654.76
357.65	1779.68
357.86	1650.66
358.08	1687.53
358.29	1687.53
358.51	1712.10
358.72	1759.21
358.94	1703.91
359.16	1683.43
359.37	1722.34
359.59	1658.85
359.80	1705.96
360.02	1716.20
360.23	1728.49
360.45	1648.61
360.66	1697.77
360.88	1679.33
361.09	1748.97
361.31	1763.30
361.52	1759.21
361.74	1808.36
361.95	1738.73
362.17	1669.09
362.38	1775.59
362.60	1669.09
362.81	1775.59
363.03	1791.97
363.24	1724.39
363.46	1787.88
363.67	1730.53
363.89	1759.21
364.10	1679.33
364.32	1701.86
364.53	1720.29
364.75	1730.53
364.96	1808.36
365.18	1763.30
365.39	1755.11
365.61	1814.50
365.82	1814.50
366.04	1857.51
366.25	1773.54
366.47	1746.92
366.68	1800.16
366.90	1849.32
367.11	1759.21
367.33	1849.32
367.54	1814.50
367.76	1808.36
367.97	1769.44
368.19	1843.17
368.40	1918.95
368.62	1781.73
368.83	1794.02
369.05	1855.46
369.26	1869.80
369.48	1791.97
369.69	1748.97
369.91	1867.75
370.12	1830.88
370.33	1863.65
370.55	1726.44
370.76	1812.45
370.98	1908.71
371.19	1824.74
371.41	1779.68
371.62	1904.61
371.84	1865.70
372.05	1896.42
372.27	1859.56
372.48	1947.62
372.69	1812.45
372.91	1933.28
373.12	1939.43
373.34	1802.21
373.55	2004.96
373.77	1943.52
373.98	1869.80
374.20	1855.46
374.41	2052.06
374.62	1920.99
374.84	1884.13
375.05	1998.82
375.27	1986.53
375.48	1918.95
375.70	1918.95
375.91	1996.77
376.12	1978.34
376.34	2037.73
376.55	2000.87
376.77	1974.24
376.98	1966.05
377.19	1970.15
377.41	2002.91
377.62	1914.85
377.84	1992.67
378.05	2072.54
378.27	2058.21
378.48	2060.26
378.69	2035.68
378.91	2047.97
379.12	2050.02
379.34	2064.35
379.55	2029.54
379.76	2080.74
379.98	2123.74
380.19	2066.40
380.41	2064.35
380.62	2058.21
380.83	2084.83
381.05	2058.21
381.26	2230.24
381.47	2088.93
381.69	2099.17
381.90	2183.13
382.12	2111.46
382.33	2127.84
382.54	2103.26
382.76	2138.08
382.97	2138.08
383.19	2121.70
383.40	2144.22
383.61	2211.81
383.83	2076.64
384.04	2111.46
384.25	2136.03
384.47	2164.70
384.68	2273.25
384.89	2203.61
385.11	2197.47
385.32	2275.29
385.54	2301.92
385.75	2293.72
385.96	2271.20
386.18	2301.92
386.39	2228.19
386.60	2179.04
386.82	2355.16
387.03	2340.83
387.24	2189.28
387.46	2271.20
387.67	2293.72
387.88	2236.38
388.10	2314.20
388.31	2265.05
388.52	2389.98
388.74	2377.69
388.95	2299.87
389.16	2312.16
389.38	2422.75
389.59	2408.41
389.80	2455.51
390.02	2342.88
390.23	2488.28
390.44	2422.75
390.66	2484.19
390.87	2447.32
391.08	2445.27
391.30	2523.10
391.51	2471.90
391.72	2562.01
391.94	2471.90
392.15	2424.80
392.36	2537.43
392.58	2492.38
392.79	2510.81
393.00	2578.39
393.22	2623.45
393.43	2578.39
393.64	2592.73
393.85	2650.07
394.07	2465.75
394.28	2619.35
394.49	2623.45
394.71	2648.02
394.92	2721.75
395.13	2619.35
395.35	2586.58
395.56	2574.30
395.77	2750.42
395.98	2736.09
396.20	2754.52
396.41	2750.42
396.62	2820.05
396.84	2678.74
397.05	2754.52
397.26	2820.05
397.47	2918.36
397.69	2693.08
397.90	2758.61
398.11	2807.77
398.32	2838.48
398.54	2781.14
398.75	2877.40
398.96	2861.01
399.18	2906.07
399.39	2938.84
399.60	2930.64
399.81	2863.06
400.03	2957.27
400.24	3018.71
400.45	2883.54
400.66	3047.38
400.88	3084.24
401.09	3110.86
401.30	2983.89
401.51	3061.71
401.73	2990.03
401.94	2963.41
402.15	3076.05
402.36	3035.09
402.58	3151.82
402.79	3162.06
403.00	3190.74
403.21	3141.58
403.43	3141.58
403.64	3209.17
403.85	3067.86
404.06	3149.78
404.27	3065.81
404.49	3243.98
404.70	3174.35
404.91	3096.53
405.12	3137.49
405.34	3219.41
405.55	3284.94
405.76	3114.96
405.97	3176.40
406.19	3327.95
406.40	3198.93
406.61	3233.74
406.82	3407.82
407.03	3360.72
407.25	3309.52
407.46	3321.81
407.67	3373.00
407.88	3383.24
408.09	3346.38
408.31	3379.15
408.52	3459.02
408.73	3403.72
408.94	3379.15
409.15	3549.13
409.37	3518.41
409.58	3461.07
409.79	3450.83
410.00	3600.33
410.21	3514.31
410.43	3528.65
410.64	3561.42
410.85	3563.47
411.06	3565.51
411.27	3588.04
411.48	3547.08
411.70	3555.27
411.91	3743.69
412.12	3633.10
412.33	3551.18
412.54	3674.06
412.76	3751.88
412.97	3643.34
413.18	3747.78
413.39	3745.73
413.60	3702.73
413.81	3839.94
414.03	3698.63
414.24	3721.16
414.45	3858.37
414.66	3624.90
414.87	3733.45
415.08	3876.80
415.30	3780.55
415.51	3846.09
415.72	3755.97
415.93	3901.38
416.14	4040.64
416.35	3944.39
416.56	3923.91
416.78	3880.90
416.99	3964.87
417.20	3901.38
417.41	4018.11
417.62	4083.65
417.83	4040.64
418.04	3960.77
418.26	4032.45
418.47	4016.07
418.68	4151.23
418.89	4181.95
419.10	4159.42
419.31	4059.07
419.52	4286.40
419.73	4159.42
419.95	4323.26
420.16	4267.97
420.37	4282.30
420.58	4306.88
420.79	4149.18
421.00	4347.84
421.21	4485.05
421.42	4214.72
421.63	4270.01
421.85	4255.68
422.06	4267.97
422.27	4292.54
422.48	4390.84
422.69	4456.38
422.90	4536.25
423.11	4601.79
423.32	4487.10
423.53	4669.37
423.75	4616.12
423.96	4648.89
424.17	4546.49
424.38	4741.05
424.59	4683.70
424.80	4919.22
425.01	4765.62
425.22	4870.07
425.43	4790.20
425.64	4990.90
425.85	4835.25
426.06	4822.97
426.28	4857.78
426.49	4802.49
426.70	4917.17
426.91	5033.91
427.12	4949.94
427.33	4900.79
427.54	4978.61
427.75	5040.05
427.96	5214.13
428.17	5074.87
428.38	5105.59
428.59	5242.80
428.80	5312.43
429.01	5212.08
429.23	5183.41
429.44	5466.03
429.65	5298.10
429.86	5441.45
430.07	5283.76
430.28	5197.74
430.49	5236.66
430.70	5648.30
430.91	5472.17
431.12	5558.19
431.33	5586.86
431.54	5619.63
431.75	5631.91
431.96	5580.71
432.17	5533.61
432.38	5593.00
432.59	5722.02
432.80	5713.83
433.01	5711.78
433.22	5765.03
433.43	5740.46
433.64	5697.45
433.85	5511.08
434.06	5873.57
434.27	5883.81
434.49	5887.91
434.70	6039.46
434.91	5871.53
435.12	5834.66
435.33	5947.30
435.54	6104.99
435.75	5744.55
435.96	5853.09
436.17	6129.57
436.38	6104.99
436.59	6213.54
436.80	6002.60
437.01	6475.68
437.22	6375.33
437.43	6150.05
437.64	5980.07
437.85	6307.74
438.06	6301.60
438.27	6154.15
438.48	6287.26
438.69	6471.58
438.90	6430.62
439.11	6274.98
439.32	6580.12
439.53	6371.23
439.74	6606.75
439.95	6481.82
440.16	6623.13
440.37	6397.85
440.57	6539.16
440.78	6735.77
440.99	6584.22
441.20	6680.47
441.41	6737.82
441.62	6662.04
441.83	6551.45
442.04	6823.83
442.25	6829.98
442.46	6797.21
442.67	6870.94
442.88	7192.47
443.09	6768.54
443.30	6883.22
443.51	6901.65
443.72	7149.46
443.93	6852.50
444.14	7139.22
444.35	7024.53
444.56	7108.50
444.77	7145.36
444.98	6920.09
445.19	7092.12
445.40	7221.14
445.61	7104.40
445.81	7221.14
446.02	7389.07
446.23	7151.51
446.44	7088.02
446.65	7176.08
446.86	7200.66
447.07	7440.27
447.28	7493.52
447.49	7292.82
447.70	7380.88
447.91	7524.24
448.12	7507.85
448.33	7645.07
448.54	7532.43
448.74	7577.48
448.95	7692.17
449.16	7427.98
449.37	7835.53
449.58	7538.57
449.79	7964.55
450.00	7657.36
450.21	7929.74
450.42	7878.54
450.63	7937.93
450.84	7917.45
451.05	7952.26
451.25	7829.38
451.46	7858.06
451.67	7862.15
451.88	8275.84
452.09	8269.70
452.30	8120.20
452.51	8054.66
452.72	8195.97
452.93	8331.14
453.13	8032.13
453.34	8212.35
453.55	8247.17
453.76	8300.42
453.97	8750.97
454.18	8531.84
454.39	8423.30
454.60	8548.22
454.81	8488.83
455.01	8685.44
455.22	8427.39
455.43	8578.94
455.64	8804.22
455.85	8994.68
456.06	8966.01
456.27	8726.39
456.48	8761.21
456.68	9000.82
456.89	8793.98
457.10	8992.63
457.31	9123.70
457.52	9099.13
457.73	9201.52
457.94	9383.79
458.14	9064.31
458.35	9629.55
458.56	9289.59
458.77	9437.04
458.98	9434.99
459.19	9521.01
459.39	9586.54
459.60	9693.04
459.81	9455.47
460.02	9707.37
460.23	9774.95
460.44	9994.09
460.65	9930.60
460.85	10016.62
461.06	10215.27
461.27	9791.34
461.48	10252.13
461.69	10393.44
461.89	10047.33
462.10	10248.04
462.31	10096.49
462.52	10245.99
462.73	10129.25
462.94	10524.51
463.14	10506.08
463.35	10481.50
463.56	10819.42
463.77	10757.98
463.98	10641.25
464.18	10780.51
464.39	10862.43
464.60	11149.14
464.81	11173.72
465.02	10805.08
465.23	11282.26
465.43	11052.89
465.64	11630.41
465.85	11300.69
466.06	11181.91
466.27	11710.29
466.47	11622.22
466.68	11517.78
466.89	11466.58
467.10	11802.44
467.30	11767.63
467.51	11654.99
467.72	11927.37
467.93	11839.31
468.14	12109.64
468.34	11906.89
468.55	12310.34
468.76	12214.09
468.97	11956.04
469.17	12660.54
469.38	12377.92
469.59	12390.21
469.80	12349.25
470.01	12445.51
470.21	12531.52
470.42	13063.99
470.63	13043.51
470.84	12789.56
471.04	13334.32
471.25	13051.70
471.46	13109.05
471.67	13428.53
471.87	13182.77
472.08	13502.26
472.29	13967.15
472.50	13213.49
472.70	13430.58
472.91	13702.96
473.12	13764.40
473.33	13801.26
473.53	14233.38
473.74	14188.33
473.95	14397.22
474.16	14534.43
474.36	14251.81
474.57	14532.39
474.78	14825.25
474.99	14446.37
475.19	14608.16
475.40	15179.54
475.61	14847.77
475.81	15220.50
476.02	15335.19
476.23	14903.07
476.44	15431.44
476.64	15697.68
476.85	15828.75
477.06	15685.39
477.27	16133.90
477.47	16144.14
477.68	16107.27
477.89	16060.17
478.09	16187.14
478.30	16131.85
478.51	16441.09
478.71	16772.86
478.92	16797.44
479.13	16779.01
479.34	17004.28
479.54	17164.03
479.75	17256.18
479.96	17356.54
480.16	17340.15
480.37	17258.23
480.58	17669.87
480.78	17989.36
480.99	17925.87
481.20	17858.29
481.41	18034.41
481.61	18142.96
481.82	18464.49
482.03	18181.87
482.23	18237.16
482.44	18624.23
482.65	18726.63
482.85	18599.65
483.06	18915.04
483.27	19203.80
483.47	18847.46
483.68	19091.16
483.89	19568.34
484.09	19175.13
484.30	19658.45
484.51	19728.08
484.71	19664.60
484.92	20022.99
485.13	20078.29
485.33	19904.21
485.54	20201.16
485.75	20444.87
485.95	20367.05
486.16	20309.71
486.37	20682.44
486.57	20764.36
486.78	20604.61
486.98	20725.44
487.19	21149.37
487.40	21329.59
487.60	21135.04
487.81	21759.67
488.02	21366.46
488.22	21425.85
488.43	21655.22
488.64	21638.84
488.84	22234.80
489.05	22169.26
489.25	22134.45
489.46	22689.45
489.67	22220.46
489.87	22529.70
490.08	22462.12
490.29	22714.02
490.49	23158.43
490.70	22988.45
490.90	23174.81
491.11	23082.66
491.32	23240.35
491.52	23465.63
491.73	23391.90
491.94	23486.11
492.14	23895.70
492.35	24010.39
492.55	23946.90
492.76	24016.53
492.97	23967.38
493.17	23881.36
493.38	23860.88
493.58	24706.70
493.79	24497.80
494.00	24389.26
494.20	24657.54
494.41	24835.72
494.61	24985.22
494.82	25038.47
495.02	25155.20
495.23	25013.89
495.44	25036.42
495.64	25226.88
495.85	25423.48
496.05	25251.45
496.26	25466.49
496.47	25853.56
496.67	25706.10
496.88	26222.19
497.08	25978.48
497.29	26553.96
497.49	26150.51
497.70	26283.63
497.91	26410.60
498.11	26312.30
498.32	26562.15
498.52	26525.29
498.73	27053.67
498.93	26916.45
499.14	27213.41
499.34	26787.43
499.55	27194.98
499.76	27254.37
499.96	27336.29
500.17	27383.39
500.37	27459.16
500.58	27588.19
500.78	27426.40
500.99	27696.73
501.19	28151.38
501.40	27866.71
501.60	28100.18
501.81	28128.85
502.02	28137.04
502.22	27770.46
502.43	28241.49
502.63	28587.60
502.84	28304.98
503.04	28288.59
503.25	28157.52
503.45	28581.45
503.66	28876.36
503.86	28542.54
504.07	29077.06
504.27	28694.09
504.48	29183.55
504.68	29361.73
504.89	29384.26
505.09	29507.13
505.30	29163.08
505.50	29500.99
505.71	29666.88
505.91	29765.18
506.12	29711.93
506.32	29849.14
506.53	29666.88
506.73	30260.79
506.94	30289.46
507.14	29943.35
507.35	30164.53
507.55	30064.18
507.76	30486.06
507.96	30375.47
508.17	29969.97
508.37	30099.00
508.58	30688.81
508.78	30617.13
508.99	30762.54
509.19	30682.67
509.40	30707.24
509.60	30844.46
509.81	31030.82
510.01	31174.18
510.22	30727.72
510.42	31284.77
510.63	31366.69
510.83	31165.99
511.04	31165.99
511.24	31284.77
511.44	31677.98
511.65	31553.05
511.85	31295.01
512.06	31618.59
512.26	31675.93
512.47	31858.20
512.67	31874.59
512.88	31821.34
513.08	31577.63
513.29	32204.31
513.49	32179.73
513.69	31852.06
513.90	32149.01
514.10	32249.36
514.31	32257.56
514.51	32411.15
514.72	32343.57
514.92	32103.96
515.13	32300.56
515.33	32540.18
515.53	32669.20
515.74	32581.13
515.94	32773.64
516.15	32804.36
516.35	32462.35
516.56	32964.10
516.76	33326.60
516.96	32947.72
517.17	33201.67
517.37	33084.94
517.58	33357.32
517.78	33160.71
517.99	33201.67
518.19	33906.17
518.39	33541.63
518.60	33826.30
518.80	33842.68
519.01	33689.09
519.21	33572.35
519.41	33590.78
519.62	33576.45
519.82	34330.10
520.03	34000.38
520.23	34348.53
520.43	34070.01
520.64	34731.50
520.84	34557.42
521.05	34616.82
521.25	34661.87
521.45	34567.66
521.66	34944.49
521.86	34704.88
522.07	34723.31
522.27	35243.49
522.47	35268.07
522.68	35313.13
522.88	35016.17
523.08	35395.04
523.29	35454.44
523.49	35599.84
523.70	35542.50
523.90	35792.35
524.10	35792.35
524.31	36124.12
524.51	35761.63
524.71	36189.66
524.92	35913.18
525.12	36369.88
525.33	36146.65
525.53	36433.36
525.73	36492.76
525.94	36576.72
526.14	36715.98
526.34	36746.70
526.55	36986.32
526.75	36603.35
526.95	36998.60
527.16	37131.72
527.36	37072.33
527.56	37641.67
527.77	38012.35
527.97	37324.23
528.17	37658.05
528.38	37608.90
528.58	37533.12
528.78	37965.24
528.99	37766.59
529.19	37856.70
529.39	38077.88
529.60	38614.45
529.80	38194.62
530.00	38450.61
530.21	38491.57
530.41	38671.79
530.61	38337.98
530.82	38612.40
531.02	38868.40
531.22	39171.50
531.43	38987.18
531.63	39015.85
531.83	39069.10
532.04	39968.16
532.24	38860.21
532.44	39667.11
532.64	39550.37
532.85	39599.52
533.05	40037.79
533.25	40025.50
533.46	39990.69
533.66	40457.62
533.86	40310.17
534.07	40613.27
534.27	40435.10
534.47	40867.22
534.67	40560.02
534.88	40488.34
535.08	40918.42
535.28	40951.18
535.49	40926.61
535.69	41581.96
535.89	41276.81
536.09	41254.28
536.30	41678.21
536.50	41803.14
536.70	42057.09
536.91	42118.53
537.11	41876.86
537.31	41997.70
537.51	42065.28
537.72	42249.60
537.92	42065.28
538.12	42732.92
538.32	42100.09
538.53	42720.63
538.73	42378.62
538.93	42734.96
539.13	42610.04
539.34	42739.06
539.54	42624.37
539.74	43281.77
539.94	43089.26
540.15	43087.21
540.35	43556.20
540.55	42894.71
540.75	43636.07
540.96	43711.84
541.16	43816.29
541.36	43640.17
541.56	43767.14
541.77	44021.09
541.97	43752.80
542.17	44426.59
542.37	43894.11
542.58	43937.12
542.78	44004.70
542.98	43943.27
543.18	44430.68
543.38	44651.86
543.59	44860.76
543.79	44301.66
543.99	44625.24
544.19	44744.02
544.40	44586.33
544.60	45296.97
544.80	45065.55
545.00	44766.55
545.20	45344.08
545.41	45086.03
545.61	45043.02
545.81	45274.45
546.01	45466.95
546.21	45309.26
546.42	45075.79
546.62	45469.00
546.82	45397.32
547.02	45696.33
547.22	45780.29
547.43	45258.06
547.63	45831.49
547.83	45829.44
548.03	45704.52
548.23	46054.72
548.44	45894.98
548.64	46497.08
548.84	46040.39
549.04	46118.21
549.24	46155.07
549.45	46613.82
549.65	46615.86
549.85	46441.79
550.05	46540.09
550.25	46742.84
550.45	47000.88
550.66	46445.88
550.86	46261.57
551.06	46767.41
551.26	46998.83
551.46	46712.12
551.66	46669.11
551.87	46773.56
552.07	47095.09
552.27	47197.49
552.47	46998.83
552.67	47420.72
552.87	46855.48
553.07	47619.37
553.28	47293.74
553.48	47582.51
553.68	47519.02
553.88	47602.99
554.08	47363.37
554.28	47404.33
554.48	47111.47
554.69	47641.90
554.89	47562.03
555.09	47650.09
555.29	47719.72
555.49	47871.27
555.69	47988.00
555.89	47852.84
556.10	48190.75
556.30	47529.26
556.50	48160.03
556.70	47910.18
556.90	48256.29
557.10	48233.76
557.30	47770.92
557.50	48518.43
557.70	48493.85
557.91	48649.50
558.11	48397.60
558.31	48694.55
558.51	48459.04
558.71	48057.63
558.91	48461.08
559.11	48454.94
559.31	48700.70
559.51	48620.83
559.72	48600.35
559.92	48702.74
560.12	48485.66
560.32	48551.20
560.52	48790.81
560.72	48803.10
560.92	49028.37
561.12	49102.10
561.32	49362.19
561.52	48319.77
561.72	49382.67
561.93	48870.68
562.13	49079.57
562.33	48665.88
562.53	49597.71
562.73	49261.84
562.93	49100.05
563.13	49566.99
563.33	49081.62
563.53	49579.28
563.73	49323.28
563.93	49302.80
564.13	49679.63
564.33	49112.34
564.53	49241.36
564.74	49456.40
564.94	49243.41
565.14	49603.85
565.34	49124.63
565.54	49409.29
565.74	49675.53
565.94	49894.66
566.14	49712.39
566.34	49442.06
566.54	50332.93
566.74	49573.13
566.94	49784.07
567.14	49779.98
567.34	50066.69
567.54	49964.29
567.74	49523.98
567.94	50179.33
568.14	50195.71
568.34	50545.92
568.54	50119.94
568.74	50285.82
568.94	49822.98
569.14	50693.37
569.34	50404.61
569.54	50187.52
569.75	50300.16
569.95	50525.44
570.15	50799.86
570.35	50496.77
570.55	50267.39
570.75	50461.95
570.95	50271.49
571.15	50513.15
571.35	50750.71
571.55	51123.44
571.75	50781.43
571.95	50615.55
572.15	50693.37
572.35	51059.96
572.55	50789.62
572.75	50957.56
572.95	50910.46
573.15	50994.42
573.35	50894.07
573.55	50496.77
573.75	50715.90
573.95	51049.72
574.15	51113.20
574.35	51371.25
574.55	51391.73
574.75	50951.41
574.95	51504.37
575.15	51033.33
575.34	51549.42
575.54	51336.43
575.74	51692.78
575.94	51623.15
576.14	51922.15
576.34	51352.82
576.54	51877.10
576.74	51725.55
576.94	51885.29
577.14	51981.54
577.34	52464.86
577.54	51571.95
577.74	52088.04
577.94	51688.68
578.14	51930.34
578.34	52237.54
578.54	51449.07
578.74	52024.55
578.94	52538.59
579.14	51844.33
579.34	51950.82
579.54	52264.16
579.74	52716.76
579.94	52212.96
580.13	52389.09
580.33	52718.81
580.53	52761.82
580.73	52481.25
580.93	52374.75
581.13	52788.44
581.33	52782.30
581.53	52554.97
581.73	53023.96
581.93	52532.45
582.13	52976.86
582.33	53230.80
582.53	53054.68
582.73	52911.32
582.92	53050.58
583.12	53525.71
583.32	53023.96
583.52	53290.19
583.72	53251.28
583.92	53093.59
584.12	53615.82
584.32	53904.59
584.52	53396.69
584.72	53339.35
584.92	53660.88
585.11	54265.03
585.31	53701.84
585.51	53972.17
585.71	54117.57
585.91	54281.41
586.11	53542.10
586.31	53435.60
586.51	53894.35
586.71	53837.00
586.91	54117.57
587.10	54248.64
587.30	53880.01
587.50	54686.91
587.70	54367.43
587.90	54680.77
588.10	54232.26
588.30	54146.25
