SpectraSuite Data File
++++++++++++++++++++++++++++++++++++
Date: Tue Jun 13 11:52:07 CEST 2017
User: INFO_000
Dark Spectrum Present: No
Reference Spectrum Present: No
Number of Sampled Component Spectra: 1
Spectrometers: USB4H00879
Integration Time (usec): 30000 (USB4H00879)
Spectra Averaged: 1 (USB4H00879)
Boxcar Smoothing: 0 (USB4H00879)
Correct for Electrical Dark: No (USB4H00879)
Strobe/Lamp Enabled: No (USB4H00879)
Correct for Detector Non-linearity: No (USB4H00879)
Correct for Stray Light: No (USB4H00879)
Number of Pixels in Processed Spectrum: 3648
>>>>>Begin Processed Spectral Data<<<<<
345.13	1296.36
345.34	1296.36
345.56	1296.36
345.78	1308.65
345.99	1370.09
346.21	1490.92
346.42	1488.87
346.64	1581.03
346.86	1486.83
347.07	1501.16
347.29	1472.49
347.50	1542.12
347.72	1535.98
347.94	1480.68
348.15	1513.45
348.37	1480.68
348.59	1533.93
348.80	1509.35
349.02	1597.42
349.23	1683.43
349.45	1636.33
349.67	1636.33
349.88	1634.28
350.10	1718.25
350.31	1626.09
350.53	1681.38
350.75	1712.10
350.96	1589.22
351.18	1675.24
351.39	1619.94
351.61	1619.94
351.82	1689.57
352.04	1710.05
352.26	1654.76
352.47	1667.05
352.69	1693.67
352.90	1533.93
353.12	1617.90
353.34	1646.57
353.55	1708.01
353.77	1669.09
353.98	1691.62
354.20	1613.80
354.41	1683.43
354.63	1648.61
354.85	1615.85
355.06	1652.71
355.28	1599.46
355.49	1703.91
355.71	1648.61
355.92	1658.85
356.14	1648.61
356.35	1646.57
356.57	1673.19
356.79	1652.71
357.00	1640.42
357.22	1771.49
357.43	1662.95
357.65	1738.73
357.86	1650.66
358.08	1785.83
358.29	1640.42
358.51	1732.58
358.72	1697.77
358.94	1677.29
359.16	1705.96
359.37	1669.09
359.59	1722.34
359.80	1816.55
360.02	1716.20
360.23	1734.63
360.45	1705.96
360.66	1675.24
360.88	1726.44
361.09	1734.63
361.31	1722.34
361.52	1685.48
361.74	1755.11
361.95	1769.44
362.17	1716.20
362.38	1826.79
362.60	1794.02
362.81	1753.06
363.03	1757.16
363.24	1759.21
363.46	1761.25
363.67	1818.60
363.89	1730.53
364.10	1810.40
364.32	1701.86
364.53	1837.03
364.75	1677.29
364.96	1777.64
365.18	1763.30
365.39	1783.78
365.61	1744.87
365.82	1806.31
366.04	1806.31
366.25	1738.73
366.47	1781.73
366.68	1789.92
366.90	1726.44
367.11	1779.68
367.33	1798.12
367.54	1875.94
367.76	1761.25
367.97	1826.79
368.19	1828.84
368.40	1830.88
368.62	1802.21
368.83	1759.21
369.05	1771.49
369.26	1794.02
369.48	1753.06
369.69	1775.59
369.91	1869.80
370.12	1939.43
370.33	1943.52
370.55	1816.55
370.76	1810.40
370.98	1843.17
371.19	1865.70
371.41	1884.13
371.62	1861.60
371.84	1814.50
372.05	1920.99
372.27	1937.38
372.48	1841.12
372.69	1830.88
372.91	1894.37
373.12	1908.71
373.34	1841.12
373.55	1892.32
373.77	1877.99
373.98	1916.90
374.20	1939.43
374.41	1929.19
374.62	2013.15
374.84	1984.48
375.05	1949.67
375.27	1923.04
375.48	2043.87
375.70	2011.11
375.91	2019.30
376.12	1994.72
376.34	2021.35
376.55	1937.38
376.77	1933.28
376.98	1996.77
377.19	1951.71
377.41	2017.25
377.62	1966.05
377.84	2009.06
378.05	2056.16
378.27	2002.91
378.48	2033.63
378.69	2082.78
378.91	2070.50
379.12	2082.78
379.34	2033.63
379.55	2080.74
379.76	2035.68
379.98	2019.30
380.19	2027.49
380.41	2074.59
380.62	2093.02
380.83	2146.27
381.05	1949.67
381.26	2072.54
381.47	2127.84
381.69	2031.58
381.90	2181.09
382.12	2172.89
382.33	2154.46
382.54	2084.83
382.76	2220.00
382.97	2193.37
383.19	2101.22
383.40	2203.61
383.61	2185.18
383.83	2246.62
384.04	2162.66
384.25	2140.13
384.47	2287.58
384.68	2240.48
384.89	2195.42
385.11	2281.44
385.32	2207.71
385.54	2123.74
385.75	2232.29
385.96	2389.98
386.18	2295.77
386.39	2318.30
386.60	2211.81
386.82	2222.05
387.03	2267.10
387.24	2332.64
387.46	2346.97
387.67	2322.40
387.88	2246.62
388.10	2332.64
388.31	2295.77
388.52	2332.64
388.74	2422.75
388.95	2465.75
389.16	2484.19
389.38	2330.59
389.59	2475.99
389.80	2508.76
390.02	2402.27
390.23	2508.76
390.44	2394.08
390.66	2424.80
390.87	2488.28
391.08	2457.56
391.30	2568.15
391.51	2500.57
391.72	2531.29
391.94	2506.71
392.15	2559.96
392.36	2521.05
392.58	2506.71
392.79	2506.71
393.00	2625.50
393.22	2574.30
393.43	2662.36
393.64	2537.43
393.85	2734.04
394.07	2568.15
394.28	2596.82
394.49	2588.63
394.71	2627.54
394.92	2736.09
395.13	2686.94
395.35	2654.17
395.56	2701.27
395.77	2723.80
395.98	2715.61
396.20	2844.63
396.41	2701.27
396.62	2799.57
396.84	2682.84
397.05	2719.70
397.26	2877.40
397.47	2889.68
397.69	2762.71
397.90	2893.78
398.11	2865.11
398.32	2873.30
398.54	2822.10
398.75	2836.44
398.96	2883.54
399.18	2940.88
399.39	3002.32
399.60	2910.16
399.81	2897.88
400.03	2973.65
400.24	3033.04
400.45	2873.30
400.66	2932.69
400.88	3026.90
401.09	3033.04
401.30	3018.71
401.51	3119.06
401.73	3086.29
401.94	3039.19
402.15	3061.71
402.36	3092.43
402.58	3069.91
402.79	3127.25
403.00	3221.45
403.21	3063.76
403.43	3088.34
403.64	3221.45
403.85	3254.22
404.06	3182.54
404.27	3133.39
404.49	3182.54
404.70	3143.63
404.91	3225.55
405.12	3182.54
405.34	3160.02
405.55	3237.84
405.76	3160.02
405.97	3217.36
406.19	3338.19
406.40	3223.50
406.61	3368.91
406.82	3489.74
407.03	3327.95
407.25	3315.66
407.46	3383.24
407.67	3493.83
407.88	3362.76
408.09	3297.23
408.31	3489.74
408.52	3456.97
408.73	3407.82
408.94	3379.15
409.15	3459.02
409.37	3534.79
409.58	3485.64
409.79	3518.41
410.00	3532.75
410.21	3448.78
410.43	3422.16
410.64	3428.30
410.85	3579.85
411.06	3633.10
411.27	3540.94
411.48	3692.49
411.70	3653.58
411.91	3585.99
412.12	3803.08
412.33	3663.82
412.54	3643.34
412.76	3702.73
412.97	3635.14
413.18	3641.29
413.39	3758.02
413.60	3792.84
413.81	3721.16
414.03	3608.52
414.24	3715.02
414.45	3819.46
414.66	3688.39
414.87	3919.81
415.08	3786.69
415.30	3844.04
415.51	3903.43
415.72	3811.27
415.93	3938.24
416.14	3780.55
416.35	3911.62
416.56	3952.58
416.78	3960.77
416.99	3919.81
417.20	3885.00
417.41	3999.68
417.62	3917.76
417.83	4044.74
418.04	4069.31
418.26	4093.89
418.47	4028.35
418.68	4257.73
418.89	4038.59
419.10	4157.38
419.31	4177.86
419.52	4280.25
419.73	4298.69
419.95	4188.10
420.16	4179.90
420.37	4192.19
420.58	4147.14
420.79	4159.42
421.00	4290.49
421.21	4437.95
421.42	4364.22
421.63	4249.54
421.85	4259.78
422.06	4370.37
422.27	4425.66
422.48	4372.41
422.69	4444.09
422.90	4626.36
423.11	4526.01
423.32	4435.90
423.53	4634.55
423.75	4581.31
423.96	4767.67
424.17	4646.84
424.38	4782.01
424.59	4784.06
424.80	4984.76
425.01	4669.37
425.22	4786.10
425.43	4683.70
425.64	4911.03
425.85	4913.08
426.06	4884.41
426.28	4853.69
426.49	4784.06
426.70	4933.56
426.91	4890.55
427.12	5029.81
427.33	4933.56
427.54	4915.12
427.75	4880.31
427.96	5134.26
428.17	4997.04
428.38	5177.26
428.59	5126.07
428.80	5212.08
429.01	5050.29
429.23	5169.07
429.44	5394.35
429.65	5396.40
429.86	5392.30
430.07	5265.33
430.28	5207.98
430.49	5345.20
430.70	5486.51
430.91	5502.89
431.12	5373.87
431.33	5615.53
431.54	5472.17
431.75	5517.23
431.96	5582.76
432.17	5560.24
432.38	5529.52
432.59	5707.69
432.80	5513.13
433.01	5810.09
433.22	5945.25
433.43	5662.63
433.64	5832.62
433.85	5711.78
434.06	5863.33
434.27	5724.07
434.49	6008.74
434.70	6078.37
434.91	5879.72
435.12	5918.63
435.33	5973.92
435.54	6045.60
435.75	5791.66
435.96	5992.36
436.17	5935.01
436.38	6115.23
436.59	6143.91
436.80	6088.61
437.01	6381.47
437.22	6223.78
437.43	6150.05
437.64	6076.32
437.85	6217.63
438.06	6266.78
438.27	6221.73
438.48	6154.15
438.69	6383.52
438.90	6358.94
439.11	6238.11
439.32	6365.09
439.53	6487.96
439.74	6416.29
439.95	6530.97
440.16	6559.64
440.37	6481.82
440.57	6479.77
440.78	6600.60
440.99	6662.04
441.20	6594.46
441.41	6565.79
441.62	6633.37
441.83	6608.80
442.04	6780.82
442.25	6799.26
442.46	6664.09
442.67	6948.76
442.88	7151.51
443.09	6741.91
443.30	6803.35
443.51	6899.61
443.72	7169.94
443.93	6854.55
444.14	6954.90
444.35	6879.13
444.56	7073.68
444.77	6987.67
444.98	7022.48
445.19	7094.16
445.40	7014.29
445.61	7036.82
445.81	7296.91
446.02	7174.03
446.23	7165.84
446.44	7034.77
446.65	7249.81
446.86	7251.86
447.07	7421.84
447.28	7395.22
447.49	7550.86
447.70	7464.85
447.91	7409.55
448.12	7481.23
448.33	7425.93
448.54	7530.38
448.74	7612.30
448.95	7604.11
449.16	7403.41
449.37	7911.30
449.58	7643.02
449.79	8021.89
450.00	7470.99
450.21	7741.32
450.42	8003.46
450.63	7939.97
450.84	7845.77
451.05	7729.03
451.25	7962.50
451.46	7946.12
451.67	8144.77
451.88	8134.53
452.09	8144.77
452.30	7999.37
452.51	7903.11
452.72	8124.29
452.93	8370.05
453.13	8249.22
453.34	8171.40
453.55	8365.95
453.76	8255.36
453.97	8861.56
454.18	8513.41
454.39	8439.68
454.60	8570.75
454.81	8398.72
455.01	8736.63
455.22	8505.21
455.43	8689.53
455.64	8779.64
455.85	8886.14
456.06	8937.34
456.27	8963.96
456.48	8914.81
456.68	8826.75
456.89	8943.48
457.10	9256.82
457.31	9021.30
457.52	8912.76
457.73	9023.35
457.94	9334.64
458.14	9164.66
458.35	9662.32
458.56	9406.32
458.77	9269.11
458.98	9500.53
459.19	9553.77
459.39	9658.22
459.60	9670.51
459.81	9629.55
460.02	9760.62
460.23	9547.63
460.44	10006.38
460.65	9928.55
460.85	10014.57
461.06	10186.60
461.27	9885.55
461.48	10026.86
461.69	10368.87
461.89	10004.33
462.10	10243.94
462.31	10088.29
462.52	10133.35
462.73	10168.16
462.94	10514.27
463.14	10430.30
463.35	10278.76
463.56	10923.87
463.77	10868.57
463.98	10526.56
464.18	10772.32
464.39	10790.75
464.60	10977.11
464.81	11040.60
465.02	11026.26
465.23	11052.89
465.43	11181.91
465.64	11396.95
465.85	11272.02
466.06	11165.53
466.27	11708.24
466.47	11579.22
466.68	11396.95
466.89	11482.96
467.10	11829.07
467.30	11611.98
467.51	11706.19
467.72	12089.16
467.93	11724.62
468.14	12128.07
468.34	12195.65
468.55	12134.21
468.76	12279.62
468.97	12023.62
469.17	12474.18
469.38	12302.15
469.59	12476.23
469.80	12443.46
470.01	12285.76
470.21	12441.41
470.42	12721.98
470.63	13127.48
470.84	12961.59
471.04	12955.45
471.25	13027.13
471.46	13233.97
471.67	13489.97
471.87	13260.60
472.08	13115.19
472.29	13702.96
472.50	13264.69
472.70	13391.67
472.91	13729.58
473.12	13874.99
473.33	13979.43
473.53	14075.69
473.74	13870.89
473.95	14573.35
474.16	14540.58
474.36	14372.64
474.57	14700.32
474.78	14888.73
474.99	14501.67
475.19	14765.85
475.40	14927.64
475.61	14995.23
475.81	15175.45
476.02	15353.62
476.23	15044.38
476.44	15507.22
476.64	15638.29
476.85	16127.75
477.06	15642.39
477.27	16230.15
477.47	15994.64
477.68	15929.10
477.89	16146.19
478.09	16178.95
478.30	16207.62
478.51	16357.13
478.71	16916.22
478.92	16520.96
479.13	16625.41
479.34	17041.15
479.54	17125.11
479.75	16813.82
479.96	17329.91
480.16	17590.00
480.37	17282.81
480.58	17682.16
480.78	17700.59
480.99	17704.69
481.20	17995.50
481.41	18073.32
481.61	18185.96
481.82	18573.03
482.03	18073.32
482.23	18441.96
482.44	18501.35
482.65	19080.92
482.85	18810.59
483.06	18786.02
483.27	18947.81
483.47	19054.30
483.68	19269.34
483.89	19410.65
484.09	19371.74
484.30	19390.17
484.51	19416.79
484.71	20006.61
484.92	19629.78
485.13	19992.27
485.33	20270.79
485.54	20109.01
485.75	20248.27
485.95	20348.62
486.16	20633.29
486.37	21012.16
486.57	20764.36
486.78	20715.20
486.98	20815.55
487.19	21120.70
487.40	21073.60
487.60	21196.48
487.81	21219.00
488.02	21364.41
488.22	21094.08
488.43	21970.61
488.64	22124.21
488.84	22085.30
489.05	22251.18
489.25	22013.62
489.46	22359.72
489.67	21903.03
489.87	22757.03
490.08	22763.17
490.29	22822.56
490.49	22929.06
490.70	22992.55
490.90	22941.35
491.11	23010.98
491.32	22896.29
491.52	23107.23
491.73	23463.58
491.94	23592.60
492.14	23539.35
492.35	23742.10
492.55	23615.13
492.76	23783.06
492.97	24340.11
493.17	24053.39
493.38	23975.57
493.58	24297.10
493.79	24639.11
494.00	24338.06
494.20	24422.03
494.41	24487.56
494.61	24882.82
494.82	25280.13
495.02	25040.51
495.23	25198.21
495.44	25276.03
495.64	25450.11
495.85	25304.70
496.05	25556.60
496.26	25745.02
496.47	25921.14
496.67	25732.73
496.88	26228.34
497.08	25769.59
497.29	26187.38
497.49	26183.28
497.70	26703.46
497.91	26490.48
498.11	26658.41
498.32	26545.77
498.52	26715.75
498.73	26871.40
498.93	27012.71
499.14	27006.56
499.34	26947.17
499.55	27014.76
499.76	27174.50
499.96	27309.66
500.17	27493.98
500.37	27493.98
500.58	27770.46
500.78	27729.50
500.99	27633.24
501.19	27950.68
501.40	27696.73
501.60	28018.26
501.81	27819.61
502.02	28233.30
502.22	27584.09
502.43	27993.68
502.63	28425.81
502.84	28575.31
503.04	28567.12
503.25	28696.14
503.45	28554.83
503.66	28976.71
503.86	28685.90
504.07	29251.14
504.27	28675.66
504.48	29224.51
504.68	29230.66
504.89	29392.45
505.09	29345.34
505.30	29423.17
505.50	29189.70
505.71	29707.83
505.91	29634.11
506.12	29910.58
506.32	29695.55
506.53	29756.99
506.73	30053.94
506.94	30017.08
507.14	30045.75
507.35	30088.76
507.55	30357.04
507.76	30391.86
507.96	30037.56
508.17	30299.70
508.37	30555.69
508.58	30531.12
508.78	30723.63
508.99	30307.89
509.19	30662.19
509.40	30873.13
509.60	30688.81
509.81	30891.56
510.01	31172.13
510.22	31292.96
510.42	31102.50
510.63	31028.77
510.83	31135.27
511.04	31311.39
511.24	31514.14
511.44	31462.94
511.65	31632.93
511.85	31587.87
512.06	31530.53
512.26	31929.88
512.47	31819.29
512.67	32036.38
512.88	31874.59
513.08	31587.87
513.29	31819.29
513.49	31946.26
513.69	32065.05
513.90	32046.62
514.10	32249.36
514.31	32198.16
514.51	32624.14
514.72	32439.82
514.92	32058.90
515.13	32548.37
515.33	32814.60
515.53	32816.65
515.74	32724.49
515.94	33003.02
516.15	32486.93
516.35	32605.71
516.56	33152.52
516.76	32720.40
516.96	32716.30
517.17	33259.01
517.37	33351.17
517.58	33627.65
517.78	33449.47
517.99	33439.23
518.19	33406.47
518.39	33629.69
518.60	33834.49
518.80	33623.55
519.01	33691.13
519.21	33973.75
519.41	33832.44
519.62	33943.03
519.82	34194.93
520.03	34317.81
520.23	34272.76
520.43	34313.72
520.64	34686.45
520.84	34911.72
521.05	34608.62
521.25	34967.02
521.45	34780.65
521.66	34991.59
521.86	34946.54
522.07	34860.52
522.27	35038.70
522.47	35188.20
522.68	35218.92
522.88	35132.90
523.08	35499.49
523.29	35503.59
523.49	35655.14
523.70	35608.03
523.90	36169.18
524.10	35991.00
524.31	36212.18
524.51	35886.56
524.71	36124.12
524.92	36124.12
525.12	36330.97
525.33	36396.50
525.53	36517.33
525.73	36503.00
525.94	36679.12
526.14	36470.23
526.34	37039.56
526.55	36955.60
526.75	36834.77
526.95	37170.63
527.16	37191.11
527.36	37254.60
527.56	37078.47
527.77	37375.43
527.97	37473.73
528.17	37166.54
528.38	37864.89
528.58	37727.68
528.78	37922.24
528.99	37860.80
529.19	38112.70
529.39	37787.07
529.60	38190.52
529.80	38118.84
530.00	38231.48
530.21	38393.27
530.41	38606.26
530.61	38448.57
530.82	38704.56
531.02	38567.35
531.22	38772.14
531.43	39038.38
531.63	39191.98
531.83	39339.43
532.04	39763.36
532.24	39452.07
532.44	40105.37
532.64	39832.99
532.85	40142.24
533.05	39978.40
533.25	40099.23
533.46	39968.16
533.66	40031.65
533.86	40177.05
534.07	40252.83
534.27	40283.55
534.47	40852.88
534.67	40758.67
534.88	40508.82
535.08	40891.79
535.28	40752.53
535.49	40986.00
535.69	41198.99
535.89	41299.34
536.09	41481.61
536.30	41600.39
536.50	41555.33
536.70	41614.72
536.91	41792.90
537.11	41717.12
537.31	41962.88
537.51	41747.84
537.72	42485.11
537.92	42481.02
538.12	42859.89
538.32	42294.65
538.53	42560.89
538.73	42589.56
538.93	42704.24
539.13	42710.39
539.34	42827.12
539.54	42855.79
539.74	43177.33
539.94	43292.01
540.15	42933.62
540.35	43363.69
540.55	43298.16
540.75	43224.43
540.96	43464.04
541.16	43480.42
541.36	43509.10
541.56	43543.91
541.77	44154.21
541.97	43619.69
542.17	44332.38
542.37	43990.37
542.58	44574.04
542.78	44082.53
542.98	43916.64
543.18	44225.89
543.38	44895.57
543.59	44291.42
543.79	44580.18
543.99	44590.42
544.19	44752.21
544.40	44733.78
544.60	44891.48
544.80	44748.12
545.00	44696.92
545.20	45251.92
545.41	45100.37
545.61	44952.91
545.81	45716.81
546.01	45634.89
546.21	45505.87
546.42	45274.45
546.62	45552.97
546.82	45575.50
547.02	45745.48
547.22	45186.38
547.43	45679.94
547.63	45335.88
547.83	45581.64
548.03	45702.47
548.23	46054.72
548.44	46314.81
548.64	46036.29
548.84	46024.00
549.04	46046.53
549.24	46202.18
549.45	46417.21
549.65	46101.82
549.85	46335.29
550.05	46781.75
550.25	46501.18
550.45	47095.09
550.66	46636.34
550.86	46628.15
551.06	46933.30
551.26	47086.90
551.46	47203.63
551.66	46378.30
551.87	46785.85
552.07	46941.49
552.27	47056.18
552.47	46800.18
552.67	47377.71
552.87	47078.71
553.07	47097.14
553.28	47344.94
553.48	47645.99
553.68	47502.64
553.88	47693.10
554.08	47551.79
554.28	47732.01
554.48	47428.91
554.69	47619.37
554.89	47639.85
555.09	48057.63
555.29	47465.77
555.49	47908.13
555.69	48102.69
555.89	48129.31
556.10	48041.25
556.30	47809.83
556.50	47967.52
556.70	47691.05
556.90	48194.85
557.10	48373.02
557.30	47740.20
557.50	48260.38
557.70	48397.60
557.91	48262.43
558.11	48411.93
558.31	48254.24
558.51	48096.55
558.71	48604.44
558.91	48917.78
559.11	48741.66
559.31	48618.78
559.51	48307.49
559.72	48356.64
559.92	48899.35
560.12	48829.72
560.32	48819.48
560.52	48665.88
560.72	48819.48
560.92	48702.74
561.12	49108.24
561.32	49468.69
561.52	48895.25
561.72	49149.20
561.93	48815.38
562.13	49098.00
562.33	48909.59
562.53	49822.98
562.73	49319.18
562.93	48950.55
563.13	49470.73
563.33	49239.31
563.53	49538.32
563.73	49147.15
563.93	49331.47
564.13	49659.15
564.33	49327.38
564.53	49032.47
564.74	49833.22
564.94	49310.99
565.14	49696.01
565.34	49003.80
565.54	49626.38
565.74	49724.68
565.94	50187.52
566.14	49759.50
566.34	49511.69
566.54	49843.46
566.74	49589.52
566.94	49708.30
567.14	49818.89
567.34	49995.01
567.54	50267.39
567.74	49696.01
567.94	49560.84
568.14	50457.85
568.34	50058.50
568.54	50167.04
568.74	50433.28
568.94	50476.29
569.14	50152.71
569.34	50113.80
569.54	50836.73
569.75	50304.26
569.95	50248.96
570.15	50590.97
570.35	50689.27
570.55	50251.01
570.75	50224.39
570.95	50461.95
571.15	50558.20
571.35	50740.47
571.55	50808.06
571.75	50898.17
571.95	50771.19
572.15	50756.86
572.35	50935.03
572.55	50486.53
572.75	50996.47
572.95	51078.39
573.15	51072.24
573.35	50980.09
573.55	51133.68
573.75	51264.75
573.95	51227.89
574.15	50552.06
574.35	51389.68
574.55	51182.84
574.75	50836.73
574.95	51264.75
575.15	50916.60
575.34	51340.53
575.54	51307.76
575.74	51365.10
575.94	51905.77
576.14	51272.95
576.34	51844.33
576.54	51981.54
576.74	51991.78
576.94	51567.85
577.14	51655.92
577.34	52341.99
577.54	51520.75
577.74	52143.33
577.94	51778.79
578.14	52483.30
578.34	52571.36
578.54	51332.34
578.74	51778.79
578.94	52280.55
579.14	51791.08
579.34	52227.30
579.54	52139.24
579.74	52546.78
579.94	52335.84
580.13	52550.88
580.33	52428.00
580.53	53032.15
580.73	52770.01
580.93	52483.30
581.13	52622.56
581.33	53044.44
581.53	53150.93
581.73	52931.80
581.93	52999.38
582.13	52952.28
582.33	53193.94
582.53	52620.51
582.73	52999.38
582.92	53535.95
583.12	53214.42
583.32	53259.48
583.52	52983.00
583.72	53470.42
583.92	53552.33
584.12	53636.30
584.32	53998.79
584.52	53699.79
584.72	53843.15
584.92	53591.25
585.11	54195.40
585.31	53355.73
585.51	53671.12
585.71	53779.66
585.91	54117.57
586.11	53777.61
586.31	53738.70
586.51	54113.48
586.71	53683.40
586.91	54254.79
587.10	54244.55
587.30	54027.46
587.50	54301.89
587.70	54262.98
587.90	54805.69
588.10	54707.39
588.30	54455.49
