SpectraSuite Data File
++++++++++++++++++++++++++++++++++++
Date: Tue Jun 13 12:03:49 CEST 2017
User: INFO_000
Dark Spectrum Present: No
Reference Spectrum Present: No
Number of Sampled Component Spectra: 1
Spectrometers: USB4H00879
Integration Time (usec): 30000 (USB4H00879)
Spectra Averaged: 1 (USB4H00879)
Boxcar Smoothing: 0 (USB4H00879)
Correct for Electrical Dark: No (USB4H00879)
Strobe/Lamp Enabled: No (USB4H00879)
Correct for Detector Non-linearity: No (USB4H00879)
Correct for Stray Light: No (USB4H00879)
Number of Pixels in Processed Spectrum: 3648
>>>>>Begin Processed Spectral Data<<<<<
345.13	1314.80
345.34	1314.80
345.56	1314.80
345.78	1304.56
345.99	1366.00
346.21	1540.07
346.42	1476.59
346.64	1513.45
346.86	1552.36
347.07	1548.26
347.29	1560.55
347.50	1492.97
347.72	1540.07
347.94	1533.93
348.15	1374.19
348.37	1501.16
348.59	1476.59
348.80	1542.12
349.02	1669.09
349.23	1691.62
349.45	1699.81
349.67	1607.66
349.88	1619.94
350.10	1734.63
350.31	1654.76
350.53	1566.70
350.75	1708.01
350.96	1564.65
351.18	1589.22
351.39	1654.76
351.61	1581.03
351.82	1619.94
352.04	1695.72
352.26	1687.53
352.47	1609.70
352.69	1685.48
352.90	1576.94
353.12	1597.42
353.34	1613.80
353.55	1650.66
353.77	1648.61
353.98	1599.46
354.20	1660.90
354.41	1632.23
354.63	1660.90
354.85	1724.39
355.06	1658.85
355.28	1656.81
355.49	1630.18
355.71	1697.77
355.92	1624.04
356.14	1675.24
356.35	1665.00
356.57	1656.81
356.79	1642.47
357.00	1695.72
357.22	1673.19
357.43	1644.52
357.65	1691.62
357.86	1697.77
358.08	1708.01
358.29	1650.66
358.51	1714.15
358.72	1677.29
358.94	1681.38
359.16	1595.37
359.37	1701.86
359.59	1662.95
359.80	1738.73
360.02	1640.42
360.23	1716.20
360.45	1783.78
360.66	1703.91
360.88	1626.09
361.09	1636.33
361.31	1689.57
361.52	1730.53
361.74	1699.81
361.95	1769.44
362.17	1703.91
362.38	1728.49
362.60	1662.95
362.81	1699.81
363.03	1712.10
363.24	1726.44
363.46	1722.34
363.67	1716.20
363.89	1720.29
364.10	1662.95
364.32	1697.77
364.53	1746.92
364.75	1683.43
364.96	1728.49
365.18	1806.31
365.39	1677.29
365.61	1687.53
365.82	1728.49
366.04	1777.64
366.25	1654.76
366.47	1808.36
366.68	1718.25
366.90	1718.25
367.11	1744.87
367.33	1722.34
367.54	1722.34
367.76	1685.48
367.97	1791.97
368.19	1746.92
368.40	1863.65
368.62	1742.82
368.83	1755.11
369.05	1789.92
369.26	1800.16
369.48	1728.49
369.69	1736.68
369.91	1732.58
370.12	1800.16
370.33	1734.63
370.55	1724.39
370.76	1769.44
370.98	1863.65
371.19	1757.16
371.41	1775.59
371.62	1765.35
371.84	1744.87
372.05	1802.21
372.27	1763.30
372.48	1759.21
372.69	1763.30
372.91	1824.74
373.12	1841.12
373.34	1767.40
373.55	1806.31
373.77	1830.88
373.98	1794.02
374.20	1859.56
374.41	1837.03
374.62	1865.70
374.84	1830.88
375.05	1880.04
375.27	1947.62
375.48	1880.04
375.70	1918.95
375.91	1859.56
376.12	1939.43
376.34	1841.12
376.55	1896.42
376.77	1927.14
376.98	1896.42
377.19	1832.93
377.41	1902.56
377.62	1888.23
377.84	1892.32
378.05	1943.52
378.27	1877.99
378.48	2025.44
378.69	1978.34
378.91	1972.19
379.12	1877.99
379.34	1933.28
379.55	1927.14
379.76	1904.61
379.98	1964.00
380.19	1988.58
380.41	1949.67
380.62	1976.29
380.83	2017.25
381.05	1923.04
381.26	2086.88
381.47	1964.00
381.69	1939.43
381.90	2043.87
382.12	2021.35
382.33	1937.38
382.54	2062.30
382.76	2050.02
382.97	2025.44
383.19	2007.01
383.40	2039.78
383.61	2027.49
383.83	1964.00
384.04	2056.16
384.25	2002.91
384.47	2064.35
384.68	2039.78
384.89	2011.11
385.11	2039.78
385.32	2129.89
385.54	2027.49
385.75	1957.86
385.96	2097.12
386.18	2076.64
386.39	2011.11
386.60	2054.11
386.82	2068.45
387.03	2095.07
387.24	2129.89
387.46	2084.83
387.67	2195.42
387.88	2152.42
388.10	2136.03
388.31	2142.18
388.52	2209.76
388.74	2158.56
388.95	2248.67
389.16	2152.42
389.38	2254.81
389.59	2224.09
389.80	2303.96
390.02	2215.90
390.23	2312.16
390.44	2258.91
390.66	2334.68
390.87	2170.85
391.08	2187.23
391.30	2369.50
391.51	2306.01
391.72	2312.16
391.94	2197.47
392.15	2263.01
392.36	2320.35
392.58	2283.49
392.79	2314.20
393.00	2318.30
393.22	2344.92
393.43	2437.08
393.64	2379.74
393.85	2359.26
394.07	2299.87
394.28	2377.69
394.49	2486.23
394.71	2322.40
394.92	2471.90
395.13	2367.45
395.35	2441.18
395.56	2443.23
395.77	2416.60
395.98	2355.16
396.20	2473.95
396.41	2535.39
396.62	2504.67
396.84	2455.51
397.05	2416.60
397.26	2422.75
397.47	2494.43
397.69	2473.95
397.90	2594.78
398.11	2527.19
398.32	2498.52
398.54	2492.38
398.75	2473.95
398.96	2568.15
399.18	2578.39
399.39	2555.86
399.60	2596.82
399.81	2562.01
400.03	2551.77
400.24	2705.37
400.45	2564.06
400.66	2680.79
400.88	2650.07
401.09	2611.16
401.30	2680.79
401.51	2727.89
401.73	2734.04
401.94	2717.65
402.15	2777.05
402.36	2795.48
402.58	2756.57
402.79	2709.46
403.00	2748.37
403.21	2648.02
403.43	2680.79
403.64	2818.00
403.85	2705.37
404.06	2826.20
404.27	2666.46
404.49	2758.61
404.70	2703.32
404.91	2828.24
405.12	2820.05
405.34	2877.40
405.55	2871.25
405.76	2834.39
405.97	2811.86
406.19	2887.64
406.40	2928.60
406.61	2924.50
406.82	2893.78
407.03	2828.24
407.25	2908.12
407.46	2922.45
407.67	3008.47
407.88	2891.73
408.09	2877.40
408.31	2934.74
408.52	2901.97
408.73	3008.47
408.94	2887.64
409.15	2914.26
409.37	3002.32
409.58	2967.51
409.79	2992.08
410.00	3063.76
410.21	2887.64
410.43	3041.23
410.64	3069.91
410.85	3063.76
411.06	3160.02
411.27	3084.24
411.48	3069.91
411.70	3035.09
411.91	3084.24
412.12	3186.64
412.33	3176.40
412.54	3139.54
412.76	3153.87
412.97	3188.69
413.18	3114.96
413.39	3323.85
413.60	3225.55
413.81	3198.93
414.03	3178.45
414.24	3131.34
414.45	3254.22
414.66	3248.08
414.87	3356.62
415.08	3299.28
415.30	3311.57
415.51	3239.89
415.72	3241.93
415.93	3311.57
416.14	3293.13
416.35	3340.24
416.56	3250.13
416.78	3307.47
416.99	3434.44
417.20	3375.05
417.41	3407.82
417.62	3407.82
417.83	3477.45
418.04	3383.24
418.26	3479.50
418.47	3393.48
418.68	3504.07
418.89	3430.35
419.10	3631.05
419.31	3397.58
419.52	3518.41
419.73	3657.67
419.95	3473.36
420.16	3483.59
420.37	3590.09
420.58	3491.79
420.79	3448.78
421.00	3608.52
421.21	3590.09
421.42	3575.75
421.63	3547.08
421.85	3790.79
422.06	3672.01
422.27	3626.95
422.48	3682.25
422.69	3727.30
422.90	3760.07
423.11	3725.26
423.32	3715.02
423.53	3938.24
423.75	3776.45
423.96	3823.56
424.17	3768.26
424.38	3954.63
424.59	3989.44
424.80	4108.23
425.01	4003.78
425.22	3962.82
425.43	3962.82
425.64	4050.88
425.85	4014.02
426.06	3948.48
426.28	3913.67
426.49	3891.14
426.70	3917.76
426.91	4157.38
427.12	4079.55
427.33	4204.48
427.54	4229.06
427.75	4120.51
427.96	4265.92
428.17	4153.28
428.38	4202.43
428.59	4190.14
428.80	4245.44
429.01	4194.24
429.23	4329.41
429.44	4394.94
429.65	4313.02
429.86	4382.65
430.07	4186.05
430.28	4411.32
430.49	4513.72
430.70	4440.00
430.91	4495.29
431.12	4489.15
431.33	4624.31
431.54	4495.29
431.75	4497.34
431.96	4597.69
432.17	4491.20
432.38	4536.25
432.59	4702.14
432.80	4495.29
433.01	4663.22
433.22	4708.28
433.43	4644.79
433.64	4554.68
433.85	4519.87
434.06	4810.68
434.27	4718.52
434.49	4753.34
434.70	4786.10
434.91	4845.49
435.12	4818.87
435.33	4859.83
435.54	4855.73
435.75	4648.89
435.96	4878.26
436.17	4892.60
436.38	4921.27
436.59	4939.70
436.80	4941.75
437.01	5095.35
437.22	5201.84
437.43	5093.30
437.64	4773.82
437.85	4968.37
438.06	5011.38
438.27	4978.61
438.48	5101.49
438.69	5171.12
438.90	5277.62
439.11	5107.63
439.32	5134.26
439.53	5115.83
439.74	5119.92
439.95	5201.84
440.16	5187.50
440.37	5308.34
440.57	5093.30
440.78	5238.70
440.99	5371.82
441.20	5408.69
441.41	5250.99
441.62	5267.38
441.83	5119.92
442.04	5496.75
442.25	5367.73
442.46	5398.45
442.67	5480.36
442.88	5830.57
443.09	5384.11
443.30	5459.88
443.51	5535.66
443.72	5748.65
443.93	5476.27
444.14	5558.19
444.35	5425.07
444.56	5662.63
444.77	5644.20
444.98	5679.02
445.19	5711.78
445.40	5746.60
445.61	5701.54
445.81	5926.82
446.02	5853.09
446.23	5779.37
446.44	5728.17
446.65	5916.58
446.86	5779.37
447.07	5830.57
447.28	5973.92
447.49	5980.07
447.70	5889.96
447.91	5836.71
448.12	6000.55
448.33	6035.36
448.54	6082.47
448.74	5918.63
448.95	6041.51
449.16	6012.84
449.37	6344.61
449.58	6086.56
449.79	6444.96
450.00	6227.87
450.21	6391.71
450.42	6274.98
450.63	6408.09
450.84	6217.63
451.05	6317.98
451.25	6246.30
451.46	6256.54
451.67	6393.76
451.88	6320.03
452.09	6465.44
452.30	6371.23
452.51	6336.42
452.72	6510.49
452.93	6668.19
453.13	6447.01
453.34	6584.22
453.55	6436.77
453.76	6444.96
453.97	7040.92
454.18	6627.23
454.39	6698.91
454.60	6694.81
454.81	6766.49
455.01	6825.88
455.22	6676.38
455.43	6897.56
455.64	6887.32
455.85	7024.53
456.06	7083.92
456.27	6938.52
456.48	6926.23
456.68	6893.46
456.89	6987.67
457.10	7337.87
457.31	7096.21
457.52	6952.85
457.73	7217.04
457.94	7397.26
458.14	7214.99
458.35	7458.70
458.56	7317.39
458.77	7372.69
458.98	7585.68
459.19	7407.50
459.39	7460.75
459.60	7675.79
459.81	7583.63
460.02	7565.20
460.23	7661.45
460.44	7806.86
460.65	7757.71
460.85	7782.28
461.06	7958.41
461.27	7602.06
461.48	8009.61
461.69	8023.94
461.89	7835.53
462.10	7942.02
462.31	7948.17
462.52	7925.64
462.73	8089.48
462.94	8390.53
463.14	8071.04
463.35	8025.99
463.56	8511.36
463.77	8236.93
463.98	8234.88
464.18	8279.94
464.39	8511.36
464.60	8505.21
464.81	8580.99
465.02	8513.41
465.23	8720.25
465.43	8550.27
465.64	8894.33
465.85	8728.44
466.06	8789.88
466.27	8935.29
466.47	8927.10
466.68	8994.68
466.89	8916.86
467.10	9066.36
467.30	9080.69
467.51	9150.32
467.72	9273.20
467.93	9156.47
468.14	9314.16
468.34	9381.74
468.55	9404.27
468.76	9355.12
468.97	9328.50
469.17	9322.35
469.38	9588.59
469.59	9957.22
469.80	9484.14
470.01	9629.55
470.21	9922.41
470.42	10080.10
470.63	9983.85
470.84	9760.62
471.04	10264.42
471.25	10129.25
471.46	10039.14
471.67	10184.55
471.87	10364.77
472.08	10446.69
472.29	10452.83
472.50	10188.64
472.70	10375.01
472.91	10540.90
473.12	10792.80
473.33	10817.37
473.53	10948.44
473.74	10796.89
473.95	10938.20
474.16	10977.11
474.36	10919.77
474.57	11206.48
474.78	11345.75
474.99	11159.38
475.19	11302.74
475.40	11667.28
475.61	11519.82
475.81	11650.89
476.02	12029.77
476.23	11706.19
476.44	11874.12
476.64	11927.37
476.85	12132.17
477.06	11943.75
477.27	12175.17
477.47	12382.02
477.68	12175.17
477.89	12486.47
478.09	12396.35
478.30	12506.95
478.51	12715.84
478.71	12738.37
478.92	12732.22
479.13	13086.52
479.34	12994.36
479.54	12934.97
479.75	13246.26
479.96	12910.40
480.16	13016.89
480.37	13201.21
480.58	13489.97
480.78	13649.71
480.99	13408.05
481.20	13694.77
481.41	13831.98
481.61	13786.93
481.82	13895.47
482.03	13807.41
482.23	13989.67
482.44	14067.50
482.65	14014.25
482.85	14249.77
483.06	14380.84
483.27	14438.18
483.47	14208.81
483.68	14415.65
483.89	14917.40
484.09	14694.18
484.30	14772.00
484.51	15114.01
484.71	15052.57
484.92	15159.06
485.13	15177.50
485.33	15179.54
485.54	15169.30
485.75	15410.96
485.95	15419.16
486.16	15304.47
486.37	15617.81
486.57	15697.68
486.78	15580.95
486.98	15900.43
487.19	15927.05
487.40	16002.83
487.60	16191.24
487.81	16254.73
488.02	16174.86
488.22	16162.57
488.43	16359.17
488.64	16324.36
488.84	16477.96
489.05	16666.37
489.25	16541.44
489.46	17112.83
489.67	16932.61
489.87	17037.05
490.08	16891.65
490.29	17166.07
490.49	17422.07
490.70	17297.14
490.90	17280.76
491.11	17252.09
491.32	17620.72
491.52	17559.28
491.73	17440.50
491.94	17872.62
492.14	17610.48
492.35	17972.97
492.55	17811.18
492.76	17770.22
492.97	18179.82
493.17	17780.46
493.38	17925.87
493.58	18507.49
493.79	18368.23
494.00	18163.43
494.20	18599.65
494.41	18540.26
494.61	18634.47
494.82	18769.63
495.02	18771.68
495.23	19035.87
495.44	18988.77
495.64	19259.10
495.85	18929.38
496.05	19117.79
496.26	19271.39
496.47	19252.95
496.67	19338.97
496.88	19625.68
497.08	19537.62
497.29	19582.68
497.49	19465.94
497.70	19723.99
497.91	19846.87
498.11	19934.93
498.32	19961.55
498.52	20061.90
498.73	19979.98
498.93	20018.89
499.14	20117.20
499.34	20334.28
499.55	20307.66
499.76	20180.68
499.96	20350.67
500.17	20278.99
500.37	20553.41
500.58	20494.02
500.78	20508.36
500.99	20788.93
501.19	21092.03
501.40	20899.52
501.60	21092.03
501.81	20756.16
502.02	21079.74
502.22	21098.17
502.43	21212.86
502.63	21202.62
502.84	21327.55
503.04	21165.76
503.25	21178.04
503.45	21475.00
503.66	21544.63
503.86	21382.84
504.07	21614.26
504.27	21556.92
504.48	21946.03
504.68	21585.59
504.89	21753.52
505.09	21819.06
505.30	21808.82
505.50	21812.92
505.71	22034.10
505.91	22027.95
506.12	22107.82
506.32	22163.12
506.53	22175.41
506.73	22415.02
506.94	22517.42
507.14	22224.56
507.35	22396.59
507.55	22331.05
507.76	22247.08
507.96	22550.18
508.17	22394.54
508.37	22296.24
508.58	22593.19
508.78	22773.41
508.99	22822.56
509.19	22740.64
509.40	22933.15
509.60	22771.36
509.81	22933.15
510.01	22982.31
510.22	22849.19
510.42	23096.99
510.63	23205.53
510.83	23088.80
511.04	23129.76
511.24	23348.89
511.44	23162.53
511.65	23705.24
511.85	23516.83
512.06	23514.78
512.26	23469.72
512.47	23473.82
512.67	23361.18
512.88	23826.07
513.08	23498.39
513.29	23918.23
513.49	23899.80
513.69	23533.21
513.90	23797.40
514.10	24043.15
514.31	24215.18
514.51	24217.23
514.72	23729.81
514.92	23821.97
515.13	24092.30
515.33	24069.78
515.53	24200.85
515.74	24118.93
515.94	23989.91
516.15	24397.45
516.35	24229.52
516.56	24596.10
516.76	24295.05
516.96	24489.61
517.17	24487.56
517.37	24675.98
517.58	24483.47
517.78	24645.26
517.99	24729.22
518.19	24897.16
518.39	24868.48
518.60	24950.40
518.80	24782.47
519.01	24665.74
519.21	24905.35
519.41	25032.32
519.62	25013.89
519.82	25333.37
520.03	25204.35
520.23	25405.05
520.43	24852.10
520.64	25466.49
520.84	25538.17
521.05	25343.61
521.25	25659.00
521.45	25824.89
521.66	25511.55
521.86	25523.83
522.07	25519.74
522.27	25591.42
522.47	25679.48
522.68	26154.61
522.88	26015.35
523.08	25992.82
523.29	26130.03
523.49	26103.41
523.70	26189.42
523.90	26828.39
524.10	26087.03
524.31	26216.05
524.51	26422.89
524.71	26619.50
524.92	26578.54
525.12	26791.53
525.33	26830.44
525.53	26414.70
525.73	26871.40
525.94	26959.46
526.14	27117.15
526.34	26920.55
526.55	27278.94
526.75	26828.39
526.95	27086.43
527.16	27227.74
527.36	27262.56
527.56	27569.76
527.77	27639.39
527.97	27625.05
528.17	27784.79
528.38	27727.45
528.58	27674.20
528.78	27842.14
528.99	27709.02
529.19	28069.46
529.39	27653.72
529.60	28210.77
529.80	28149.33
530.00	28053.08
530.21	27897.43
530.41	28616.27
530.61	28208.72
530.82	28384.85
531.02	28134.99
531.22	28792.39
531.43	28599.88
531.63	28710.47
531.83	28747.34
532.04	29068.87
532.24	28956.23
532.44	29374.02
532.64	29163.08
532.85	29130.31
533.05	29318.72
533.25	29097.54
533.46	29345.34
533.66	29562.43
533.86	29259.33
534.07	29761.08
534.27	29515.33
534.47	29920.82
534.67	30166.58
534.88	29767.23
535.08	29886.01
535.28	30004.79
535.49	29988.41
535.69	30617.13
535.89	30236.21
536.09	30318.13
536.30	30178.87
536.50	30367.28
536.70	30993.96
536.91	30547.50
537.11	30631.47
537.31	30766.63
537.51	30723.63
537.72	31157.80
537.92	31493.66
538.12	31039.01
538.32	30924.33
538.53	31170.08
538.73	31041.06
538.93	31206.95
539.13	31456.80
539.34	31217.19
539.54	30996.01
539.74	31542.81
539.94	31526.43
540.15	31421.98
540.35	31653.40
540.55	31720.99
540.75	31542.81
540.96	31467.04
541.16	31874.59
541.36	32032.28
541.56	31665.69
541.77	32214.55
541.97	31827.48
542.17	32169.49
542.37	32232.98
542.58	31841.82
542.78	31968.79
542.98	32140.82
543.18	32497.17
543.38	32263.70
543.59	32847.37
543.79	32445.97
543.99	32505.36
544.19	32552.46
544.40	32466.45
544.60	33136.13
544.80	32933.39
545.00	32925.19
545.20	33222.15
545.41	33033.74
545.61	32935.43
545.81	33287.68
546.01	33267.20
546.21	33455.62
546.42	32888.33
546.62	33277.44
546.82	33236.48
547.02	33166.85
547.22	33961.47
547.43	33003.02
547.63	33398.27
547.83	33220.10
548.03	33207.81
548.23	33580.54
548.44	33531.39
548.64	33568.26
548.84	33695.23
549.04	33816.06
549.24	33584.64
549.45	33611.26
549.65	33773.05
549.85	34156.02
550.05	34035.19
550.25	33517.06
550.45	34182.65
550.66	33920.51
550.86	34147.83
551.06	34262.52
551.26	34022.90
551.46	33981.95
551.66	34127.35
551.87	33967.61
552.07	34321.91
552.27	34254.33
552.47	34254.33
552.67	34156.02
552.87	34153.97
553.07	34305.52
553.28	34563.57
553.48	34442.74
553.68	34412.02
553.88	34520.56
554.08	34874.86
554.28	34455.03
554.48	34579.95
554.69	34573.81
554.89	34459.12
555.09	34545.14
555.29	34590.19
555.49	34692.59
555.69	34706.93
555.89	34287.09
556.10	34903.53
556.30	34612.72
556.50	34942.44
556.70	34919.92
556.90	34719.21
557.10	35055.08
557.30	34946.54
557.50	35087.85
557.70	35190.25
557.91	35247.59
558.11	35016.17
558.31	35329.51
558.51	34934.25
558.71	35149.29
558.91	35077.61
559.11	35364.32
559.31	35407.33
559.51	34942.44
559.72	35143.14
559.92	35364.32
560.12	35014.12
560.32	35202.53
560.52	35087.85
560.72	35331.56
560.92	35292.65
561.12	35483.11
561.32	35671.52
561.52	35100.14
561.72	35825.12
561.93	35329.51
562.13	35532.26
562.33	35220.97
562.53	35904.99
562.73	35149.29
562.93	35548.64
563.13	35761.63
563.33	35562.98
563.53	35773.92
563.73	35214.82
563.93	35907.04
564.13	36197.85
564.33	35554.79
564.53	35675.62
564.74	36128.22
564.94	35950.04
565.14	36060.63
565.34	35562.98
565.54	36333.01
565.74	35806.69
565.94	35980.76
566.14	35751.39
566.34	36036.06
566.54	36423.12
566.74	35605.98
566.94	35972.57
567.14	36128.22
567.34	36085.21
567.54	36105.69
567.74	36312.53
567.94	36040.15
568.14	36257.24
568.34	36165.08
568.54	36117.98
568.74	36462.04
568.94	36079.07
569.14	36779.47
569.34	36406.74
569.54	36357.59
569.75	35993.05
569.95	36439.51
570.15	36705.74
570.35	36394.45
570.55	36054.49
570.75	36695.50
570.95	36251.09
571.15	36627.92
571.35	36629.97
571.55	36546.00
571.75	36406.74
571.95	36593.11
572.15	36443.60
572.35	36509.14
572.55	36709.84
572.75	36351.45
572.95	37037.51
573.15	36742.61
573.35	36693.46
573.55	36546.00
573.75	36603.35
573.95	36734.42
574.15	36459.99
574.35	37096.91
574.55	36562.39
574.75	36681.17
574.95	36752.85
575.15	36869.58
575.34	36875.73
575.54	37348.81
575.74	37051.85
575.94	37152.20
576.14	36836.81
576.34	37152.20
576.54	37117.39
576.74	37045.71
576.94	37242.31
577.14	37268.94
577.34	37520.84
577.54	37137.87
577.74	37340.61
577.94	36851.15
578.14	37483.97
578.34	37684.67
578.54	37326.28
578.74	36980.17
578.94	37410.25
579.14	37246.41
579.34	37481.92
579.54	37631.43
579.74	37707.20
579.94	37400.01
580.13	37758.40
580.33	37787.07
580.53	37813.70
580.73	37447.11
580.93	37721.54
581.13	37901.76
581.33	38131.13
581.53	38176.19
581.73	37510.60
581.93	38002.11
582.13	37971.39
582.33	37717.44
582.53	37932.48
582.73	38235.58
582.92	38172.09
583.12	37977.53
583.32	38153.66
583.52	38151.61
583.72	38372.79
583.92	38061.50
584.12	38256.06
584.32	38524.34
584.52	38675.89
584.72	38194.62
584.92	38710.71
585.11	38669.75
585.31	38405.56
585.51	38458.81
585.71	38759.86
585.91	38714.80
586.11	38143.42
586.31	38284.73
586.51	38135.23
586.71	38354.36
586.91	38774.19
587.10	38522.29
587.30	38673.84
587.50	38895.02
587.70	38852.02
587.90	38843.82
588.10	39060.91
588.30	38792.62
588.50	39191.98
588.69	38880.69
