SpectraSuite Data File
++++++++++++++++++++++++++++++++++++
Date: Tue Jun 13 11:58:31 CEST 2017
User: INFO_000
Dark Spectrum Present: No
Reference Spectrum Present: No
Number of Sampled Component Spectra: 1
Spectrometers: USB4H00879
Integration Time (usec): 30000 (USB4H00879)
Spectra Averaged: 1 (USB4H00879)
Boxcar Smoothing: 0 (USB4H00879)
Correct for Electrical Dark: No (USB4H00879)
Strobe/Lamp Enabled: No (USB4H00879)
Correct for Detector Non-linearity: No (USB4H00879)
Correct for Stray Light: No (USB4H00879)
Number of Pixels in Processed Spectrum: 3648
>>>>>Begin Processed Spectral Data<<<<<
345.13	1357.80
345.34	1357.80
345.56	1357.80
345.78	1392.62
345.99	1335.28
346.21	1564.65
346.42	1531.88
346.64	1462.25
346.86	1671.14
347.07	1456.11
347.29	1466.35
347.50	1468.39
347.72	1507.30
347.94	1609.70
348.15	1466.35
348.37	1445.87
348.59	1615.85
348.80	1439.72
349.02	1617.90
349.23	1615.85
349.45	1624.04
349.67	1560.55
349.88	1619.94
350.10	1667.05
350.31	1671.14
350.53	1560.55
350.75	1619.94
350.96	1619.94
351.18	1615.85
351.39	1667.05
351.61	1583.08
351.82	1687.53
352.04	1691.62
352.26	1640.42
352.47	1624.04
352.69	1583.08
352.90	1568.74
353.12	1679.33
353.34	1665.00
353.55	1662.95
353.77	1669.09
353.98	1603.56
354.20	1607.66
354.41	1607.66
354.63	1646.57
354.85	1665.00
355.06	1683.43
355.28	1527.78
355.49	1712.10
355.71	1589.22
355.92	1669.09
356.14	1679.33
356.35	1693.67
356.57	1564.65
356.79	1646.57
357.00	1658.85
357.22	1669.09
357.43	1642.47
357.65	1720.29
357.86	1662.95
358.08	1656.81
358.29	1648.61
358.51	1654.76
358.72	1718.25
358.94	1652.71
359.16	1705.96
359.37	1771.49
359.59	1742.82
359.80	1773.54
360.02	1671.14
360.23	1708.01
360.45	1677.29
360.66	1689.57
360.88	1705.96
361.09	1628.14
361.31	1669.09
361.52	1654.76
361.74	1667.05
361.95	1716.20
362.17	1660.90
362.38	1746.92
362.60	1665.00
362.81	1716.20
363.03	1650.66
363.24	1656.81
363.46	1757.16
363.67	1767.40
363.89	1710.05
364.10	1691.62
364.32	1742.82
364.53	1798.12
364.75	1669.09
364.96	1753.06
365.18	1665.00
365.39	1759.21
365.61	1650.66
365.82	1775.59
366.04	1716.20
366.25	1683.43
366.47	1777.64
366.68	1705.96
366.90	1734.63
367.11	1753.06
367.33	1804.26
367.54	1673.19
367.76	1708.01
367.97	1777.64
368.19	1677.29
368.40	1796.07
368.62	1718.25
368.83	1781.73
369.05	1808.36
369.26	1697.77
369.48	1726.44
369.69	1798.12
369.91	1683.43
370.12	1712.10
370.33	1781.73
370.55	1738.73
370.76	1759.21
370.98	1810.40
371.19	1873.89
371.41	1701.86
371.62	1837.03
371.84	1624.04
372.05	1751.01
372.27	1789.92
372.48	1828.84
372.69	1839.08
372.91	1796.07
373.12	1871.84
373.34	1783.78
373.55	1841.12
373.77	1798.12
373.98	1777.64
374.20	1843.17
374.41	1890.28
374.62	1834.98
374.84	1830.88
375.05	1841.12
375.27	1882.08
375.48	1822.69
375.70	1796.07
375.91	1880.04
376.12	1998.82
376.34	1896.42
376.55	1978.34
376.77	1808.36
376.98	1841.12
377.19	1871.84
377.41	1832.93
377.62	1865.70
377.84	1863.65
378.05	2002.91
378.27	1855.46
378.48	2064.35
378.69	1982.43
378.91	1953.76
379.12	1925.09
379.34	1906.66
379.55	1990.63
379.76	1955.81
379.98	1941.47
380.19	1976.29
380.41	1955.81
380.62	1996.77
380.83	1945.57
381.05	1951.71
381.26	1953.76
381.47	1943.52
381.69	1927.14
381.90	2082.78
382.12	1984.48
382.33	2015.20
382.54	1947.62
382.76	1896.42
382.97	2007.01
383.19	1929.19
383.40	2093.02
383.61	1918.95
383.83	2037.73
384.04	2015.20
384.25	2004.96
384.47	2027.49
384.68	2084.83
384.89	2037.73
385.11	2037.73
385.32	2045.92
385.54	2072.54
385.75	1970.15
385.96	2056.16
386.18	2158.56
386.39	2103.26
386.60	2052.06
386.82	2115.55
387.03	2050.02
387.24	2117.60
387.46	2015.20
387.67	2150.37
387.88	2133.98
388.10	2131.94
388.31	2097.12
388.52	2162.66
388.74	2095.07
388.95	2078.69
389.16	2156.51
389.38	2168.80
389.59	2138.08
389.80	2232.29
390.02	2201.57
390.23	2365.40
390.44	2131.94
390.66	2125.79
390.87	2224.09
391.08	2183.13
391.30	2377.69
391.51	2310.11
391.72	2301.92
391.94	2224.09
392.15	2269.15
392.36	2207.71
392.58	2232.29
392.79	2254.81
393.00	2213.85
393.22	2260.96
393.43	2308.06
393.64	2396.12
393.85	2410.46
394.07	2332.64
394.28	2351.07
394.49	2387.93
394.71	2283.49
394.92	2369.50
395.13	2361.31
395.35	2312.16
395.56	2465.75
395.77	2396.12
395.98	2439.13
396.20	2383.84
396.41	2359.26
396.62	2555.86
396.84	2430.94
397.05	2492.38
397.26	2512.86
397.47	2484.19
397.69	2496.47
397.90	2553.82
398.11	2547.67
398.32	2473.95
398.54	2367.45
398.75	2478.04
398.96	2619.35
399.18	2576.34
399.39	2602.97
399.60	2680.79
399.81	2697.17
400.03	2547.67
400.24	2686.94
400.45	2535.39
400.66	2641.88
400.88	2631.64
401.09	2652.12
401.30	2568.15
401.51	2617.30
401.73	2686.94
401.94	2715.61
402.15	2734.04
402.36	2699.22
402.58	2676.70
402.79	2639.83
403.00	2740.18
403.21	2731.99
403.43	2738.13
403.64	2744.28
403.85	2668.50
404.06	2676.70
404.27	2768.85
404.49	2736.09
404.70	2764.76
404.91	2762.71
405.12	2848.72
405.34	2762.71
405.55	2879.44
405.76	2756.57
405.97	2797.53
406.19	2869.20
406.40	2795.48
406.61	2869.20
406.82	2850.77
407.03	2887.64
407.25	2861.01
407.46	2967.51
407.67	2940.88
407.88	2901.97
408.09	2910.16
408.31	2969.55
408.52	2863.06
408.73	2944.98
408.94	2985.94
409.15	3043.28
409.37	2996.18
409.58	3008.47
409.79	2959.31
410.00	3112.91
410.21	3018.71
410.43	3016.66
410.64	3008.47
410.85	2947.03
411.06	3041.23
411.27	3006.42
411.48	3028.95
411.70	3065.81
411.91	3076.05
412.12	3231.69
412.33	2947.03
412.54	3229.65
412.76	3098.58
412.97	3237.84
413.18	3112.91
413.39	3088.34
413.60	3117.01
413.81	3141.58
414.03	3047.38
414.24	3205.07
414.45	3246.03
414.66	3190.74
414.87	3241.93
415.08	3217.36
415.30	3291.09
415.51	3303.37
415.72	3282.89
415.93	3342.28
416.14	3395.53
416.35	3246.03
416.56	3373.00
416.78	3252.17
416.99	3342.28
417.20	3276.75
417.41	3395.53
417.62	3442.64
417.83	3491.79
418.04	3368.91
418.26	3428.30
418.47	3325.90
418.68	3405.77
418.89	3493.83
419.10	3555.27
419.31	3469.26
419.52	3557.32
419.73	3477.45
419.95	3542.99
420.16	3551.18
420.37	3499.98
420.58	3672.01
420.79	3528.65
421.00	3573.71
421.21	3639.24
421.42	3540.94
421.63	3614.66
421.85	3663.82
422.06	3676.10
422.27	3573.71
422.48	3612.62
422.69	3700.68
422.90	3694.54
423.11	3798.98
423.32	3760.07
423.53	3878.85
423.75	3819.46
423.96	3905.48
424.17	3864.52
424.38	3909.57
424.59	3919.81
424.80	3964.87
425.01	3770.31
425.22	3887.04
425.43	3905.48
425.64	3971.01
425.85	3983.30
426.06	3991.49
426.28	4036.55
426.49	4057.03
426.70	4052.93
426.91	4071.36
427.12	4085.70
427.33	4071.36
427.54	3997.64
427.75	4173.76
427.96	4237.25
428.17	4134.85
428.38	4198.34
428.59	4292.54
428.80	4194.24
429.01	4353.98
429.23	4331.45
429.44	4403.13
429.65	4378.56
429.86	4388.80
430.07	4147.14
430.28	4347.84
430.49	4351.93
430.70	4460.48
430.91	4351.93
431.12	4403.13
431.33	4464.57
431.54	4351.93
431.75	4376.51
431.96	4585.40
432.17	4540.35
432.38	4487.10
432.59	4628.41
432.80	4583.35
433.01	4573.11
433.22	4556.73
433.43	4706.23
433.64	4614.07
433.85	4628.41
434.06	4671.42
434.27	4665.27
434.49	4767.67
434.70	4751.29
434.91	4808.63
435.12	4827.06
435.33	4777.91
435.54	4771.77
435.75	4816.82
435.96	4923.32
436.17	4810.68
436.38	4775.86
436.59	4935.60
436.80	4863.93
437.01	5058.48
437.22	5052.34
437.43	4956.08
437.64	4966.32
437.85	5273.52
438.06	5017.52
438.27	4913.08
438.48	5068.72
438.69	5117.87
438.90	4990.90
439.11	5029.81
439.32	5072.82
439.53	5244.85
439.74	5300.14
439.95	5222.32
440.16	5259.18
440.37	5255.09
440.57	5103.54
440.78	5138.35
440.99	5353.39
441.20	5263.28
441.41	5074.87
441.62	5416.88
441.83	5150.64
442.04	5463.98
442.25	5459.88
442.46	5461.93
442.67	5570.48
442.88	5791.66
443.09	5375.92
443.30	5474.22
443.51	5482.41
443.72	5738.41
443.93	5627.82
444.14	5769.13
444.35	5433.26
444.56	5646.25
444.77	5732.26
444.98	5566.38
445.19	5636.01
445.40	5556.14
445.61	5545.90
445.81	5937.06
446.02	5849.00
446.23	5654.44
446.44	5617.58
446.65	5611.43
446.86	5871.53
447.07	5738.41
447.28	5943.21
447.49	5859.24
447.70	5943.21
447.91	5826.47
448.12	5932.97
448.33	6008.74
448.54	5959.59
448.74	5736.36
448.95	6000.55
449.16	5988.26
449.37	6254.50
449.58	5935.01
449.79	6143.91
450.00	6004.64
450.21	6188.96
450.42	6258.59
450.63	6281.12
450.84	6274.98
451.05	6352.80
451.25	6086.56
451.46	6219.68
451.67	6350.75
451.88	6373.28
452.09	6465.44
452.30	6262.69
452.51	6379.42
452.72	6481.82
452.93	6621.08
453.13	6444.96
453.34	6367.13
453.55	6518.68
453.76	6731.67
453.97	7067.54
454.18	6799.26
454.39	6684.57
454.60	6639.51
454.81	6643.61
455.01	6842.26
455.22	6459.29
455.43	6836.12
455.64	6891.41
455.85	7018.39
456.06	7079.83
456.27	6932.37
456.48	6840.22
456.68	7096.21
456.89	6907.80
457.10	7139.22
457.31	7186.32
457.52	7122.84
457.73	7214.99
457.94	7477.13
458.14	7301.01
458.35	7436.17
458.56	7368.59
458.77	7219.09
458.98	7532.43
459.19	7456.65
459.39	7434.13
459.60	7522.19
459.81	7499.66
460.02	7597.96
460.23	7651.21
460.44	7845.77
460.65	7804.81
460.85	7813.00
461.06	7899.02
461.27	7663.50
461.48	8066.95
461.69	8025.99
461.89	7901.06
462.10	7954.31
462.31	7759.75
462.52	7927.69
462.73	7950.21
462.94	8226.69
463.14	8277.89
463.35	8091.52
463.56	8679.29
463.77	8331.14
463.98	8181.64
464.18	8406.91
464.39	8349.57
464.60	8642.43
464.81	8683.39
465.02	8431.49
465.23	8845.18
465.43	8750.97
465.64	8824.70
465.85	8892.28
466.06	8568.70
466.27	9084.79
466.47	9129.84
466.68	8929.14
466.89	8963.96
467.10	9179.00
467.30	8879.99
467.51	9088.89
467.72	9412.46
467.93	9109.36
468.14	9230.20
468.34	9459.57
468.55	9400.18
468.76	9580.40
468.97	9484.14
469.17	9688.94
469.38	9576.30
469.59	9770.86
469.80	9641.84
470.01	9750.38
470.21	9738.09
470.42	9977.70
470.63	9987.94
470.84	9848.68
471.04	10358.63
471.25	10135.40
471.46	10137.45
471.67	10403.68
471.87	10209.12
472.08	10295.14
472.29	10735.45
472.50	10358.63
472.70	10241.89
472.91	10565.47
473.12	10598.24
473.33	10741.60
473.53	10944.34
473.74	10786.65
473.95	11054.94
474.16	11038.55
474.36	11024.22
474.57	11151.19
474.78	11292.50
474.99	11151.19
475.19	11304.79
475.40	11577.17
475.61	11425.62
475.81	11681.61
476.02	11747.15
476.23	11679.57
476.44	11827.02
476.64	12187.46
476.85	11990.86
477.06	11947.85
477.27	12099.40
477.47	12382.02
477.68	12361.54
477.89	12549.95
478.09	12429.12
478.30	12332.87
478.51	12627.78
478.71	12885.82
478.92	12828.48
479.13	12822.33
479.34	13004.60
479.54	12984.12
479.75	13047.61
479.96	13047.61
480.16	13139.77
480.37	13303.60
480.58	13526.83
480.78	13549.36
480.99	13737.77
481.20	13838.12
481.41	13842.22
481.61	13915.95
481.82	14120.74
482.03	13899.56
482.23	14104.36
482.44	14155.56
482.65	14143.27
482.85	14440.23
483.06	14440.23
483.27	14429.99
483.47	14454.56
483.68	14485.28
483.89	14780.19
484.09	14624.54
484.30	14796.57
484.51	14952.22
484.71	15175.45
484.92	14931.74
485.13	15458.07
485.33	15159.06
485.54	15232.79
485.75	15392.53
485.95	15619.86
486.16	15836.94
486.37	15732.50
486.57	15654.67
486.78	15593.23
486.98	15712.02
487.19	15922.96
487.40	16066.31
487.60	15904.53
487.81	16097.03
488.02	16107.27
488.22	16400.13
488.43	16269.06
488.64	16539.40
488.84	16529.16
489.05	16725.76
489.25	16566.02
489.46	16807.68
489.67	16793.34
489.87	17041.15
490.08	17151.74
490.29	17116.92
490.49	17221.37
490.70	17518.32
490.90	17313.53
491.11	17446.65
491.32	17671.92
491.52	17374.97
491.73	17680.11
491.94	17958.64
492.14	17770.22
492.35	18171.63
492.55	17956.59
492.76	18120.43
492.97	18198.25
493.17	18208.49
493.38	18046.70
493.58	18484.97
493.79	18329.32
494.00	18460.39
494.20	18953.95
494.41	18695.91
494.61	18833.12
494.82	18667.24
495.02	18812.64
495.23	18976.48
495.44	18671.33
495.64	19132.12
495.85	19377.88
496.05	19363.54
496.26	19158.75
496.47	19408.60
496.67	19328.73
496.88	19517.14
497.08	19197.66
497.29	19629.78
497.49	19672.79
497.70	20137.68
497.91	19908.30
498.11	19803.86
498.32	19971.79
498.52	20102.86
498.73	20209.36
498.93	20035.28
499.14	20498.12
499.34	20254.41
499.55	20215.50
499.76	20385.48
499.96	20498.12
500.17	20371.15
500.37	20494.02
500.58	20637.38
500.78	20825.79
500.99	20917.95
501.19	21006.02
501.40	20967.10
501.60	20850.37
501.81	20895.43
502.02	21167.80
502.22	21051.07
502.43	21044.93
502.63	21225.15
502.84	21436.09
503.04	21294.78
503.25	21436.09
503.45	21511.86
503.66	21442.23
503.86	21348.03
504.07	21950.13
504.27	21558.97
504.48	21905.07
504.68	22111.92
504.89	21982.90
505.09	22242.99
505.30	21900.98
505.50	22138.54
505.71	22281.90
505.91	21997.23
506.12	22099.63
506.32	22218.41
506.53	22427.31
506.73	22597.29
506.94	22662.82
507.14	22628.01
507.35	22498.98
507.55	22836.90
507.76	22875.81
507.96	22431.40
508.17	22587.05
508.37	22738.60
508.58	22640.29
508.78	22814.37
508.99	22986.40
509.19	22785.70
509.40	22689.45
509.60	22808.23
509.81	22859.43
510.01	22771.36
510.22	23107.23
510.42	22924.96
510.63	23008.93
510.83	23426.71
511.04	23453.34
511.24	23488.15
511.44	23578.26
511.65	23559.83
511.85	23631.51
512.06	23391.90
512.26	23522.97
512.47	23543.45
512.67	23352.99
512.88	23717.53
513.08	23631.51
513.29	23916.18
513.49	23674.52
513.69	23494.30
513.90	23715.48
514.10	23797.40
514.31	23965.33
514.51	24131.22
514.72	24008.34
514.92	24032.91
515.13	23994.00
515.33	24270.48
515.53	24286.86
515.74	24503.95
515.94	24411.79
516.15	24213.13
516.35	24211.09
516.56	24731.27
516.76	24358.54
516.96	24532.62
517.17	24589.96
517.37	24579.72
517.58	24657.54
517.78	24723.08
517.99	24731.27
518.19	24929.92
518.39	24749.70
518.60	24893.06
518.80	24974.98
519.01	24841.86
519.21	25007.75
519.41	25110.14
519.62	25269.89
519.82	25112.19
520.03	25294.46
520.23	25288.32
520.43	25329.28
520.64	25366.14
520.84	25575.03
521.05	25337.47
521.25	25618.04
521.45	25742.97
521.66	25732.73
521.86	25779.83
522.07	25837.17
522.27	25523.83
522.47	25869.94
522.68	26097.27
522.88	25591.42
523.08	26044.02
523.29	26429.04
523.49	26506.86
523.70	26472.04
523.90	26594.92
524.10	26220.14
524.31	26574.44
524.51	26289.77
524.71	26764.90
524.92	26824.29
525.12	27076.19
525.33	26760.81
525.53	26762.86
525.73	26885.73
525.94	27041.38
526.14	26984.04
526.34	26969.70
526.55	27469.40
526.75	27221.60
526.95	27158.11
527.16	27612.76
527.36	27207.26
527.56	27657.82
527.77	27786.84
527.97	27862.61
528.17	28175.95
528.38	27784.79
528.58	27729.50
528.78	27899.48
528.99	27752.02
529.19	28311.12
529.39	28118.61
529.60	28218.96
529.80	27719.26
530.00	28153.43
530.21	28624.46
530.41	28452.43
530.61	28350.03
530.82	28505.68
531.02	28593.74
531.22	28622.41
531.43	28489.29
531.63	28665.42
531.83	29183.55
532.04	29021.77
532.24	28868.17
532.44	29001.29
532.64	29077.06
532.85	29134.40
533.05	29210.18
533.25	29353.54
533.46	29310.53
533.66	29525.57
533.86	29437.50
534.07	29646.40
534.27	29681.21
534.47	29820.47
534.67	29802.04
534.88	29775.42
535.08	30049.85
535.28	30279.22
535.49	29812.28
535.69	30178.87
535.89	30297.65
536.09	30293.55
536.30	30299.70
536.50	30481.97
536.70	30588.46
536.91	30535.21
537.11	30733.87
537.31	30838.31
537.51	30662.19
537.72	31227.43
537.92	30881.32
538.12	31065.64
538.32	31071.78
538.53	31149.60
538.73	31241.76
538.93	31301.15
539.13	31444.51
539.34	31493.66
539.54	31571.49
539.74	31673.88
539.94	31807.00
540.15	31168.04
540.35	31807.00
540.55	31696.41
540.75	31589.92
540.96	31995.42
541.16	31860.25
541.36	32056.85
541.56	31880.73
541.77	31862.30
541.97	31809.05
542.17	32392.72
542.37	32312.85
542.58	32249.36
542.78	31948.31
542.98	32435.73
543.18	32359.95
543.38	32792.08
543.59	32787.98
543.79	32202.26
543.99	32452.11
544.19	32785.93
544.40	32534.03
544.60	32859.66
544.80	32871.95
545.00	32531.98
545.20	33084.94
545.41	33066.50
545.61	32855.56
545.81	33500.67
546.01	33226.24
546.21	32876.04
546.42	33365.51
546.62	33269.25
546.82	32740.88
547.02	33166.85
547.22	33242.63
547.43	33435.14
547.63	33453.57
547.83	33549.82
548.03	33525.25
548.23	33611.26
548.44	33689.09
548.64	33983.99
548.84	33535.49
549.04	33971.71
549.24	33930.75
549.45	33674.75
549.65	33572.35
549.85	33609.22
550.05	33895.93
550.25	33904.12
550.45	34223.61
550.66	33666.56
550.86	34008.57
551.06	34180.60
551.26	34024.95
551.46	34346.48
551.66	34129.40
551.87	33846.78
552.07	34104.82
552.27	34342.39
552.47	34307.57
552.67	34625.01
552.87	34395.64
553.07	34491.89
553.28	34665.97
553.48	34485.75
553.68	34387.44
553.88	34620.91
554.08	34541.04
554.28	34604.53
554.48	34733.55
554.69	34862.57
554.89	35063.27
555.09	35012.07
555.29	34760.17
555.49	34778.61
555.69	35108.33
555.89	34803.18
556.10	35167.72
556.30	34676.21
556.50	35155.43
556.70	34967.02
556.90	34999.79
557.10	35137.00
557.30	34575.86
557.50	35018.22
557.70	35401.19
557.91	35243.49
558.11	35280.36
558.31	35337.70
558.51	35190.25
558.71	35223.01
558.91	35249.64
559.11	35464.67
559.31	35085.80
559.51	35114.47
559.72	35280.36
559.92	35282.41
560.12	35364.32
560.32	35356.13
560.52	35124.71
560.72	35259.88
560.92	35464.67
561.12	35429.86
561.32	36003.29
561.52	35337.70
561.72	35415.52
561.93	35241.45
562.13	35493.35
562.33	35382.76
562.53	36077.02
562.73	35425.76
562.93	35915.23
563.13	35755.49
563.33	35739.10
563.53	35878.36
563.73	35655.14
563.93	35804.64
564.13	36115.93
564.33	35962.33
564.53	35771.87
564.74	36044.25
564.94	35534.31
565.14	35728.86
565.34	35892.70
565.54	35923.42
565.74	35997.15
565.94	36277.72
566.14	36144.60
566.34	35612.13
566.54	36173.27
566.74	35685.86
566.94	35948.00
567.14	35974.62
567.34	36181.46
567.54	35659.23
567.74	36013.53
567.94	35982.81
568.14	36429.27
568.34	36285.91
568.54	36242.90
568.74	36165.08
568.94	36369.88
569.14	36197.85
569.34	36113.88
569.54	36255.19
569.75	36144.60
569.95	36265.43
570.15	36924.88
570.35	36546.00
570.55	36367.83
570.75	36574.67
570.95	36525.52
571.15	36724.18
571.35	36732.37
571.55	36644.30
571.75	36232.66
571.95	36376.02
572.15	36541.91
572.35	37012.94
572.55	36799.95
572.75	36515.28
572.95	36406.74
573.15	36414.93
573.35	36558.29
573.55	36617.68
573.75	36869.58
573.95	36947.40
574.15	36488.66
574.35	37219.78
574.55	37086.67
574.75	36984.27
574.95	37074.38
575.15	36791.76
575.34	36963.79
575.54	37027.28
575.74	37115.34
575.94	37240.26
576.14	37014.99
576.34	37170.63
576.54	36986.32
576.74	37064.14
576.94	37205.45
577.14	37111.24
577.34	37154.25
577.54	37342.66
577.74	36924.88
577.94	37141.96
578.14	37381.57
578.34	37635.52
578.54	36994.51
578.74	36908.49
578.94	37676.48
579.14	37266.89
579.34	36986.32
579.54	37187.02
579.74	37457.35
579.94	37346.76
580.13	37789.12
580.33	37795.26
580.53	37395.91
580.73	37651.91
580.93	37424.58
581.13	37520.84
581.33	37768.64
581.53	38061.50
581.73	37938.62
581.93	37846.46
582.13	38041.02
582.33	37977.53
582.53	37920.19
582.73	38030.78
582.92	37883.33
583.12	38143.42
583.32	38073.79
583.52	37750.21
583.72	38157.75
583.92	38098.36
584.12	38151.61
584.32	38151.61
584.52	38159.80
584.72	38415.80
584.92	38241.72
585.11	38342.07
585.31	38329.78
585.51	38092.22
585.71	38303.16
585.91	38221.24
586.11	37922.24
586.31	37901.76
586.51	38553.01
586.71	38704.56
586.91	38313.40
587.10	38165.95
587.30	38845.87
587.50	38358.45
587.70	38800.82
587.90	38532.53
588.10	39005.61
588.30	38550.96
588.50	38503.86
588.69	38575.54
